:Data_list: 20011006_ace_sis_5m.txt
:Created: 2001 Oct 07 0011 UT
# Prepared by the U.S. Dept. of Commerce, NOAA, Space Environment Center.
# Please send comments and suggestions to sec@sec.noaa.gov 
# 
# Units: proton flux p/cs2-sec-ster
# Status(S): 0 = nominal data, 1 to 8 = bad data record, 9 = no data
# Missing data values: -1.00e+05
# Source: ACE Satellite - Solar Isotope Spectrometer
#
# 5-minute averaged Real-time Integral Flux of High-energy Solar Protons
# 
#                 Modified Seconds
# UT Date   Time   Julian  of the      ---- Integral Proton Flux ----
# YR MO DA  HHMM     Day     Day       S    > 10 MeV    S    > 30 MeV
#--------------------------------------------------------------------
2001 10 06  0000    52188       0      0    4.92e+00    0    7.89e-01
2001 10 06  0005    52188     300      0    5.07e+00    0    8.19e-01
2001 10 06  0010    52188     600      0    4.99e+00    0    8.12e-01
2001 10 06  0015    52188     900      0    5.15e+00    0    8.11e-01
2001 10 06  0020    52188    1200      0    5.03e+00    0    7.82e-01
2001 10 06  0025    52188    1500      0    5.00e+00    0    7.92e-01
2001 10 06  0030    52188    1800      0    5.11e+00    0    8.37e-01
2001 10 06  0035    52188    2100      0    5.09e+00    0    8.03e-01
2001 10 06  0040    52188    2400      0    5.01e+00    0    8.37e-01
2001 10 06  0045    52188    2700      0    4.97e+00    0    8.36e-01
2001 10 06  0050    52188    3000      0    5.03e+00    0    8.04e-01
2001 10 06  0055    52188    3300      0    5.41e+00    0    8.94e-01
2001 10 06  0100    52188    3600      0    5.76e+00    0    9.40e-01
2001 10 06  0105    52188    3900      0    5.11e+00    0    8.27e-01
2001 10 06  0110    52188    4200      0    4.99e+00    0    8.59e-01
2001 10 06  0115    52188    4500      0    4.97e+00    0    8.21e-01
2001 10 06  0120    52188    4800      0    4.93e+00    0    7.91e-01
2001 10 06  0125    52188    5100      0    4.97e+00    0    8.01e-01
2001 10 06  0130    52188    5400      0    5.09e+00    0    8.22e-01
2001 10 06  0135    52188    5700      0    4.98e+00    0    8.64e-01
2001 10 06  0140    52188    6000      0    4.96e+00    0    8.56e-01
2001 10 06  0145    52188    6300      0    4.93e+00    0    8.44e-01
2001 10 06  0150    52188    6600      0    5.02e+00    0    8.20e-01
2001 10 06  0155    52188    6900      0    5.02e+00    0    8.61e-01
2001 10 06  0200    52188    7200      0    5.04e+00    0    8.70e-01
2001 10 06  0205    52188    7500      0    5.21e+00    0    8.88e-01
2001 10 06  0210    52188    7800      0    5.14e+00    0    8.63e-01
2001 10 06  0215    52188    8100      0    4.94e+00    0    8.53e-01
2001 10 06  0220    52188    8400      0    5.20e+00    0    8.97e-01
2001 10 06  0225    52188    8700      0    5.13e+00    0    8.88e-01
2001 10 06  0230    52188    9000      0    5.25e+00    0    9.11e-01
2001 10 06  0235    52188    9300      0    5.16e+00    0    9.12e-01
2001 10 06  0240    52188    9600      0    5.08e+00    0    9.13e-01
2001 10 06  0245    52188    9900      0    5.06e+00    0    9.05e-01
2001 10 06  0250    52188   10200      0    5.19e+00    0    9.10e-01
2001 10 06  0255    52188   10500      0    5.02e+00    0    9.04e-01
2001 10 06  0300    52188   10800      0    4.80e+00    0    7.99e-01
2001 10 06  0305    52188   11100      0    5.42e+00    0    9.32e-01
2001 10 06  0310    52188   11400      0    5.00e+00    0    8.91e-01
2001 10 06  0315    52188   11700      0    4.83e+00    0    8.59e-01
2001 10 06  0320    52188   12000      0    4.88e+00    0    8.68e-01
2001 10 06  0325    52188   12300      0    4.83e+00    0    8.79e-01
2001 10 06  0330    52188   12600      0    4.80e+00    0    8.60e-01
2001 10 06  0335    52188   12900      0    4.90e+00    0    8.71e-01
2001 10 06  0340    52188   13200      0    4.99e+00    0    8.77e-01
2001 10 06  0345    52188   13500      0    4.94e+00    0    8.86e-01
2001 10 06  0350    52188   13800      0    4.83e+00    0    8.72e-01
2001 10 06  0355    52188   14100      0    4.80e+00    0    8.71e-01
2001 10 06  0400    52188   14400      0    4.81e+00    0    8.53e-01
2001 10 06  0405    52188   14700      0    4.75e+00    0    8.25e-01
2001 10 06  0410    52188   15000      0    4.75e+00    0    8.59e-01
2001 10 06  0415    52188   15300      0    4.82e+00    0    8.93e-01
2001 10 06  0420    52188   15600      0    4.90e+00    0    9.16e-01
2001 10 06  0425    52188   15900      0    4.89e+00    0    8.80e-01
2001 10 06  0430    52188   16200      0    5.11e+00    0    9.45e-01
2001 10 06  0435    52188   16500      0    4.79e+00    0    8.96e-01
2001 10 06  0440    52188   16800      0    4.80e+00    0    8.71e-01
2001 10 06  0445    52188   17100      0    4.79e+00    0    8.48e-01
2001 10 06  0450    52188   17400      0    4.86e+00    0    9.28e-01
2001 10 06  0455    52188   17700      0    4.78e+00    0    8.79e-01
2001 10 06  0500    52188   18000      0    4.85e+00    0    8.72e-01
2001 10 06  0505    52188   18300      0    4.75e+00    0    8.39e-01
2001 10 06  0510    52188   18600      0    4.90e+00    0    8.96e-01
2001 10 06  0515    52188   18900      0    4.75e+00    0    8.63e-01
2001 10 06  0520    52188   19200      0    4.88e+00    0    9.16e-01
2001 10 06  0525    52188   19500      0    4.90e+00    0    9.47e-01
2001 10 06  0530    52188   19800      0    4.68e+00    0    8.17e-01
2001 10 06  0535    52188   20100      0    4.89e+00    0    9.06e-01
2001 10 06  0540    52188   20400      0    5.07e+00    0    9.69e-01
2001 10 06  0545    52188   20700      0    4.88e+00    0    9.24e-01
2001 10 06  0550    52188   21000      0    4.88e+00    0    9.37e-01
2001 10 06  0555    52188   21300      0    4.87e+00    0    8.94e-01
2001 10 06  0600    52188   21600      0    4.93e+00    0    9.57e-01
2001 10 06  0605    52188   21900      0    5.07e+00    0    9.56e-01
2001 10 06  0610    52188   22200      0    5.05e+00    0    9.61e-01
2001 10 06  0615    52188   22500      0    4.95e+00    0    9.09e-01
2001 10 06  0620    52188   22800      0    4.96e+00    0    9.10e-01
2001 10 06  0625    52188   23100      0    4.97e+00    0    9.08e-01
2001 10 06  0630    52188   23400      0    4.94e+00    0    9.10e-01
2001 10 06  0635    52188   23700      0    5.02e+00    0    9.30e-01
2001 10 06  0640    52188   24000      0    4.96e+00    0    9.14e-01
2001 10 06  0645    52188   24300      0    5.08e+00    0    1.00e+00
2001 10 06  0650    52188   24600      0    5.11e+00    0    9.80e-01
2001 10 06  0655    52188   24900      0    5.01e+00    0    9.34e-01
2001 10 06  0700    52188   25200      0    5.10e+00    0    9.46e-01
2001 10 06  0705    52188   25500      0    5.03e+00    0    9.06e-01
2001 10 06  0710    52188   25800      0    5.02e+00    0    9.65e-01
2001 10 06  0715    52188   26100      0    4.93e+00    0    9.51e-01
2001 10 06  0720    52188   26400      0    4.96e+00    0    9.20e-01
2001 10 06  0725    52188   26700      0    4.96e+00    0    9.44e-01
2001 10 06  0730    52188   27000      0    4.89e+00    0    9.33e-01
2001 10 06  0735    52188   27300      0    4.86e+00    0    9.13e-01
2001 10 06  0740    52188   27600      0    4.89e+00    0    9.20e-01
2001 10 06  0745    52188   27900      0    5.31e+00    0    9.92e-01
2001 10 06  0750    52188   28200      0    5.41e+00    0    1.03e+00
2001 10 06  0755    52188   28500      0    4.97e+00    0    9.62e-01
2001 10 06  0800    52188   28800      0    4.94e+00    0    9.76e-01
2001 10 06  0805    52188   29100      0    5.61e+00    0    1.05e+00
2001 10 06  0810    52188   29400      0    5.10e+00    0    9.77e-01
2001 10 06  0815    52188   29700      0    5.12e+00    0    9.76e-01
2001 10 06  0820    52188   30000      0    5.08e+00    0    1.01e+00
2001 10 06  0825    52188   30300      0    5.10e+00    0    9.88e-01
2001 10 06  0830    52188   30600      0    5.08e+00    0    9.48e-01
2001 10 06  0835    52188   30900      0    5.13e+00    0    9.72e-01
2001 10 06  0840    52188   31200      0    4.93e+00    0    9.54e-01
2001 10 06  0845    52188   31500      0    5.13e+00    0    9.87e-01
2001 10 06  0850    52188   31800      0    5.08e+00    0    1.00e+00
2001 10 06  0855    52188   32100      0    5.19e+00    0    1.02e+00
2001 10 06  0900    52188   32400      0    5.09e+00    0    9.91e-01
2001 10 06  0905    52188   32700      0    4.99e+00    0    9.69e-01
2001 10 06  0910    52188   33000      0    5.11e+00    0    9.63e-01
2001 10 06  0915    52188   33300      0    5.18e+00    0    1.01e+00
2001 10 06  0920    52188   33600      0    5.08e+00    0    9.78e-01
2001 10 06  0925    52188   33900      0    5.08e+00    0    9.67e-01
2001 10 06  0930    52188   34200      0    5.12e+00    0    9.86e-01
2001 10 06  0935    52188   34500      0    5.17e+00    0    9.97e-01
2001 10 06  0940    52188   34800      0    5.20e+00    0    1.02e+00
2001 10 06  0945    52188   35100      0    5.31e+00    0    1.06e+00
2001 10 06  0950    52188   35400      0    5.31e+00    0    1.01e+00
2001 10 06  0955    52188   35700      0    5.31e+00    0    1.02e+00
2001 10 06  1000    52188   36000      0    5.30e+00    0    1.02e+00
2001 10 06  1005    52188   36300      0    5.18e+00    0    9.99e-01
2001 10 06  1010    52188   36600      0    5.15e+00    0    9.87e-01
2001 10 06  1015    52188   36900      0    5.05e+00    0    9.99e-01
2001 10 06  1020    52188   37200      0    5.14e+00    0    1.03e+00
2001 10 06  1025    52188   37500      0    5.21e+00    0    1.06e+00
2001 10 06  1030    52188   37800      0    5.15e+00    0    1.01e+00
2001 10 06  1035    52188   38100      0    5.33e+00    0    1.02e+00
2001 10 06  1040    52188   38400      0    5.49e+00    0    1.10e+00
2001 10 06  1045    52188   38700      0    5.15e+00    0    9.87e-01
2001 10 06  1050    52188   39000      0    5.27e+00    0    1.04e+00
2001 10 06  1055    52188   39300      0    5.23e+00    0    9.58e-01
2001 10 06  1100    52188   39600      0    5.39e+00    0    1.06e+00
2001 10 06  1105    52188   39900      0    5.18e+00    0    1.02e+00
2001 10 06  1110    52188   40200      0    5.24e+00    0    1.01e+00
2001 10 06  1115    52188   40500      0    5.16e+00    0    1.01e+00
2001 10 06  1120    52188   40800      0    5.29e+00    0    1.01e+00
2001 10 06  1125    52188   41100      0    5.30e+00    0    1.03e+00
2001 10 06  1130    52188   41400      0    5.21e+00    0    9.83e-01
2001 10 06  1135    52188   41700      0    5.32e+00    0    9.81e-01
2001 10 06  1140    52188   42000      0    5.28e+00    0    1.05e+00
2001 10 06  1145    52188   42300      0    5.43e+00    0    1.03e+00
2001 10 06  1150    52188   42600      0    5.29e+00    0    1.00e+00
2001 10 06  1155    52188   42900      0    5.36e+00    0    1.03e+00
2001 10 06  1200    52188   43200      0    5.33e+00    0    1.08e+00
2001 10 06  1205    52188   43500      0    5.18e+00    0    9.67e-01
2001 10 06  1210    52188   43800      0    5.35e+00    0    1.06e+00
2001 10 06  1215    52188   44100      0    5.16e+00    0    9.62e-01
2001 10 06  1220    52188   44400      0    5.31e+00    0    1.00e+00
2001 10 06  1225    52188   44700      0    5.34e+00    0    1.01e+00
2001 10 06  1230    52188   45000      0    5.81e+00    0    1.04e+00
2001 10 06  1235    52188   45300      0    5.63e+00    0    1.06e+00
2001 10 06  1240    52188   45600      0    5.61e+00    0    1.01e+00
2001 10 06  1245    52188   45900      0    5.38e+00    0    1.03e+00
2001 10 06  1250    52188   46200      0    5.34e+00    0    9.73e-01
2001 10 06  1255    52188   46500      0    5.35e+00    0    9.98e-01
2001 10 06  1300    52188   46800      0    5.27e+00    0    9.87e-01
2001 10 06  1305    52188   47100      0    5.23e+00    0    9.86e-01
2001 10 06  1310    52188   47400      0    5.36e+00    0    1.00e+00
2001 10 06  1315    52188   47700      0    5.37e+00    0    1.02e+00
2001 10 06  1320    52188   48000      0    5.25e+00    0    9.88e-01
2001 10 06  1325    52188   48300      0    5.38e+00    0    1.00e+00
2001 10 06  1330    52188   48600      0    5.59e+00    0    1.05e+00
2001 10 06  1335    52188   48900      0    5.29e+00    0    9.94e-01
2001 10 06  1340    52188   49200      0    5.20e+00    0    9.77e-01
2001 10 06  1345    52188   49500      0    5.24e+00    0    9.99e-01
2001 10 06  1350    52188   49800      0    5.20e+00    0    9.88e-01
2001 10 06  1355    52188   50100      0    5.45e+00    0    1.03e+00
2001 10 06  1400    52188   50400      0    5.34e+00    0    9.64e-01
2001 10 06  1405    52188   50700      0    5.33e+00    0    9.95e-01
2001 10 06  1410    52188   51000      0    5.39e+00    0    1.01e+00
2001 10 06  1415    52188   51300      0    5.48e+00    0    1.01e+00
2001 10 06  1420    52188   51600      0    5.50e+00    0    1.01e+00
2001 10 06  1425    52188   51900      0    5.59e+00    0    1.04e+00
2001 10 06  1430    52188   52200      0    5.53e+00    0    1.06e+00
2001 10 06  1435    52188   52500      0    5.58e+00    0    1.02e+00
2001 10 06  1440    52188   52800      0    5.48e+00    0    9.99e-01
2001 10 06  1445    52188   53100      0    5.63e+00    0    1.09e+00
2001 10 06  1450    52188   53400      0    5.50e+00    0    1.01e+00
2001 10 06  1455    52188   53700      0    5.71e+00    0    1.06e+00
2001 10 06  1500    52188   54000      0    5.79e+00    0    1.08e+00
2001 10 06  1505    52188   54300      0    5.61e+00    0    1.05e+00
2001 10 06  1510    52188   54600      0    5.62e+00    0    1.08e+00
2001 10 06  1515    52188   54900      0    5.71e+00    0    1.07e+00
2001 10 06  1520    52188   55200      0    5.42e+00    0    9.87e-01
2001 10 06  1525    52188   55500      0    5.37e+00    0    1.03e+00
2001 10 06  1530    52188   55800      0    5.32e+00    0    9.87e-01
2001 10 06  1535    52188   56100      0    5.41e+00    0    1.06e+00
2001 10 06  1540    52188   56400      0    5.27e+00    0    1.05e+00
2001 10 06  1545    52188   56700      0    5.50e+00    0    1.06e+00
2001 10 06  1550    52188   57000      0    5.42e+00    0    1.03e+00
2001 10 06  1555    52188   57300      0    5.51e+00    0    1.01e+00
2001 10 06  1600    52188   57600      0    5.46e+00    0    1.03e+00
2001 10 06  1605    52188   57900      0    5.55e+00    0    1.01e+00
2001 10 06  1610    52188   58200      0    5.59e+00    0    1.07e+00
2001 10 06  1615    52188   58500      0    5.62e+00    0    1.02e+00
2001 10 06  1620    52188   58800      0    5.60e+00    0    1.02e+00
2001 10 06  1625    52188   59100      0    5.70e+00    0    1.04e+00
2001 10 06  1630    52188   59400      0    5.69e+00    0    1.02e+00
2001 10 06  1635    52188   59700      0    5.80e+00    0    1.05e+00
2001 10 06  1640    52188   60000      0    5.79e+00    0    1.05e+00
2001 10 06  1645    52188   60300      0    5.82e+00    0    1.06e+00
2001 10 06  1650    52188   60600      0    5.74e+00    0    1.06e+00
2001 10 06  1655    52188   60900      0    5.76e+00    0    1.06e+00
2001 10 06  1700    52188   61200      0    5.82e+00    0    1.03e+00
2001 10 06  1705    52188   61500      0    5.70e+00    0    1.03e+00
2001 10 06  1710    52188   61800      0    5.73e+00    0    1.05e+00
2001 10 06  1715    52188   62100      0    5.93e+00    0    1.02e+00
2001 10 06  1720    52188   62400      0    6.01e+00    0    1.03e+00
2001 10 06  1725    52188   62700      0    6.15e+00    0    1.11e+00
2001 10 06  1730    52188   63000      0    6.11e+00    0    1.05e+00
2001 10 06  1735    52188   63300      0    6.13e+00    0    1.08e+00
2001 10 06  1740    52188   63600      0    6.25e+00    0    1.07e+00
2001 10 06  1745    52188   63900      0    6.22e+00    0    1.08e+00
2001 10 06  1750    52188   64200      0    5.74e+00    0    1.04e+00
2001 10 06  1755    52188   64500      0    5.73e+00    0    1.03e+00
2001 10 06  1800    52188   64800      0    5.89e+00    0    1.06e+00
2001 10 06  1805    52188   65100      0    6.10e+00    0    1.07e+00
2001 10 06  1810    52188   65400      0    6.13e+00    0    1.01e+00
2001 10 06  1815    52188   65700      0    5.84e+00    0    1.05e+00
2001 10 06  1820    52188   66000      0    5.84e+00    0    1.08e+00
2001 10 06  1825    52188   66300      0    5.94e+00    0    1.07e+00
2001 10 06  1830    52188   66600      0    5.81e+00    0    1.02e+00
2001 10 06  1835    52188   66900      0    5.98e+00    0    1.06e+00
2001 10 06  1840    52188   67200      0    6.00e+00    0    1.02e+00
2001 10 06  1845    52188   67500      0    5.76e+00    0    1.03e+00
2001 10 06  1850    52188   67800      0    5.83e+00    0    1.04e+00
2001 10 06  1855    52188   68100      0    5.74e+00    0    9.97e-01
2001 10 06  1900    52188   68400      0    5.73e+00    0    1.00e+00
2001 10 06  1905    52188   68700      0    5.91e+00    0    1.02e+00
2001 10 06  1910    52188   69000      0    6.02e+00    0    1.04e+00
2001 10 06  1915    52188   69300      0    6.26e+00    0    1.05e+00
2001 10 06  1920    52188   69600      0    5.87e+00    0    1.01e+00
2001 10 06  1925    52188   69900      0    6.18e+00    0    1.09e+00
2001 10 06  1930    52188   70200      0    6.23e+00    0    1.07e+00
2001 10 06  1935    52188   70500      0    6.22e+00    0    1.07e+00
2001 10 06  1940    52188   70800      0    6.03e+00    0    1.04e+00
2001 10 06  1945    52188   71100      0    5.99e+00    0    1.04e+00
2001 10 06  1950    52188   71400      0    6.04e+00    0    1.03e+00
2001 10 06  1955    52188   71700      0    6.00e+00    0    1.03e+00
2001 10 06  2000    52188   72000      0    5.84e+00    0    1.05e+00
2001 10 06  2005    52188   72300      0    5.75e+00    0    1.03e+00
2001 10 06  2010    52188   72600      0    6.02e+00    0    1.06e+00
2001 10 06  2015    52188   72900      0    5.98e+00    0    1.04e+00
2001 10 06  2020    52188   73200      0    5.84e+00    0    9.79e-01
2001 10 06  2025    52188   73500      0    6.28e+00    0    1.08e+00
2001 10 06  2030    52188   73800      0    6.24e+00    0    1.12e+00
2001 10 06  2035    52188   74100      0    5.84e+00    0    9.99e-01
2001 10 06  2040    52188   74400      0    5.73e+00    0    1.02e+00
2001 10 06  2045    52188   74700      0    5.80e+00    0    1.01e+00
2001 10 06  2050    52188   75000      0    5.66e+00    0    9.78e-01
2001 10 06  2055    52188   75300      0    5.61e+00    0    9.76e-01
2001 10 06  2100    52188   75600      0    5.68e+00    0    1.02e+00
2001 10 06  2105    52188   75900      0    5.62e+00    0    9.82e-01
2001 10 06  2110    52188   76200      0    5.59e+00    0    9.75e-01
2001 10 06  2115    52188   76500      0    5.90e+00    0    9.93e-01
2001 10 06  2120    52188   76800      0    5.85e+00    0    1.01e+00
2001 10 06  2125    52188   77100      0    5.75e+00    0    1.03e+00
2001 10 06  2130    52188   77400      0    5.60e+00    0    9.88e-01
2001 10 06  2135    52188   77700      0    5.47e+00    0    9.68e-01
2001 10 06  2140    52188   78000      0    5.62e+00    0    9.60e-01
2001 10 06  2145    52188   78300      0    6.08e+00    0    1.03e+00
2001 10 06  2150    52188   78600      0    5.89e+00    0    1.05e+00
2001 10 06  2155    52188   78900      0    6.07e+00    0    1.04e+00
2001 10 06  2200    52188   79200      0    6.37e+00    0    1.09e+00
2001 10 06  2205    52188   79500      0    6.40e+00    0    1.02e+00
2001 10 06  2210    52188   79800      0    6.52e+00    0    1.04e+00
2001 10 06  2215    52188   80100      0    6.13e+00    0    9.91e-01
2001 10 06  2220    52188   80400      0    6.16e+00    0    1.06e+00
2001 10 06  2225    52188   80700      0    6.06e+00    0    1.04e+00
2001 10 06  2230    52188   81000      0    6.24e+00    0    1.05e+00
2001 10 06  2235    52188   81300      0    6.21e+00    0    1.01e+00
2001 10 06  2240    52188   81600      0    6.24e+00    0    9.91e-01
2001 10 06  2245    52188   81900      0    6.18e+00    0    1.06e+00
2001 10 06  2250    52188   82200      0    6.39e+00    0    1.07e+00
2001 10 06  2255    52188   82500      0    6.29e+00    0    1.07e+00
2001 10 06  2300    52188   82800      0    6.15e+00    0    1.03e+00
2001 10 06  2305    52188   83100      0    6.03e+00    0    9.93e-01
2001 10 06  2310    52188   83400      0    6.36e+00    0    1.04e+00
2001 10 06  2315    52188   83700      0    6.21e+00    0    9.68e-01
2001 10 06  2320    52188   84000      0    6.14e+00    0    1.00e+00
2001 10 06  2325    52188   84300      0    6.00e+00    0    1.02e+00
2001 10 06  2330    52188   84600      0    5.96e+00    0    1.01e+00
2001 10 06  2335    52188   84900      0    5.93e+00    0    9.87e-01
2001 10 06  2340    52188   85200      0    6.05e+00    0    1.02e+00
2001 10 06  2345    52188   85500      0    7.66e+00    0    1.14e+00
2001 10 06  2350    52188   85800      0    6.89e+00    0    1.00e+00
2001 10 06  2355    52188   86100      0    7.09e+00    0    1.03e+00
