:Data_list: 20011019_ace_sis_5m.txt
:Created: 2001 Oct 20 0011 UT
# Prepared by the U.S. Dept. of Commerce, NOAA, Space Environment Center.
# Please send comments and suggestions to sec@sec.noaa.gov 
# 
# Units: proton flux p/cs2-sec-ster
# Status(S): 0 = nominal data, 1 to 8 = bad data record, 9 = no data
# Missing data values: -1.00e+05
# Source: ACE Satellite - Solar Isotope Spectrometer
#
# 5-minute averaged Real-time Integral Flux of High-energy Solar Protons
# 
#                 Modified Seconds
# UT Date   Time   Julian  of the      ---- Integral Proton Flux ----
# YR MO DA  HHMM     Day     Day       S    > 10 MeV    S    > 30 MeV
#--------------------------------------------------------------------
2001 10 19  0000    52201       0      0    8.41e-01    0    5.67e-01
2001 10 19  0005    52201     300      0    8.74e-01    0    6.03e-01
2001 10 19  0010    52201     600      0    8.24e-01    0    5.68e-01
2001 10 19  0015    52201     900      0    8.02e-01    0    5.42e-01
2001 10 19  0020    52201    1200      0    8.17e-01    0    5.58e-01
2001 10 19  0025    52201    1500      0    8.66e-01    0    5.81e-01
2001 10 19  0030    52201    1800      0    8.78e-01    0    6.00e-01
2001 10 19  0035    52201    2100      0    8.18e-01    0    5.58e-01
2001 10 19  0040    52201    2400      0    8.07e-01    0    5.48e-01
2001 10 19  0045    52201    2700      0    8.09e-01    0    5.57e-01
2001 10 19  0050    52201    3000      0    8.18e-01    0    5.52e-01
2001 10 19  0055    52201    3300      0    8.23e-01    0    5.56e-01
2001 10 19  0100    52201    3600      0    8.47e-01    0    5.79e-01
2001 10 19  0105    52201    3900      0    8.16e-01    0    5.53e-01
2001 10 19  0110    52201    4200      0    8.02e-01    0    5.44e-01
2001 10 19  0115    52201    4500      0    8.04e-01    0    5.47e-01
2001 10 19  0120    52201    4800      0    8.07e-01    0    5.49e-01
2001 10 19  0125    52201    5100      0    8.35e-01    0    5.65e-01
2001 10 19  0130    52201    5400      0    8.10e-01    0    5.59e-01
2001 10 19  0135    52201    5700      0    7.94e-01    0    5.32e-01
2001 10 19  0140    52201    6000      0    8.28e-01    0    5.70e-01
2001 10 19  0145    52201    6300      0    8.48e-01    0    5.82e-01
2001 10 19  0150    52201    6600      0    8.59e-01    0    5.88e-01
2001 10 19  0155    52201    6900      0    9.00e-01    0    6.19e-01
2001 10 19  0200    52201    7200      0    9.22e-01    0    6.30e-01
2001 10 19  0205    52201    7500      0    9.56e-01    0    6.66e-01
2001 10 19  0210    52201    7800      0    1.04e+00    0    7.09e-01
2001 10 19  0215    52201    8100      0    1.09e+00    0    7.47e-01
2001 10 19  0220    52201    8400      0    1.22e+00    0    8.40e-01
2001 10 19  0225    52201    8700      0    1.36e+00    0    9.49e-01
2001 10 19  0230    52201    9000      0    1.47e+00    0    1.01e+00
2001 10 19  0235    52201    9300      0    1.56e+00    0    1.07e+00
2001 10 19  0240    52201    9600      0    1.68e+00    0    1.16e+00
2001 10 19  0245    52201    9900      0    1.81e+00    0    1.28e+00
2001 10 19  0250    52201   10200      0    1.87e+00    0    1.30e+00
2001 10 19  0255    52201   10500      0    1.91e+00    0    1.35e+00
2001 10 19  0300    52201   10800      0    1.98e+00    0    1.37e+00
2001 10 19  0305    52201   11100      0    2.06e+00    0    1.46e+00
2001 10 19  0310    52201   11400      0    2.18e+00    0    1.53e+00
2001 10 19  0315    52201   11700      0    2.32e+00    0    1.63e+00
2001 10 19  0320    52201   12000      0    2.42e+00    0    1.69e+00
2001 10 19  0325    52201   12300      0    2.50e+00    0    1.76e+00
2001 10 19  0330    52201   12600      0    2.57e+00    0    1.76e+00
2001 10 19  0335    52201   12900      0    2.70e+00    0    1.85e+00
2001 10 19  0340    52201   13200      0    2.70e+00    0    1.81e+00
2001 10 19  0345    52201   13500      0    2.83e+00    0    1.89e+00
2001 10 19  0350    52201   13800      0    2.98e+00    0    1.97e+00
2001 10 19  0355    52201   14100      0    3.19e+00    0    2.11e+00
2001 10 19  0400    52201   14400      0    3.59e+00    0    2.32e+00
2001 10 19  0405    52201   14700      0    4.04e+00    0    2.39e+00
2001 10 19  0410    52201   15000      0    4.62e+00    0    2.62e+00
2001 10 19  0415    52201   15300      0    4.53e+00    0    2.57e+00
2001 10 19  0420    52201   15600      0    4.42e+00    0    2.49e+00
2001 10 19  0425    52201   15900      0    4.40e+00    0    2.51e+00
2001 10 19  0430    52201   16200      0    4.55e+00    0    2.47e+00
2001 10 19  0435    52201   16500      0    4.61e+00    0    2.47e+00
2001 10 19  0440    52201   16800      0    4.40e+00    0    2.28e+00
2001 10 19  0445    52201   17100      0    6.10e+00    0    2.74e+00
2001 10 19  0450    52201   17400      0    1.21e+01    0    4.16e+00
2001 10 19  0455    52201   17700      0    1.40e+01    0    4.67e+00
2001 10 19  0500    52201   18000      0    1.45e+01    0    4.97e+00
2001 10 19  0505    52201   18300      0    1.26e+01    0    4.42e+00
2001 10 19  0510    52201   18600      0    1.26e+01    0    4.36e+00
2001 10 19  0515    52201   18900      0    1.29e+01    0    4.48e+00
2001 10 19  0520    52201   19200      0    1.21e+01    0    4.24e+00
2001 10 19  0525    52201   19500      0    1.19e+01    0    4.08e+00
2001 10 19  0530    52201   19800      0    1.10e+01    0    3.84e+00
2001 10 19  0535    52201   20100      0    1.01e+01    0    3.66e+00
2001 10 19  0540    52201   20400      0    1.03e+01    0    3.86e+00
2001 10 19  0545    52201   20700      0    1.11e+01    0    3.93e+00
2001 10 19  0550    52201   21000      0    1.18e+01    0    4.15e+00
2001 10 19  0555    52201   21300      0    1.07e+01    0    3.78e+00
2001 10 19  0600    52201   21600      0    1.05e+01    0    3.67e+00
2001 10 19  0605    52201   21900      0    1.14e+01    0    3.62e+00
2001 10 19  0610    52201   22200      0    1.13e+01    0    3.71e+00
2001 10 19  0615    52201   22500      0    9.98e+00    0    3.31e+00
2001 10 19  0620    52201   22800      0    9.74e+00    0    3.34e+00
2001 10 19  0625    52201   23100      0    9.17e+00    0    3.28e+00
2001 10 19  0630    52201   23400      0    8.86e+00    0    3.21e+00
2001 10 19  0635    52201   23700      0    8.40e+00    0    3.08e+00
2001 10 19  0640    52201   24000      0    7.73e+00    0    2.90e+00
2001 10 19  0645    52201   24300      0    7.76e+00    0    3.04e+00
2001 10 19  0650    52201   24600      0    8.32e+00    0    3.19e+00
2001 10 19  0655    52201   24900      0    8.51e+00    0    3.11e+00
2001 10 19  0700    52201   25200      0    8.96e+00    0    3.21e+00
2001 10 19  0705    52201   25500      0    8.28e+00    0    2.98e+00
2001 10 19  0710    52201   25800      0    7.83e+00    0    2.92e+00
2001 10 19  0715    52201   26100      0    7.31e+00    0    2.71e+00
2001 10 19  0720    52201   26400      0    7.25e+00    0    2.73e+00
2001 10 19  0725    52201   26700      0    7.39e+00    0    2.66e+00
2001 10 19  0730    52201   27000      0    7.35e+00    0    2.70e+00
2001 10 19  0735    52201   27300      0    7.40e+00    0    2.69e+00
2001 10 19  0740    52201   27600      0    7.35e+00    0    2.63e+00
2001 10 19  0745    52201   27900      0    7.23e+00    0    2.56e+00
2001 10 19  0750    52201   28200      0    6.90e+00    0    2.56e+00
2001 10 19  0755    52201   28500      0    6.85e+00    0    2.52e+00
2001 10 19  0800    52201   28800      0    6.93e+00    0    2.50e+00
2001 10 19  0805    52201   29100      0    6.93e+00    0    2.47e+00
2001 10 19  0810    52201   29400      0    7.26e+00    0    2.55e+00
2001 10 19  0815    52201   29700      0    7.05e+00    0    2.41e+00
2001 10 19  0820    52201   30000      0    6.94e+00    0    2.48e+00
2001 10 19  0825    52201   30300      0    5.97e+00    0    2.19e+00
2001 10 19  0830    52201   30600      0    6.13e+00    0    2.36e+00
2001 10 19  0835    52201   30900      0    6.64e+00    0    2.46e+00
2001 10 19  0840    52201   31200      0    7.33e+00    0    2.54e+00
2001 10 19  0845    52201   31500      0    7.23e+00    0    2.56e+00
2001 10 19  0850    52201   31800      0    6.96e+00    0    2.46e+00
2001 10 19  0855    52201   32100      0    7.27e+00    0    2.46e+00
2001 10 19  0900    52201   32400      0    7.67e+00    0    2.50e+00
2001 10 19  0905    52201   32700      0    7.70e+00    0    2.41e+00
2001 10 19  0910    52201   33000      0    7.23e+00    0    2.35e+00
2001 10 19  0915    52201   33300      0    6.16e+00    0    2.13e+00
2001 10 19  0920    52201   33600      0    6.56e+00    0    2.35e+00
2001 10 19  0925    52201   33900      0    6.64e+00    0    2.30e+00
2001 10 19  0930    52201   34200      0    6.85e+00    0    2.54e+00
2001 10 19  0935    52201   34500      0    7.06e+00    0    2.49e+00
2001 10 19  0940    52201   34800      0    7.47e+00    0    2.45e+00
2001 10 19  0945    52201   35100      0    7.01e+00    0    2.34e+00
2001 10 19  0950    52201   35400      0    6.65e+00    0    2.35e+00
2001 10 19  0955    52201   35700      0    6.85e+00    0    2.35e+00
2001 10 19  1000    52201   36000      0    6.49e+00    0    2.29e+00
2001 10 19  1005    52201   36300      0    6.53e+00    0    2.30e+00
2001 10 19  1010    52201   36600      0    6.93e+00    0    2.30e+00
2001 10 19  1015    52201   36900      0    6.95e+00    0    2.34e+00
2001 10 19  1020    52201   37200      0    6.41e+00    0    2.18e+00
2001 10 19  1025    52201   37500      0    6.58e+00    0    2.27e+00
2001 10 19  1030    52201   37800      0    6.22e+00    0    2.15e+00
2001 10 19  1035    52201   38100      0    6.64e+00    0    2.19e+00
2001 10 19  1040    52201   38400      0    6.98e+00    0    2.27e+00
2001 10 19  1045    52201   38700      0    6.85e+00    0    2.31e+00
2001 10 19  1050    52201   39000      0    6.48e+00    0    2.21e+00
2001 10 19  1055    52201   39300      0    5.67e+00    0    2.01e+00
2001 10 19  1100    52201   39600      0    5.30e+00    0    1.99e+00
2001 10 19  1105    52201   39900      0    4.91e+00    0    1.86e+00
2001 10 19  1110    52201   40200      0    4.51e+00    0    1.78e+00
2001 10 19  1115    52201   40500      0    4.80e+00    0    1.85e+00
2001 10 19  1120    52201   40800      0    5.22e+00    0    1.95e+00
2001 10 19  1125    52201   41100      0    5.05e+00    0    1.86e+00
2001 10 19  1130    52201   41400      0    5.30e+00    0    1.92e+00
2001 10 19  1135    52201   41700      0    5.09e+00    0    1.86e+00
2001 10 19  1140    52201   42000      0    5.37e+00    0    1.97e+00
2001 10 19  1145    52201   42300      0    5.57e+00    0    2.03e+00
2001 10 19  1150    52201   42600      0    5.42e+00    0    1.99e+00
2001 10 19  1155    52201   42900      0    5.70e+00    0    2.07e+00
2001 10 19  1200    52201   43200      0    5.88e+00    0    2.13e+00
2001 10 19  1205    52201   43500      0    5.03e+00    0    1.90e+00
2001 10 19  1210    52201   43800      0    4.38e+00    0    1.74e+00
2001 10 19  1215    52201   44100      0    3.98e+00    0    1.61e+00
2001 10 19  1220    52201   44400      0    4.15e+00    0    1.71e+00
2001 10 19  1225    52201   44700      0    4.26e+00    0    1.75e+00
2001 10 19  1230    52201   45000      0    4.52e+00    0    1.86e+00
2001 10 19  1235    52201   45300      0    4.98e+00    0    2.09e+00
2001 10 19  1240    52201   45600      0    6.05e+00    0    2.23e+00
2001 10 19  1245    52201   45900      0    6.89e+00    0    2.47e+00
2001 10 19  1250    52201   46200      0    6.79e+00    0    2.49e+00
2001 10 19  1255    52201   46500      0    6.55e+00    0    2.37e+00
2001 10 19  1300    52201   46800      0    6.88e+00    0    2.50e+00
2001 10 19  1305    52201   47100      0    7.17e+00    0    2.55e+00
2001 10 19  1310    52201   47400      0    6.56e+00    0    2.38e+00
2001 10 19  1315    52201   47700      0    6.38e+00    0    2.29e+00
2001 10 19  1320    52201   48000      0    6.31e+00    0    2.23e+00
2001 10 19  1325    52201   48300      0    6.47e+00    0    2.35e+00
2001 10 19  1330    52201   48600      0    6.47e+00    0    2.32e+00
2001 10 19  1335    52201   48900      0    6.50e+00    0    2.33e+00
2001 10 19  1340    52201   49200      0    6.28e+00    0    2.27e+00
2001 10 19  1345    52201   49500      0    6.36e+00    0    2.33e+00
2001 10 19  1350    52201   49800      0    6.44e+00    0    2.32e+00
2001 10 19  1355    52201   50100      0    6.54e+00    0    2.38e+00
2001 10 19  1400    52201   50400      0    6.46e+00    0    2.32e+00
2001 10 19  1405    52201   50700      0    6.39e+00    0    2.32e+00
2001 10 19  1410    52201   51000      0    6.16e+00    0    2.24e+00
2001 10 19  1415    52201   51300      0    6.44e+00    0    2.35e+00
2001 10 19  1420    52201   51600      0    6.28e+00    0    2.27e+00
2001 10 19  1425    52201   51900      0    6.29e+00    0    2.24e+00
2001 10 19  1430    52201   52200      0    6.28e+00    0    2.24e+00
2001 10 19  1435    52201   52500      0    6.18e+00    0    2.25e+00
2001 10 19  1440    52201   52800      0    6.34e+00    0    2.25e+00
2001 10 19  1445    52201   53100      0    6.12e+00    0    2.19e+00
2001 10 19  1450    52201   53400      0    6.27e+00    0    2.21e+00
2001 10 19  1455    52201   53700      0    6.04e+00    0    2.19e+00
2001 10 19  1500    52201   54000      0    6.08e+00    0    2.21e+00
2001 10 19  1505    52201   54300      0    6.40e+00    0    2.28e+00
2001 10 19  1510    52201   54600      0    6.25e+00    0    2.23e+00
2001 10 19  1515    52201   54900      0    6.18e+00    0    2.15e+00
2001 10 19  1520    52201   55200      0    6.22e+00    0    2.20e+00
2001 10 19  1525    52201   55500      0    6.10e+00    0    2.16e+00
2001 10 19  1530    52201   55800      0    6.48e+00    0    2.26e+00
2001 10 19  1535    52201   56100      0    6.68e+00    0    2.21e+00
2001 10 19  1540    52201   56400      0    6.28e+00    0    2.14e+00
2001 10 19  1545    52201   56700      0    6.25e+00    0    2.12e+00
2001 10 19  1550    52201   57000      0    5.85e+00    0    2.03e+00
2001 10 19  1555    52201   57300      0    6.07e+00    0    2.16e+00
2001 10 19  1600    52201   57600      0    6.06e+00    0    2.11e+00
2001 10 19  1605    52201   57900      0    6.19e+00    0    2.13e+00
2001 10 19  1610    52201   58200      0    5.93e+00    0    2.02e+00
2001 10 19  1615    52201   58500      0    5.77e+00    0    1.97e+00
2001 10 19  1620    52201   58800      0    5.88e+00    0    2.00e+00
2001 10 19  1625    52201   59100      0    5.95e+00    0    2.03e+00
2001 10 19  1630    52201   59400      0    5.69e+00    0    1.97e+00
2001 10 19  1635    52201   59700      0    5.54e+00    0    1.93e+00
2001 10 19  1640    52201   60000      0    5.76e+00    0    1.96e+00
2001 10 19  1645    52201   60300      0    5.81e+00    0    1.91e+00
2001 10 19  1650    52201   60600      0    6.00e+00    0    1.98e+00
2001 10 19  1655    52201   60900      0    6.21e+00    0    2.07e+00
2001 10 19  1700    52201   61200      0    6.36e+00    0    2.07e+00
2001 10 19  1705    52201   61500      0    6.36e+00    0    2.12e+00
2001 10 19  1710    52201   61800      0    5.80e+00    0    1.98e+00
2001 10 19  1715    52201   62100      0    5.72e+00    0    1.93e+00
2001 10 19  1720    52201   62400      0    5.82e+00    0    1.98e+00
2001 10 19  1725    52201   62700      0    5.93e+00    0    2.07e+00
2001 10 19  1730    52201   63000      0    6.14e+00    0    2.17e+00
2001 10 19  1735    52201   63300      0    6.27e+00    0    2.25e+00
2001 10 19  1740    52201   63600      0    6.65e+00    0    2.50e+00
2001 10 19  1745    52201   63900      0    6.43e+00    0    2.44e+00
2001 10 19  1750    52201   64200      0    6.82e+00    0    2.71e+00
2001 10 19  1755    52201   64500      0    7.15e+00    0    2.89e+00
2001 10 19  1800    52201   64800      0    7.50e+00    0    3.04e+00
2001 10 19  1805    52201   65100      0    7.62e+00    0    3.17e+00
2001 10 19  1810    52201   65400      0    7.60e+00    0    3.10e+00
2001 10 19  1815    52201   65700      0    7.82e+00    0    3.21e+00
2001 10 19  1820    52201   66000      0    8.08e+00    0    3.22e+00
2001 10 19  1825    52201   66300      0    8.16e+00    0    3.20e+00
2001 10 19  1830    52201   66600      0    8.73e+00    0    3.47e+00
2001 10 19  1835    52201   66900      0    9.30e+00    0    3.64e+00
2001 10 19  1840    52201   67200      0    9.60e+00    0    3.73e+00
2001 10 19  1845    52201   67500      0    1.01e+01    0    3.80e+00
2001 10 19  1850    52201   67800      0    1.01e+01    0    3.80e+00
2001 10 19  1855    52201   68100      0    1.09e+01    0    4.00e+00
2001 10 19  1900    52201   68400      0    1.18e+01    0    4.16e+00
2001 10 19  1905    52201   68700      0    1.13e+01    0    3.93e+00
2001 10 19  1910    52201   69000      0    1.13e+01    0    3.91e+00
2001 10 19  1915    52201   69300      0    1.12e+01    0    3.82e+00
2001 10 19  1920    52201   69600      0    1.14e+01    0    3.78e+00
2001 10 19  1925    52201   69900      0    1.19e+01    0    3.77e+00
2001 10 19  1930    52201   70200      0    1.07e+01    0    3.44e+00
2001 10 19  1935    52201   70500      0    1.02e+01    0    3.38e+00
2001 10 19  1940    52201   70800      0    1.05e+01    0    3.42e+00
2001 10 19  1945    52201   71100      0    9.69e+00    0    3.23e+00
2001 10 19  1950    52201   71400      0    9.91e+00    0    3.22e+00
2001 10 19  1955    52201   71700      0    9.82e+00    0    3.16e+00
2001 10 19  2000    52201   72000      0    9.08e+00    0    2.96e+00
2001 10 19  2005    52201   72300      0    8.98e+00    0    2.95e+00
2001 10 19  2010    52201   72600      0    9.09e+00    0    3.01e+00
2001 10 19  2015    52201   72900      0    9.20e+00    0    3.08e+00
2001 10 19  2020    52201   73200      0    9.36e+00    0    3.04e+00
2001 10 19  2025    52201   73500      0    1.03e+01    0    3.06e+00
2001 10 19  2030    52201   73800      0    1.17e+01    0    3.19e+00
2001 10 19  2035    52201   74100      0    1.08e+01    0    3.03e+00
2001 10 19  2040    52201   74400      0    1.03e+01    0    2.97e+00
2001 10 19  2045    52201   74700      0    1.04e+01    0    3.06e+00
2001 10 19  2050    52201   75000      0    1.03e+01    0    3.00e+00
2001 10 19  2055    52201   75300      0    1.06e+01    0    3.13e+00
2001 10 19  2100    52201   75600      0    9.70e+00    0    2.98e+00
2001 10 19  2105    52201   75900      0    8.47e+00    0    2.83e+00
2001 10 19  2110    52201   76200      0    7.82e+00    0    2.63e+00
2001 10 19  2115    52201   76500      0    7.36e+00    0    2.52e+00
2001 10 19  2120    52201   76800      0    7.63e+00    0    2.48e+00
2001 10 19  2125    52201   77100      0    8.03e+00    0    2.55e+00
2001 10 19  2130    52201   77400      0    7.54e+00    0    2.48e+00
2001 10 19  2135    52201   77700      0    7.33e+00    0    2.40e+00
2001 10 19  2140    52201   78000      0    7.40e+00    0    2.41e+00
2001 10 19  2145    52201   78300      0    7.30e+00    0    2.36e+00
2001 10 19  2150    52201   78600      0    7.26e+00    0    2.35e+00
2001 10 19  2155    52201   78900      0    6.89e+00    0    2.23e+00
2001 10 19  2200    52201   79200      0    6.58e+00    0    2.18e+00
2001 10 19  2205    52201   79500      0    6.50e+00    0    2.15e+00
2001 10 19  2210    52201   79800      0    6.26e+00    0    2.03e+00
2001 10 19  2215    52201   80100      0    6.24e+00    0    2.02e+00
2001 10 19  2220    52201   80400      0    6.11e+00    0    1.98e+00
2001 10 19  2225    52201   80700      0    5.98e+00    0    1.98e+00
2001 10 19  2230    52201   81000      0    6.14e+00    0    2.02e+00
2001 10 19  2235    52201   81300      0    5.89e+00    0    1.89e+00
2001 10 19  2240    52201   81600      0    5.92e+00    0    1.92e+00
2001 10 19  2245    52201   81900      0    5.81e+00    0    1.86e+00
2001 10 19  2250    52201   82200      0    5.83e+00    0    1.87e+00
2001 10 19  2255    52201   82500      0    5.83e+00    0    1.90e+00
2001 10 19  2300    52201   82800      0    5.91e+00    0    1.87e+00
2001 10 19  2305    52201   83100      0    5.99e+00    0    1.85e+00
2001 10 19  2310    52201   83400      0    5.86e+00    0    1.83e+00
2001 10 19  2315    52201   83700      0    5.67e+00    0    1.85e+00
2001 10 19  2320    52201   84000      0    5.82e+00    0    1.86e+00
2001 10 19  2325    52201   84300      0    6.63e+00    0    2.01e+00
2001 10 19  2330    52201   84600      0    6.04e+00    0    1.81e+00
2001 10 19  2335    52201   84900      0    6.28e+00    0    1.82e+00
2001 10 19  2340    52201   85200      0    6.88e+00    0    1.83e+00
2001 10 19  2345    52201   85500      0    6.99e+00    0    1.92e+00
2001 10 19  2350    52201   85800      0    6.80e+00    0    1.92e+00
2001 10 19  2355    52201   86100      0    6.98e+00    0    1.97e+00
