:Data_list: 20011023_ace_sis_5m.txt
:Created: 2001 Oct 24 0011 UT
# Prepared by the U.S. Dept. of Commerce, NOAA, Space Environment Center.
# Please send comments and suggestions to sec@sec.noaa.gov 
# 
# Units: proton flux p/cs2-sec-ster
# Status(S): 0 = nominal data, 1 to 8 = bad data record, 9 = no data
# Missing data values: -1.00e+05
# Source: ACE Satellite - Solar Isotope Spectrometer
#
# 5-minute averaged Real-time Integral Flux of High-energy Solar Protons
# 
#                 Modified Seconds
# UT Date   Time   Julian  of the      ---- Integral Proton Flux ----
# YR MO DA  HHMM     Day     Day       S    > 10 MeV    S    > 30 MeV
#--------------------------------------------------------------------
2001 10 23  0000    52205       0      0    2.09e+01    0    8.77e+00
2001 10 23  0005    52205     300      0    1.99e+01    0    8.07e+00
2001 10 23  0010    52205     600      0    1.70e+01    0    6.65e+00
2001 10 23  0015    52205     900      0    1.32e+01    0    5.62e+00
2001 10 23  0020    52205    1200      0    1.05e+01    0    5.29e+00
2001 10 23  0025    52205    1500      0    1.12e+01    0    5.64e+00
2001 10 23  0030    52205    1800      0    1.13e+01    0    5.72e+00
2001 10 23  0035    52205    2100      0    1.08e+01    0    5.34e+00
2001 10 23  0040    52205    2400      0    1.04e+01    0    5.27e+00
2001 10 23  0045    52205    2700      0    1.05e+01    0    5.28e+00
2001 10 23  0050    52205    3000      0    1.08e+01    0    5.40e+00
2001 10 23  0055    52205    3300      0    1.13e+01    0    5.58e+00
2001 10 23  0100    52205    3600      0    1.10e+01    0    5.36e+00
2001 10 23  0105    52205    3900      0    1.13e+01    0    5.61e+00
2001 10 23  0110    52205    4200      0    1.10e+01    0    5.43e+00
2001 10 23  0115    52205    4500      0    1.16e+01    0    5.84e+00
2001 10 23  0120    52205    4800      0    1.19e+01    0    5.89e+00
2001 10 23  0125    52205    5100      0    1.17e+01    0    5.76e+00
2001 10 23  0130    52205    5400      0    1.16e+01    0    5.70e+00
2001 10 23  0135    52205    5700      0    1.10e+01    0    5.44e+00
2001 10 23  0140    52205    6000      0    1.09e+01    0    5.37e+00
2001 10 23  0145    52205    6300      0    1.14e+01    0    5.67e+00
2001 10 23  0150    52205    6600      0    1.10e+01    0    5.50e+00
2001 10 23  0155    52205    6900      0    1.10e+01    0    5.46e+00
2001 10 23  0200    52205    7200      0    1.14e+01    0    5.72e+00
2001 10 23  0205    52205    7500      0    1.07e+01    0    5.42e+00
2001 10 23  0210    52205    7800      0    1.05e+01    0    5.33e+00
2001 10 23  0215    52205    8100      0    1.10e+01    0    5.65e+00
2001 10 23  0220    52205    8400      0    1.08e+01    0    5.50e+00
2001 10 23  0225    52205    8700      0    1.05e+01    0    5.37e+00
2001 10 23  0230    52205    9000      0    1.04e+01    0    5.31e+00
2001 10 23  0235    52205    9300      0    1.06e+01    0    5.41e+00
2001 10 23  0240    52205    9600      0    1.15e+01    0    5.91e+00
2001 10 23  0245    52205    9900      0    1.13e+01    0    5.81e+00
2001 10 23  0250    52205   10200      0    1.01e+01    0    5.27e+00
2001 10 23  0255    52205   10500      0    9.79e+00    0    5.07e+00
2001 10 23  0300    52205   10800      0    9.83e+00    0    5.15e+00
2001 10 23  0305    52205   11100      0    1.10e+01    0    5.67e+00
2001 10 23  0310    52205   11400      0    1.12e+01    0    5.82e+00
2001 10 23  0315    52205   11700      0    9.95e+00    0    5.15e+00
2001 10 23  0320    52205   12000      0    9.83e+00    0    5.14e+00
2001 10 23  0325    52205   12300      0    9.84e+00    0    5.03e+00
2001 10 23  0330    52205   12600      0    9.99e+00    0    5.13e+00
2001 10 23  0335    52205   12900      0    9.81e+00    0    5.06e+00
2001 10 23  0340    52205   13200      0    9.90e+00    0    5.13e+00
2001 10 23  0345    52205   13500      0    1.03e+01    0    5.42e+00
2001 10 23  0350    52205   13800      0    9.25e+00    0    4.86e+00
2001 10 23  0355    52205   14100      0    9.45e+00    0    4.95e+00
2001 10 23  0400    52205   14400      0    9.57e+00    0    5.09e+00
2001 10 23  0405    52205   14700      0    9.49e+00    0    4.96e+00
2001 10 23  0410    52205   15000      0    9.52e+00    0    4.98e+00
2001 10 23  0415    52205   15300      0    9.65e+00    0    5.08e+00
2001 10 23  0420    52205   15600      0    9.78e+00    0    5.11e+00
2001 10 23  0425    52205   15900      0    1.01e+01    0    5.32e+00
2001 10 23  0430    52205   16200      0    9.67e+00    0    5.14e+00
2001 10 23  0435    52205   16500      0    9.44e+00    0    4.99e+00
2001 10 23  0440    52205   16800      0    9.58e+00    0    5.01e+00
2001 10 23  0445    52205   17100      0    9.67e+00    0    5.06e+00
2001 10 23  0450    52205   17400      0    9.85e+00    0    5.15e+00
2001 10 23  0455    52205   17700      0    9.84e+00    0    5.12e+00
2001 10 23  0500    52205   18000      0    9.68e+00    0    5.00e+00
2001 10 23  0505    52205   18300      0    9.73e+00    0    5.10e+00
2001 10 23  0510    52205   18600      0    9.56e+00    0    5.05e+00
2001 10 23  0515    52205   18900      0    9.60e+00    0    4.96e+00
2001 10 23  0520    52205   19200      0    9.69e+00    0    5.11e+00
2001 10 23  0525    52205   19500      0    9.75e+00    0    5.11e+00
2001 10 23  0530    52205   19800      0    9.56e+00    0    4.97e+00
2001 10 23  0535    52205   20100      0    9.85e+00    0    5.12e+00
2001 10 23  0540    52205   20400      0    1.03e+01    0    5.39e+00
2001 10 23  0545    52205   20700      0    1.00e+01    0    5.18e+00
2001 10 23  0550    52205   21000      0    9.76e+00    0    5.08e+00
2001 10 23  0555    52205   21300      0    9.78e+00    0    5.16e+00
2001 10 23  0600    52205   21600      0    9.86e+00    0    5.07e+00
2001 10 23  0605    52205   21900      0    9.77e+00    0    5.03e+00
2001 10 23  0610    52205   22200      0    9.83e+00    0    5.09e+00
2001 10 23  0615    52205   22500      0    1.01e+01    0    5.27e+00
2001 10 23  0620    52205   22800      0    9.90e+00    0    5.12e+00
2001 10 23  0625    52205   23100      0    1.00e+01    0    5.20e+00
2001 10 23  0630    52205   23400      0    1.00e+01    0    5.18e+00
2001 10 23  0635    52205   23700      0    9.90e+00    0    5.14e+00
2001 10 23  0640    52205   24000      0    9.74e+00    0    4.99e+00
2001 10 23  0645    52205   24300      0    9.89e+00    0    5.08e+00
2001 10 23  0650    52205   24600      0    9.79e+00    0    5.08e+00
2001 10 23  0655    52205   24900      0    1.00e+01    0    5.20e+00
2001 10 23  0700    52205   25200      0    1.04e+01    0    5.37e+00
2001 10 23  0705    52205   25500      0    1.01e+01    0    5.32e+00
2001 10 23  0710    52205   25800      0    9.89e+00    0    5.08e+00
2001 10 23  0715    52205   26100      0    9.69e+00    0    5.01e+00
2001 10 23  0720    52205   26400      0    9.76e+00    0    4.97e+00
2001 10 23  0725    52205   26700      0    1.01e+01    0    5.20e+00
2001 10 23  0730    52205   27000      0    9.96e+00    0    5.17e+00
2001 10 23  0735    52205   27300      0    9.74e+00    0    5.05e+00
2001 10 23  0740    52205   27600      0    9.94e+00    0    5.05e+00
2001 10 23  0745    52205   27900      0    9.81e+00    0    5.04e+00
2001 10 23  0750    52205   28200      0    9.96e+00    0    5.10e+00
2001 10 23  0755    52205   28500      0    9.77e+00    0    5.04e+00
2001 10 23  0800    52205   28800      0    9.56e+00    0    4.93e+00
2001 10 23  0805    52205   29100      0    9.66e+00    0    5.02e+00
2001 10 23  0810    52205   29400      0    9.97e+00    0    5.15e+00
2001 10 23  0815    52205   29700      0    9.66e+00    0    4.92e+00
2001 10 23  0820    52205   30000      0    9.50e+00    0    4.91e+00
2001 10 23  0825    52205   30300      0    9.79e+00    0    5.06e+00
2001 10 23  0830    52205   30600      0    9.79e+00    0    4.98e+00
2001 10 23  0835    52205   30900      0    9.77e+00    0    4.98e+00
2001 10 23  0840    52205   31200      0    9.60e+00    0    4.97e+00
2001 10 23  0845    52205   31500      0    9.53e+00    0    4.88e+00
2001 10 23  0850    52205   31800      0    9.57e+00    0    4.91e+00
2001 10 23  0855    52205   32100      0    9.74e+00    0    4.93e+00
2001 10 23  0900    52205   32400      0    9.69e+00    0    4.98e+00
2001 10 23  0905    52205   32700      0    1.01e+01    0    5.18e+00
2001 10 23  0910    52205   33000      0    1.01e+01    0    5.10e+00
2001 10 23  0915    52205   33300      0    1.00e+01    0    5.09e+00
2001 10 23  0920    52205   33600      0    9.85e+00    0    5.05e+00
2001 10 23  0925    52205   33900      0    1.01e+01    0    5.18e+00
2001 10 23  0930    52205   34200      0    9.66e+00    0    4.95e+00
2001 10 23  0935    52205   34500      0    9.43e+00    0    4.82e+00
2001 10 23  0940    52205   34800      0    9.52e+00    0    4.87e+00
2001 10 23  0945    52205   35100      0    9.45e+00    0    4.84e+00
2001 10 23  0950    52205   35400      0    9.33e+00    0    4.80e+00
2001 10 23  0955    52205   35700      0    9.51e+00    0    4.89e+00
2001 10 23  1000    52205   36000      0    9.61e+00    0    4.96e+00
2001 10 23  1005    52205   36300      0    9.24e+00    0    4.75e+00
2001 10 23  1010    52205   36600      0    9.19e+00    0    4.71e+00
2001 10 23  1015    52205   36900      0    9.29e+00    0    4.82e+00
2001 10 23  1020    52205   37200      0    9.23e+00    0    4.74e+00
2001 10 23  1025    52205   37500      0    9.36e+00    0    4.84e+00
2001 10 23  1030    52205   37800      0    9.17e+00    0    4.71e+00
2001 10 23  1035    52205   38100      0    9.11e+00    0    4.71e+00
2001 10 23  1040    52205   38400      0    9.34e+00    0    4.70e+00
2001 10 23  1045    52205   38700      0    9.29e+00    0    4.74e+00
2001 10 23  1050    52205   39000      0    9.22e+00    0    4.77e+00
2001 10 23  1055    52205   39300      0    9.15e+00    0    4.65e+00
2001 10 23  1100    52205   39600      0    9.23e+00    0    4.73e+00
2001 10 23  1105    52205   39900      0    9.20e+00    0    4.65e+00
2001 10 23  1110    52205   40200      0    9.04e+00    0    4.62e+00
2001 10 23  1115    52205   40500      0    9.16e+00    0    4.66e+00
2001 10 23  1120    52205   40800      0    9.25e+00    0    4.66e+00
2001 10 23  1125    52205   41100      0    9.13e+00    0    4.60e+00
2001 10 23  1130    52205   41400      0    9.04e+00    0    4.55e+00
2001 10 23  1135    52205   41700      0    9.03e+00    0    4.60e+00
2001 10 23  1140    52205   42000      0    9.23e+00    0    4.67e+00
2001 10 23  1145    52205   42300      0    9.20e+00    0    4.68e+00
2001 10 23  1150    52205   42600      0    8.90e+00    0    4.51e+00
2001 10 23  1155    52205   42900      0    9.13e+00    0    4.67e+00
2001 10 23  1200    52205   43200      0    8.97e+00    0    4.54e+00
2001 10 23  1205    52205   43500      0    9.44e+00    0    4.79e+00
2001 10 23  1210    52205   43800      0    9.25e+00    0    4.68e+00
2001 10 23  1215    52205   44100      0    9.02e+00    0    4.53e+00
2001 10 23  1220    52205   44400      0    9.07e+00    0    4.59e+00
2001 10 23  1225    52205   44700      0    9.03e+00    0    4.47e+00
2001 10 23  1230    52205   45000      0    8.93e+00    0    4.47e+00
2001 10 23  1235    52205   45300      0    8.85e+00    0    4.43e+00
2001 10 23  1240    52205   45600      0    9.29e+00    0    4.61e+00
2001 10 23  1245    52205   45900      0    8.87e+00    0    4.47e+00
2001 10 23  1250    52205   46200      0    8.81e+00    0    4.42e+00
2001 10 23  1255    52205   46500      0    8.82e+00    0    4.36e+00
2001 10 23  1300    52205   46800      0    8.72e+00    0    4.39e+00
2001 10 23  1305    52205   47100      0    8.58e+00    0    4.24e+00
2001 10 23  1310    52205   47400      0    8.76e+00    0    4.34e+00
2001 10 23  1315    52205   47700      0    8.98e+00    0    4.54e+00
2001 10 23  1320    52205   48000      0    8.82e+00    0    4.41e+00
2001 10 23  1325    52205   48300      0    8.79e+00    0    4.39e+00
2001 10 23  1330    52205   48600      0    8.70e+00    0    4.26e+00
2001 10 23  1335    52205   48900      0    8.59e+00    0    4.26e+00
2001 10 23  1340    52205   49200      0    8.67e+00    0    4.27e+00
2001 10 23  1345    52205   49500      0    8.59e+00    0    4.28e+00
2001 10 23  1350    52205   49800      0    8.69e+00    0    4.37e+00
2001 10 23  1355    52205   50100      0    8.70e+00    0    4.28e+00
2001 10 23  1400    52205   50400      0    8.62e+00    0    4.28e+00
2001 10 23  1405    52205   50700      0    9.49e+00    0    4.67e+00
2001 10 23  1410    52205   51000      0    8.87e+00    0    4.41e+00
2001 10 23  1415    52205   51300      0    8.47e+00    0    4.19e+00
2001 10 23  1420    52205   51600      0    8.71e+00    0    4.32e+00
2001 10 23  1425    52205   51900      0    8.81e+00    0    4.35e+00
2001 10 23  1430    52205   52200      0    8.48e+00    0    4.16e+00
2001 10 23  1435    52205   52500      0    8.34e+00    0    4.08e+00
2001 10 23  1440    52205   52800      0    8.41e+00    0    4.17e+00
2001 10 23  1445    52205   53100      0    8.44e+00    0    4.11e+00
2001 10 23  1450    52205   53400      0    8.88e+00    0    4.36e+00
2001 10 23  1455    52205   53700      0    8.38e+00    0    4.19e+00
2001 10 23  1500    52205   54000      0    8.32e+00    0    4.09e+00
2001 10 23  1505    52205   54300      0    8.16e+00    0    3.95e+00
2001 10 23  1510    52205   54600      0    8.29e+00    0    4.06e+00
2001 10 23  1515    52205   54900      0    8.38e+00    0    4.12e+00
2001 10 23  1520    52205   55200      0    8.17e+00    0    3.98e+00
2001 10 23  1525    52205   55500      0    8.51e+00    0    4.14e+00
2001 10 23  1530    52205   55800      0    9.34e+00    0    4.54e+00
2001 10 23  1535    52205   56100      0    8.84e+00    0    4.27e+00
2001 10 23  1540    52205   56400      0    8.23e+00    0    3.98e+00
2001 10 23  1545    52205   56700      0    8.13e+00    0    3.98e+00
2001 10 23  1550    52205   57000      0    8.09e+00    0    3.91e+00
2001 10 23  1555    52205   57300      0    8.39e+00    0    4.09e+00
2001 10 23  1600    52205   57600      0    8.24e+00    0    3.98e+00
2001 10 23  1605    52205   57900      0    8.35e+00    0    3.99e+00
2001 10 23  1610    52205   58200      0    8.06e+00    0    3.85e+00
2001 10 23  1615    52205   58500      0    8.47e+00    0    4.11e+00
2001 10 23  1620    52205   58800      0    8.18e+00    0    3.95e+00
2001 10 23  1625    52205   59100      0    8.21e+00    0    3.99e+00
2001 10 23  1630    52205   59400      0    8.08e+00    0    3.88e+00
2001 10 23  1635    52205   59700      0    8.08e+00    0    3.92e+00
2001 10 23  1640    52205   60000      0    7.88e+00    0    3.76e+00
2001 10 23  1645    52205   60300      0    8.18e+00    0    3.96e+00
2001 10 23  1650    52205   60600      0    7.81e+00    0    3.74e+00
2001 10 23  1655    52205   60900      0    7.88e+00    0    3.81e+00
2001 10 23  1700    52205   61200      0    7.82e+00    0    3.77e+00
2001 10 23  1705    52205   61500      0    8.06e+00    0    3.86e+00
2001 10 23  1710    52205   61800      0    7.87e+00    0    3.77e+00
2001 10 23  1715    52205   62100      0    7.76e+00    0    3.72e+00
2001 10 23  1720    52205   62400      0    7.80e+00    0    3.77e+00
2001 10 23  1725    52205   62700      0    7.79e+00    0    3.75e+00
2001 10 23  1730    52205   63000      0    7.91e+00    0    3.80e+00
2001 10 23  1735    52205   63300      0    7.75e+00    0    3.69e+00
2001 10 23  1740    52205   63600      0    7.68e+00    0    3.66e+00
2001 10 23  1745    52205   63900      0    7.79e+00    0    3.65e+00
2001 10 23  1750    52205   64200      0    8.20e+00    0    3.88e+00
2001 10 23  1755    52205   64500      0    7.81e+00    0    3.71e+00
2001 10 23  1800    52205   64800      0    7.80e+00    0    3.68e+00
2001 10 23  1805    52205   65100      0    7.85e+00    0    3.77e+00
2001 10 23  1810    52205   65400      0    7.57e+00    0    3.57e+00
2001 10 23  1815    52205   65700      0    7.53e+00    0    3.52e+00
2001 10 23  1820    52205   66000      0    7.50e+00    0    3.52e+00
2001 10 23  1825    52205   66300      0    7.41e+00    0    3.50e+00
2001 10 23  1830    52205   66600      0    7.53e+00    0    3.55e+00
2001 10 23  1835    52205   66900      0    7.70e+00    0    3.66e+00
2001 10 23  1840    52205   67200      0    7.36e+00    0    3.42e+00
2001 10 23  1845    52205   67500      0    7.52e+00    0    3.60e+00
2001 10 23  1850    52205   67800      0    7.46e+00    0    3.48e+00
2001 10 23  1855    52205   68100      0    7.44e+00    0    3.49e+00
2001 10 23  1900    52205   68400      0    7.29e+00    0    3.40e+00
2001 10 23  1905    52205   68700      0    7.46e+00    0    3.56e+00
2001 10 23  1910    52205   69000      9   -1.00e+05    9   -1.00e+05
2001 10 23  1915    52205   69300      9   -1.00e+05    9   -1.00e+05
2001 10 23  1920    52205   69600      9   -1.00e+05    9   -1.00e+05
2001 10 23  1925    52205   69900      9   -1.00e+05    9   -1.00e+05
2001 10 23  1930    52205   70200      9   -1.00e+05    9   -1.00e+05
2001 10 23  1935    52205   70500      0    7.31e+00    0    3.45e+00
2001 10 23  1940    52205   70800      0    7.32e+00    0    3.39e+00
2001 10 23  1945    52205   71100      0    7.36e+00    0    3.47e+00
2001 10 23  1950    52205   71400      0    7.22e+00    0    3.34e+00
2001 10 23  1955    52205   71700      0    7.28e+00    0    3.37e+00
2001 10 23  2000    52205   72000      0    7.38e+00    0    3.49e+00
2001 10 23  2005    52205   72300      0    7.20e+00    0    3.37e+00
2001 10 23  2010    52205   72600      0    7.30e+00    0    3.41e+00
2001 10 23  2015    52205   72900      0    7.00e+00    0    3.21e+00
2001 10 23  2020    52205   73200      0    6.96e+00    0    3.22e+00
2001 10 23  2025    52205   73500      0    6.96e+00    0    3.23e+00
2001 10 23  2030    52205   73800      0    6.95e+00    0    3.21e+00
2001 10 23  2035    52205   74100      0    7.13e+00    0    3.34e+00
2001 10 23  2040    52205   74400      0    7.02e+00    0    3.29e+00
2001 10 23  2045    52205   74700      0    7.19e+00    0    3.34e+00
2001 10 23  2050    52205   75000      0    7.10e+00    0    3.29e+00
2001 10 23  2055    52205   75300      0    6.89e+00    0    3.19e+00
2001 10 23  2100    52205   75600      0    6.87e+00    0    3.17e+00
2001 10 23  2105    52205   75900      0    7.08e+00    0    3.30e+00
2001 10 23  2110    52205   76200      0    6.88e+00    0    3.17e+00
2001 10 23  2115    52205   76500      0    6.79e+00    0    3.14e+00
2001 10 23  2120    52205   76800      0    6.77e+00    0    3.11e+00
2001 10 23  2125    52205   77100      0    6.72e+00    0    3.09e+00
2001 10 23  2130    52205   77400      0    6.72e+00    0    3.10e+00
2001 10 23  2135    52205   77700      0    6.75e+00    0    3.12e+00
2001 10 23  2140    52205   78000      0    6.76e+00    0    3.13e+00
2001 10 23  2145    52205   78300      0    6.74e+00    0    3.07e+00
2001 10 23  2150    52205   78600      0    6.79e+00    0    3.11e+00
2001 10 23  2155    52205   78900      0    6.80e+00    0    3.10e+00
2001 10 23  2200    52205   79200      0    6.47e+00    0    2.93e+00
2001 10 23  2205    52205   79500      0    6.56e+00    0    2.99e+00
2001 10 23  2210    52205   79800      0    6.74e+00    0    3.07e+00
2001 10 23  2215    52205   80100      0    6.73e+00    0    3.14e+00
2001 10 23  2220    52205   80400      0    6.61e+00    0    3.02e+00
2001 10 23  2225    52205   80700      0    6.51e+00    0    2.97e+00
2001 10 23  2230    52205   81000      0    6.42e+00    0    2.94e+00
2001 10 23  2235    52205   81300      0    6.53e+00    0    2.99e+00
2001 10 23  2240    52205   81600      0    6.60e+00    0    3.04e+00
2001 10 23  2245    52205   81900      0    6.58e+00    0    2.99e+00
2001 10 23  2250    52205   82200      0    6.59e+00    0    3.03e+00
2001 10 23  2255    52205   82500      0    6.33e+00    0    2.87e+00
2001 10 23  2300    52205   82800      0    6.34e+00    0    2.87e+00
2001 10 23  2305    52205   83100      0    6.53e+00    0    2.98e+00
2001 10 23  2310    52205   83400      0    6.32e+00    0    2.88e+00
2001 10 23  2315    52205   83700      0    6.29e+00    0    2.86e+00
2001 10 23  2320    52205   84000      0    6.19e+00    0    2.78e+00
2001 10 23  2325    52205   84300      0    6.25e+00    0    2.80e+00
2001 10 23  2330    52205   84600      0    6.28e+00    0    2.83e+00
2001 10 23  2335    52205   84900      0    5.98e+00    0    2.72e+00
2001 10 23  2340    52205   85200      0    6.13e+00    0    2.72e+00
2001 10 23  2345    52205   85500      0    6.32e+00    0    2.86e+00
2001 10 23  2350    52205   85800      0    6.17e+00    0    2.77e+00
2001 10 23  2355    52205   86100      0    6.36e+00    0    2.86e+00
