:Data_list: 20010820_ace_sis_5m.txt
:Created: 2001 Aug 21 0011 UT
# Prepared by the U.S. Dept. of Commerce, NOAA, Space Environment Center.
# Please send comments and suggestions to sec@sec.noaa.gov 
# 
# Units: proton flux p/cs2-sec-ster
# Status(S): 0 = nominal data, 1 to 8 = bad data record, 9 = no data
# Missing data values: -1.00e+05
# Source: ACE Satellite - Solar Isotope Spectrometer
#
# 5-minute averaged Real-time Integral Flux of High-energy Solar Protons
# 
#                 Modified Seconds
# UT Date   Time   Julian  of the      ---- Integral Proton Flux ----
# YR MO DA  HHMM     Day     Day       S    > 10 MeV    S    > 30 MeV
#--------------------------------------------------------------------
2001 08 20  0000    52141       0      0    6.82e+00    0    2.51e+00
2001 08 20  0005    52141     300      0    6.84e+00    0    2.50e+00
2001 08 20  0010    52141     600      0    6.82e+00    0    2.52e+00
2001 08 20  0015    52141     900      0    6.72e+00    0    2.45e+00
2001 08 20  0020    52141    1200      0    6.80e+00    0    2.55e+00
2001 08 20  0025    52141    1500      0    6.91e+00    0    2.50e+00
2001 08 20  0030    52141    1800      0    6.86e+00    0    2.54e+00
2001 08 20  0035    52141    2100      0    6.80e+00    0    2.54e+00
2001 08 20  0040    52141    2400      0    6.94e+00    0    2.57e+00
2001 08 20  0045    52141    2700      0    6.82e+00    0    2.52e+00
2001 08 20  0050    52141    3000      0    6.80e+00    0    2.51e+00
2001 08 20  0055    52141    3300      0    6.77e+00    0    2.47e+00
2001 08 20  0100    52141    3600      0    6.73e+00    0    2.45e+00
2001 08 20  0105    52141    3900      0    7.22e+00    0    2.63e+00
2001 08 20  0110    52141    4200      0    7.50e+00    0    2.75e+00
2001 08 20  0115    52141    4500      0    6.87e+00    0    2.50e+00
2001 08 20  0120    52141    4800      0    6.77e+00    0    2.44e+00
2001 08 20  0125    52141    5100      0    6.82e+00    0    2.52e+00
2001 08 20  0130    52141    5400      0    6.82e+00    0    2.45e+00
2001 08 20  0135    52141    5700      0    6.64e+00    0    2.42e+00
2001 08 20  0140    52141    6000      0    6.69e+00    0    2.43e+00
2001 08 20  0145    52141    6300      0    6.79e+00    0    2.49e+00
2001 08 20  0150    52141    6600      0    6.70e+00    0    2.44e+00
2001 08 20  0155    52141    6900      0    6.67e+00    0    2.42e+00
2001 08 20  0200    52141    7200      0    6.46e+00    0    2.32e+00
2001 08 20  0205    52141    7500      0    6.50e+00    0    2.39e+00
2001 08 20  0210    52141    7800      0    6.48e+00    0    2.40e+00
2001 08 20  0215    52141    8100      0    6.45e+00    0    2.38e+00
2001 08 20  0220    52141    8400      0    6.50e+00    0    2.42e+00
2001 08 20  0225    52141    8700      0    6.53e+00    0    2.43e+00
2001 08 20  0230    52141    9000      0    6.45e+00    0    2.38e+00
2001 08 20  0235    52141    9300      0    6.36e+00    0    2.33e+00
2001 08 20  0240    52141    9600      0    6.41e+00    0    2.35e+00
2001 08 20  0245    52141    9900      0    6.32e+00    0    2.31e+00
2001 08 20  0250    52141   10200      0    6.59e+00    0    2.43e+00
2001 08 20  0255    52141   10500      0    6.47e+00    0    2.31e+00
2001 08 20  0300    52141   10800      0    6.44e+00    0    2.34e+00
2001 08 20  0305    52141   11100      0    6.40e+00    0    2.37e+00
2001 08 20  0310    52141   11400      0    6.32e+00    0    2.28e+00
2001 08 20  0315    52141   11700      0    6.38e+00    0    2.32e+00
2001 08 20  0320    52141   12000      0    6.39e+00    0    2.37e+00
2001 08 20  0325    52141   12300      0    6.46e+00    0    2.36e+00
2001 08 20  0330    52141   12600      0    6.62e+00    0    2.48e+00
2001 08 20  0335    52141   12900      0    6.50e+00    0    2.40e+00
2001 08 20  0340    52141   13200      0    6.51e+00    0    2.37e+00
2001 08 20  0345    52141   13500      0    6.47e+00    0    2.38e+00
2001 08 20  0350    52141   13800      0    6.44e+00    0    2.37e+00
2001 08 20  0355    52141   14100      0    6.39e+00    0    2.34e+00
2001 08 20  0400    52141   14400      0    6.49e+00    0    2.39e+00
2001 08 20  0405    52141   14700      0    6.36e+00    0    2.30e+00
2001 08 20  0410    52141   15000      0    6.38e+00    0    2.31e+00
2001 08 20  0415    52141   15300      0    6.33e+00    0    2.32e+00
2001 08 20  0420    52141   15600      0    6.55e+00    0    2.39e+00
2001 08 20  0425    52141   15900      0    6.78e+00    0    2.47e+00
2001 08 20  0430    52141   16200      0    6.64e+00    0    2.40e+00
2001 08 20  0435    52141   16500      0    6.52e+00    0    2.37e+00
2001 08 20  0440    52141   16800      0    6.46e+00    0    2.35e+00
2001 08 20  0445    52141   17100      0    6.50e+00    0    2.40e+00
2001 08 20  0450    52141   17400      0    6.59e+00    0    2.42e+00
2001 08 20  0455    52141   17700      0    6.39e+00    0    2.35e+00
2001 08 20  0500    52141   18000      0    6.33e+00    0    2.33e+00
2001 08 20  0505    52141   18300      0    6.36e+00    0    2.34e+00
2001 08 20  0510    52141   18600      0    6.40e+00    0    2.35e+00
2001 08 20  0515    52141   18900      0    6.47e+00    0    2.33e+00
2001 08 20  0520    52141   19200      0    6.66e+00    0    2.41e+00
2001 08 20  0525    52141   19500      0    6.84e+00    0    2.49e+00
2001 08 20  0530    52141   19800      0    6.39e+00    0    2.36e+00
2001 08 20  0535    52141   20100      0    6.33e+00    0    2.32e+00
2001 08 20  0540    52141   20400      0    5.73e+00    0    2.10e+00
2001 08 20  0545    52141   20700      0    6.09e+00    0    2.18e+00
2001 08 20  0550    52141   21000      0    6.16e+00    0    2.30e+00
2001 08 20  0555    52141   21300      0    6.24e+00    0    2.29e+00
2001 08 20  0600    52141   21600      0    6.32e+00    0    2.33e+00
2001 08 20  0605    52141   21900      0    6.15e+00    0    2.26e+00
2001 08 20  0610    52141   22200      0    6.11e+00    0    2.24e+00
2001 08 20  0615    52141   22500      0    6.41e+00    0    2.38e+00
2001 08 20  0620    52141   22800      0    6.17e+00    0    2.31e+00
2001 08 20  0625    52141   23100      0    6.08e+00    0    2.22e+00
2001 08 20  0630    52141   23400      0    6.07e+00    0    2.25e+00
2001 08 20  0635    52141   23700      0    6.14e+00    0    2.26e+00
2001 08 20  0640    52141   24000      0    6.12e+00    0    2.23e+00
2001 08 20  0645    52141   24300      0    6.14e+00    0    2.24e+00
2001 08 20  0650    52141   24600      0    6.06e+00    0    2.24e+00
2001 08 20  0655    52141   24900      0    6.09e+00    0    2.22e+00
2001 08 20  0700    52141   25200      0    6.13e+00    0    2.27e+00
2001 08 20  0705    52141   25500      0    5.99e+00    0    2.19e+00
2001 08 20  0710    52141   25800      0    5.97e+00    0    2.25e+00
2001 08 20  0715    52141   26100      0    5.98e+00    0    2.17e+00
2001 08 20  0720    52141   26400      0    5.95e+00    0    2.17e+00
2001 08 20  0725    52141   26700      0    6.00e+00    0    2.20e+00
2001 08 20  0730    52141   27000      0    6.53e+00    0    2.41e+00
2001 08 20  0735    52141   27300      0    6.59e+00    0    2.40e+00
2001 08 20  0740    52141   27600      0    6.00e+00    0    2.23e+00
2001 08 20  0745    52141   27900      0    5.91e+00    0    2.18e+00
2001 08 20  0750    52141   28200      0    6.02e+00    0    2.19e+00
2001 08 20  0755    52141   28500      0    6.01e+00    0    2.19e+00
2001 08 20  0800    52141   28800      0    6.04e+00    0    2.21e+00
2001 08 20  0805    52141   29100      0    6.08e+00    0    2.26e+00
2001 08 20  0810    52141   29400      0    6.07e+00    0    2.21e+00
2001 08 20  0815    52141   29700      0    6.04e+00    0    2.20e+00
2001 08 20  0820    52141   30000      0    6.11e+00    0    2.25e+00
2001 08 20  0825    52141   30300      0    6.05e+00    0    2.23e+00
2001 08 20  0830    52141   30600      0    6.06e+00    0    2.26e+00
2001 08 20  0835    52141   30900      0    5.98e+00    0    2.17e+00
2001 08 20  0840    52141   31200      0    6.08e+00    0    2.23e+00
2001 08 20  0845    52141   31500      0    6.02e+00    0    2.17e+00
2001 08 20  0850    52141   31800      0    6.11e+00    0    2.26e+00
2001 08 20  0855    52141   32100      0    6.07e+00    0    2.21e+00
2001 08 20  0900    52141   32400      0    6.23e+00    0    2.31e+00
2001 08 20  0905    52141   32700      0    6.10e+00    0    2.24e+00
2001 08 20  0910    52141   33000      0    6.05e+00    0    2.22e+00
2001 08 20  0915    52141   33300      0    6.20e+00    0    2.29e+00
2001 08 20  0920    52141   33600      0    6.13e+00    0    2.22e+00
2001 08 20  0925    52141   33900      0    6.09e+00    0    2.19e+00
2001 08 20  0930    52141   34200      0    5.97e+00    0    2.21e+00
2001 08 20  0935    52141   34500      0    6.06e+00    0    2.21e+00
2001 08 20  0940    52141   34800      0    5.97e+00    0    2.17e+00
2001 08 20  0945    52141   35100      0    6.11e+00    0    2.27e+00
2001 08 20  0950    52141   35400      0    5.97e+00    0    2.20e+00
2001 08 20  0955    52141   35700      0    6.00e+00    0    2.16e+00
2001 08 20  1000    52141   36000      0    6.00e+00    0    2.19e+00
2001 08 20  1005    52141   36300      0    6.06e+00    0    2.25e+00
2001 08 20  1010    52141   36600      0    5.97e+00    0    2.21e+00
2001 08 20  1015    52141   36900      0    6.00e+00    0    2.23e+00
2001 08 20  1020    52141   37200      0    5.94e+00    0    2.19e+00
2001 08 20  1025    52141   37500      0    5.92e+00    0    2.23e+00
2001 08 20  1030    52141   37800      0    5.80e+00    0    2.15e+00
2001 08 20  1035    52141   38100      0    5.74e+00    0    2.09e+00
2001 08 20  1040    52141   38400      0    5.72e+00    0    2.11e+00
2001 08 20  1045    52141   38700      0    5.78e+00    0    2.12e+00
2001 08 20  1050    52141   39000      0    5.70e+00    0    2.11e+00
2001 08 20  1055    52141   39300      0    5.72e+00    0    2.10e+00
2001 08 20  1100    52141   39600      0    5.63e+00    0    2.10e+00
2001 08 20  1105    52141   39900      0    5.60e+00    0    2.08e+00
2001 08 20  1110    52141   40200      0    5.66e+00    0    2.11e+00
2001 08 20  1115    52141   40500      0    5.68e+00    0    2.11e+00
2001 08 20  1120    52141   40800      0    5.72e+00    0    2.13e+00
2001 08 20  1125    52141   41100      0    5.56e+00    0    2.07e+00
2001 08 20  1130    52141   41400      0    5.59e+00    0    2.07e+00
2001 08 20  1135    52141   41700      0    5.65e+00    0    2.09e+00
2001 08 20  1140    52141   42000      0    5.72e+00    0    2.13e+00
2001 08 20  1145    52141   42300      0    5.70e+00    0    2.13e+00
2001 08 20  1150    52141   42600      0    5.52e+00    0    2.03e+00
2001 08 20  1155    52141   42900      0    5.54e+00    0    2.08e+00
2001 08 20  1200    52141   43200      0    5.52e+00    0    2.03e+00
2001 08 20  1205    52141   43500      0    5.53e+00    0    2.06e+00
2001 08 20  1210    52141   43800      0    5.46e+00    0    2.00e+00
2001 08 20  1215    52141   44100      0    5.54e+00    0    2.06e+00
2001 08 20  1220    52141   44400      0    5.53e+00    0    2.03e+00
2001 08 20  1225    52141   44700      0    5.55e+00    0    2.04e+00
2001 08 20  1230    52141   45000      0    5.54e+00    0    2.03e+00
2001 08 20  1235    52141   45300      0    5.59e+00    0    2.03e+00
2001 08 20  1240    52141   45600      0    5.65e+00    0    2.09e+00
2001 08 20  1245    52141   45900      0    5.50e+00    0    1.99e+00
2001 08 20  1250    52141   46200      0    5.46e+00    0    2.04e+00
2001 08 20  1255    52141   46500      0    5.52e+00    0    2.04e+00
2001 08 20  1300    52141   46800      0    5.38e+00    0    1.99e+00
2001 08 20  1305    52141   47100      0    5.40e+00    0    1.99e+00
2001 08 20  1310    52141   47400      0    5.42e+00    0    1.99e+00
2001 08 20  1315    52141   47700      0    5.49e+00    0    2.05e+00
2001 08 20  1320    52141   48000      0    5.63e+00    0    2.06e+00
2001 08 20  1325    52141   48300      0    5.42e+00    0    2.00e+00
2001 08 20  1330    52141   48600      0    5.41e+00    0    2.01e+00
2001 08 20  1335    52141   48900      0    5.48e+00    0    2.05e+00
2001 08 20  1340    52141   49200      0    5.42e+00    0    2.01e+00
2001 08 20  1345    52141   49500      0    5.46e+00    0    2.01e+00
2001 08 20  1350    52141   49800      0    5.49e+00    0    2.03e+00
2001 08 20  1355    52141   50100      0    6.15e+00    0    2.30e+00
2001 08 20  1400    52141   50400      0    6.21e+00    0    2.29e+00
2001 08 20  1405    52141   50700      0    5.54e+00    0    2.08e+00
2001 08 20  1410    52141   51000      0    5.41e+00    0    1.99e+00
2001 08 20  1415    52141   51300      0    5.41e+00    0    2.02e+00
2001 08 20  1420    52141   51600      0    5.34e+00    0    2.00e+00
2001 08 20  1425    52141   51900      0    5.39e+00    0    1.98e+00
2001 08 20  1430    52141   52200      0    5.36e+00    0    2.02e+00
2001 08 20  1435    52141   52500      0    5.38e+00    0    2.04e+00
2001 08 20  1440    52141   52800      0    5.55e+00    0    2.06e+00
2001 08 20  1445    52141   53100      0    5.39e+00    0    2.03e+00
2001 08 20  1450    52141   53400      0    5.30e+00    0    1.99e+00
2001 08 20  1455    52141   53700      0    5.42e+00    0    2.04e+00
2001 08 20  1500    52141   54000      0    5.33e+00    0    2.00e+00
2001 08 20  1505    52141   54300      0    5.43e+00    0    2.02e+00
2001 08 20  1510    52141   54600      0    5.35e+00    0    1.99e+00
2001 08 20  1515    52141   54900      0    5.34e+00    0    1.96e+00
2001 08 20  1520    52141   55200      0    5.28e+00    0    1.99e+00
2001 08 20  1525    52141   55500      0    5.32e+00    0    1.97e+00
2001 08 20  1530    52141   55800      0    5.24e+00    0    1.95e+00
2001 08 20  1535    52141   56100      0    5.30e+00    0    1.97e+00
2001 08 20  1540    52141   56400      0    5.32e+00    0    1.98e+00
2001 08 20  1545    52141   56700      0    5.44e+00    0    2.03e+00
2001 08 20  1550    52141   57000      0    5.43e+00    0    2.04e+00
2001 08 20  1555    52141   57300      0    5.47e+00    0    2.04e+00
2001 08 20  1600    52141   57600      0    5.29e+00    0    1.98e+00
2001 08 20  1605    52141   57900      0    5.30e+00    0    1.96e+00
2001 08 20  1610    52141   58200      0    5.25e+00    0    1.95e+00
2001 08 20  1615    52141   58500      0    5.26e+00    0    1.93e+00
2001 08 20  1620    52141   58800      0    5.24e+00    0    1.96e+00
2001 08 20  1625    52141   59100      0    5.31e+00    0    1.99e+00
2001 08 20  1630    52141   59400      0    5.27e+00    0    1.97e+00
2001 08 20  1635    52141   59700      0    5.22e+00    0    1.90e+00
2001 08 20  1640    52141   60000      0    5.27e+00    0    1.96e+00
2001 08 20  1645    52141   60300      0    5.34e+00    0    1.99e+00
2001 08 20  1650    52141   60600      0    5.33e+00    0    1.98e+00
2001 08 20  1655    52141   60900      0    5.22e+00    0    1.96e+00
2001 08 20  1700    52141   61200      0    5.15e+00    0    1.93e+00
2001 08 20  1705    52141   61500      0    5.25e+00    0    1.95e+00
2001 08 20  1710    52141   61800      0    5.13e+00    0    1.91e+00
2001 08 20  1715    52141   62100      0    5.17e+00    0    1.92e+00
2001 08 20  1720    52141   62400      0    5.14e+00    0    1.92e+00
2001 08 20  1725    52141   62700      0    5.17e+00    0    1.93e+00
2001 08 20  1730    52141   63000      0    5.12e+00    0    1.88e+00
2001 08 20  1735    52141   63300      0    5.11e+00    0    1.92e+00
2001 08 20  1740    52141   63600      0    5.20e+00    0    1.96e+00
2001 08 20  1745    52141   63900      0    5.24e+00    0    1.96e+00
2001 08 20  1750    52141   64200      0    5.10e+00    0    1.89e+00
2001 08 20  1755    52141   64500      0    5.09e+00    0    1.89e+00
2001 08 20  1800    52141   64800      0    5.10e+00    0    1.91e+00
2001 08 20  1805    52141   65100      0    5.04e+00    0    1.88e+00
2001 08 20  1810    52141   65400      0    5.12e+00    0    1.89e+00
2001 08 20  1815    52141   65700      0    5.05e+00    0    1.87e+00
2001 08 20  1820    52141   66000      0    5.23e+00    0    1.98e+00
2001 08 20  1825    52141   66300      0    5.16e+00    0    1.91e+00
2001 08 20  1830    52141   66600      0    5.16e+00    0    1.92e+00
2001 08 20  1835    52141   66900      0    5.17e+00    0    1.95e+00
2001 08 20  1840    52141   67200      0    5.05e+00    0    1.90e+00
2001 08 20  1845    52141   67500      0    5.08e+00    0    1.88e+00
2001 08 20  1850    52141   67800      0    5.13e+00    0    1.92e+00
2001 08 20  1855    52141   68100      0    5.16e+00    0    1.93e+00
2001 08 20  1900    52141   68400      0    5.11e+00    0    1.94e+00
2001 08 20  1905    52141   68700      0    5.08e+00    0    1.90e+00
2001 08 20  1910    52141   69000      0    5.03e+00    0    1.89e+00
2001 08 20  1915    52141   69300      0    5.10e+00    0    1.91e+00
2001 08 20  1920    52141   69600      0    5.42e+00    0    2.03e+00
2001 08 20  1925    52141   69900      0    5.17e+00    0    1.90e+00
2001 08 20  1930    52141   70200      0    5.12e+00    0    1.90e+00
2001 08 20  1935    52141   70500      0    5.15e+00    0    1.91e+00
2001 08 20  1940    52141   70800      0    5.20e+00    0    1.90e+00
2001 08 20  1945    52141   71100      0    5.17e+00    0    1.91e+00
2001 08 20  1950    52141   71400      0    5.16e+00    0    1.88e+00
2001 08 20  1955    52141   71700      0    5.16e+00    0    1.91e+00
2001 08 20  2000    52141   72000      0    5.08e+00    0    1.88e+00
2001 08 20  2005    52141   72300      0    5.03e+00    0    1.86e+00
2001 08 20  2010    52141   72600      0    5.11e+00    0    1.88e+00
2001 08 20  2015    52141   72900      0    5.08e+00    0    1.86e+00
2001 08 20  2020    52141   73200      0    5.03e+00    0    1.83e+00
2001 08 20  2025    52141   73500      0    4.95e+00    0    1.81e+00
2001 08 20  2030    52141   73800      0    4.94e+00    0    1.85e+00
2001 08 20  2035    52141   74100      0    5.04e+00    0    1.89e+00
2001 08 20  2040    52141   74400      0    4.95e+00    0    1.84e+00
2001 08 20  2045    52141   74700      0    5.00e+00    0    1.89e+00
2001 08 20  2050    52141   75000      0    4.97e+00    0    1.85e+00
2001 08 20  2055    52141   75300      0    4.93e+00    0    1.84e+00
2001 08 20  2100    52141   75600      0    4.93e+00    0    1.85e+00
2001 08 20  2105    52141   75900      0    4.87e+00    0    1.78e+00
2001 08 20  2110    52141   76200      0    5.04e+00    0    1.91e+00
2001 08 20  2115    52141   76500      0    4.96e+00    0    1.82e+00
2001 08 20  2120    52141   76800      0    4.98e+00    0    1.84e+00
2001 08 20  2125    52141   77100      0    5.01e+00    0    1.87e+00
2001 08 20  2130    52141   77400      0    4.97e+00    0    1.84e+00
2001 08 20  2135    52141   77700      0    4.90e+00    0    1.82e+00
2001 08 20  2140    52141   78000      0    4.98e+00    0    1.84e+00
2001 08 20  2145    52141   78300      0    4.92e+00    0    1.83e+00
2001 08 20  2150    52141   78600      0    4.89e+00    0    1.77e+00
2001 08 20  2155    52141   78900      0    4.88e+00    0    1.80e+00
2001 08 20  2200    52141   79200      0    4.88e+00    0    1.78e+00
2001 08 20  2205    52141   79500      0    4.83e+00    0    1.79e+00
2001 08 20  2210    52141   79800      0    4.92e+00    0    1.79e+00
2001 08 20  2215    52141   80100      0    5.01e+00    0    1.84e+00
2001 08 20  2220    52141   80400      0    5.29e+00    0    1.96e+00
2001 08 20  2225    52141   80700      0    4.97e+00    0    1.85e+00
2001 08 20  2230    52141   81000      0    4.81e+00    0    1.75e+00
2001 08 20  2235    52141   81300      0    4.81e+00    0    1.78e+00
2001 08 20  2240    52141   81600      0    4.75e+00    0    1.75e+00
2001 08 20  2245    52141   81900      0    4.99e+00    0    1.82e+00
2001 08 20  2250    52141   82200      0    4.95e+00    0    1.81e+00
2001 08 20  2255    52141   82500      0    4.85e+00    0    1.80e+00
2001 08 20  2300    52141   82800      0    4.76e+00    0    1.75e+00
2001 08 20  2305    52141   83100      0    4.79e+00    0    1.76e+00
2001 08 20  2310    52141   83400      0    4.82e+00    0    1.77e+00
2001 08 20  2315    52141   83700      0    4.86e+00    0    1.76e+00
2001 08 20  2320    52141   84000      0    4.87e+00    0    1.77e+00
2001 08 20  2325    52141   84300      0    4.73e+00    0    1.74e+00
2001 08 20  2330    52141   84600      0    4.80e+00    0    1.80e+00
2001 08 20  2335    52141   84900      0    4.82e+00    0    1.82e+00
2001 08 20  2340    52141   85200      0    4.80e+00    0    1.77e+00
2001 08 20  2345    52141   85500      0    4.77e+00    0    1.78e+00
2001 08 20  2350    52141   85800      0    4.69e+00    0    1.73e+00
2001 08 20  2355    52141   86100      0    4.79e+00    0    1.76e+00
