:Data_list: 20010821_ace_sis_5m.txt
:Created: 2001 Aug 22 0011 UT
# Prepared by the U.S. Dept. of Commerce, NOAA, Space Environment Center.
# Please send comments and suggestions to sec@sec.noaa.gov 
# 
# Units: proton flux p/cs2-sec-ster
# Status(S): 0 = nominal data, 1 to 8 = bad data record, 9 = no data
# Missing data values: -1.00e+05
# Source: ACE Satellite - Solar Isotope Spectrometer
#
# 5-minute averaged Real-time Integral Flux of High-energy Solar Protons
# 
#                 Modified Seconds
# UT Date   Time   Julian  of the      ---- Integral Proton Flux ----
# YR MO DA  HHMM     Day     Day       S    > 10 MeV    S    > 30 MeV
#--------------------------------------------------------------------
2001 08 21  0000    52142       0      0    4.70e+00    0    1.74e+00
2001 08 21  0005    52142     300      0    4.67e+00    0    1.69e+00
2001 08 21  0010    52142     600      0    4.63e+00    0    1.70e+00
2001 08 21  0015    52142     900      0    4.74e+00    0    1.80e+00
2001 08 21  0020    52142    1200      0    4.60e+00    0    1.73e+00
2001 08 21  0025    52142    1500      0    4.69e+00    0    1.74e+00
2001 08 21  0030    52142    1800      0    4.70e+00    0    1.75e+00
2001 08 21  0035    52142    2100      0    4.63e+00    0    1.72e+00
2001 08 21  0040    52142    2400      0    4.60e+00    0    1.70e+00
2001 08 21  0045    52142    2700      0    4.55e+00    0    1.68e+00
2001 08 21  0050    52142    3000      0    4.59e+00    0    1.69e+00
2001 08 21  0055    52142    3300      0    4.65e+00    0    1.76e+00
2001 08 21  0100    52142    3600      0    4.64e+00    0    1.71e+00
2001 08 21  0105    52142    3900      0    4.57e+00    0    1.67e+00
2001 08 21  0110    52142    4200      0    4.59e+00    0    1.67e+00
2001 08 21  0115    52142    4500      0    4.54e+00    0    1.67e+00
2001 08 21  0120    52142    4800      0    4.61e+00    0    1.71e+00
2001 08 21  0125    52142    5100      0    4.61e+00    0    1.73e+00
2001 08 21  0130    52142    5400      0    4.59e+00    0    1.70e+00
2001 08 21  0135    52142    5700      0    4.56e+00    0    1.72e+00
2001 08 21  0140    52142    6000      0    4.51e+00    0    1.65e+00
2001 08 21  0145    52142    6300      0    4.63e+00    0    1.70e+00
2001 08 21  0150    52142    6600      0    4.56e+00    0    1.68e+00
2001 08 21  0155    52142    6900      0    4.53e+00    0    1.68e+00
2001 08 21  0200    52142    7200      0    4.52e+00    0    1.69e+00
2001 08 21  0205    52142    7500      0    4.52e+00    0    1.67e+00
2001 08 21  0210    52142    7800      0    4.50e+00    0    1.68e+00
2001 08 21  0215    52142    8100      0    4.53e+00    0    1.71e+00
2001 08 21  0220    52142    8400      0    4.79e+00    0    1.81e+00
2001 08 21  0225    52142    8700      0    4.58e+00    0    1.72e+00
2001 08 21  0230    52142    9000      0    4.55e+00    0    1.67e+00
2001 08 21  0235    52142    9300      0    4.87e+00    0    1.78e+00
2001 08 21  0240    52142    9600      0    4.87e+00    0    1.80e+00
2001 08 21  0245    52142    9900      0    4.77e+00    0    1.75e+00
2001 08 21  0250    52142   10200      0    4.60e+00    0    1.70e+00
2001 08 21  0255    52142   10500      0    4.40e+00    0    1.61e+00
2001 08 21  0300    52142   10800      0    4.44e+00    0    1.65e+00
2001 08 21  0305    52142   11100      0    4.60e+00    0    1.69e+00
2001 08 21  0310    52142   11400      0    4.56e+00    0    1.69e+00
2001 08 21  0315    52142   11700      0    4.55e+00    0    1.67e+00
2001 08 21  0320    52142   12000      0    4.48e+00    0    1.64e+00
2001 08 21  0325    52142   12300      0    4.48e+00    0    1.70e+00
2001 08 21  0330    52142   12600      0    4.53e+00    0    1.74e+00
2001 08 21  0335    52142   12900      0    4.40e+00    0    1.66e+00
2001 08 21  0340    52142   13200      0    4.46e+00    0    1.70e+00
2001 08 21  0345    52142   13500      0    4.64e+00    0    1.74e+00
2001 08 21  0350    52142   13800      0    4.58e+00    0    1.71e+00
2001 08 21  0355    52142   14100      0    4.60e+00    0    1.70e+00
2001 08 21  0400    52142   14400      0    4.56e+00    0    1.72e+00
2001 08 21  0405    52142   14700      0    4.45e+00    0    1.69e+00
2001 08 21  0410    52142   15000      0    4.37e+00    0    1.64e+00
2001 08 21  0415    52142   15300      0    4.37e+00    0    1.65e+00
2001 08 21  0420    52142   15600      0    4.41e+00    0    1.66e+00
2001 08 21  0425    52142   15900      0    4.34e+00    0    1.66e+00
2001 08 21  0430    52142   16200      0    4.39e+00    0    1.66e+00
2001 08 21  0435    52142   16500      0    4.32e+00    0    1.61e+00
2001 08 21  0440    52142   16800      0    4.35e+00    0    1.65e+00
2001 08 21  0445    52142   17100      0    4.33e+00    0    1.67e+00
2001 08 21  0450    52142   17400      0    4.35e+00    0    1.65e+00
2001 08 21  0455    52142   17700      0    4.36e+00    0    1.63e+00
2001 08 21  0500    52142   18000      0    4.36e+00    0    1.63e+00
2001 08 21  0505    52142   18300      0    4.46e+00    0    1.69e+00
2001 08 21  0510    52142   18600      0    4.43e+00    0    1.67e+00
2001 08 21  0515    52142   18900      0    4.47e+00    0    1.70e+00
2001 08 21  0520    52142   19200      0    4.36e+00    0    1.63e+00
2001 08 21  0525    52142   19500      0    4.46e+00    0    1.70e+00
2001 08 21  0530    52142   19800      0    4.45e+00    0    1.67e+00
2001 08 21  0535    52142   20100      0    4.41e+00    0    1.67e+00
2001 08 21  0540    52142   20400      0    4.41e+00    0    1.68e+00
2001 08 21  0545    52142   20700      0    4.51e+00    0    1.72e+00
2001 08 21  0550    52142   21000      0    4.51e+00    0    1.69e+00
2001 08 21  0555    52142   21300      0    4.53e+00    0    1.72e+00
2001 08 21  0600    52142   21600      0    4.44e+00    0    1.66e+00
2001 08 21  0605    52142   21900      0    4.53e+00    0    1.71e+00
2001 08 21  0610    52142   22200      0    4.45e+00    0    1.66e+00
2001 08 21  0615    52142   22500      0    4.45e+00    0    1.66e+00
2001 08 21  0620    52142   22800      0    4.43e+00    0    1.65e+00
2001 08 21  0625    52142   23100      0    4.44e+00    0    1.67e+00
2001 08 21  0630    52142   23400      0    4.43e+00    0    1.71e+00
2001 08 21  0635    52142   23700      0    4.66e+00    0    1.76e+00
2001 08 21  0640    52142   24000      0    4.62e+00    0    1.75e+00
2001 08 21  0645    52142   24300      0    4.52e+00    0    1.69e+00
2001 08 21  0650    52142   24600      0    4.40e+00    0    1.66e+00
2001 08 21  0655    52142   24900      0    4.42e+00    0    1.66e+00
2001 08 21  0700    52142   25200      0    4.36e+00    0    1.64e+00
2001 08 21  0705    52142   25500      0    4.31e+00    0    1.63e+00
2001 08 21  0710    52142   25800      0    4.33e+00    0    1.64e+00
2001 08 21  0715    52142   26100      0    4.36e+00    0    1.65e+00
2001 08 21  0720    52142   26400      0    4.37e+00    0    1.65e+00
2001 08 21  0725    52142   26700      0    4.37e+00    0    1.67e+00
2001 08 21  0730    52142   27000      0    4.46e+00    0    1.70e+00
2001 08 21  0735    52142   27300      0    4.52e+00    0    1.73e+00
2001 08 21  0740    52142   27600      0    4.48e+00    0    1.72e+00
2001 08 21  0745    52142   27900      0    4.48e+00    0    1.70e+00
2001 08 21  0750    52142   28200      0    4.31e+00    0    1.65e+00
2001 08 21  0755    52142   28500      0    4.41e+00    0    1.64e+00
2001 08 21  0800    52142   28800      0    4.52e+00    0    1.73e+00
2001 08 21  0805    52142   29100      0    4.50e+00    0    1.70e+00
2001 08 21  0810    52142   29400      0    4.61e+00    0    1.75e+00
2001 08 21  0815    52142   29700      0    4.51e+00    0    1.71e+00
2001 08 21  0820    52142   30000      0    4.38e+00    0    1.68e+00
2001 08 21  0825    52142   30300      0    4.39e+00    0    1.63e+00
2001 08 21  0830    52142   30600      0    4.37e+00    0    1.63e+00
2001 08 21  0835    52142   30900      0    4.46e+00    0    1.69e+00
2001 08 21  0840    52142   31200      0    5.41e+00    0    2.00e+00
2001 08 21  0845    52142   31500      0    4.30e+00    0    1.62e+00
2001 08 21  0850    52142   31800      0    4.31e+00    0    1.64e+00
2001 08 21  0855    52142   32100      0    4.29e+00    0    1.60e+00
2001 08 21  0900    52142   32400      0    4.16e+00    0    1.57e+00
2001 08 21  0905    52142   32700      0    4.26e+00    0    1.61e+00
2001 08 21  0910    52142   33000      0    4.33e+00    0    1.65e+00
2001 08 21  0915    52142   33300      0    4.30e+00    0    1.65e+00
2001 08 21  0920    52142   33600      0    4.31e+00    0    1.67e+00
2001 08 21  0925    52142   33900      0    4.29e+00    0    1.62e+00
2001 08 21  0930    52142   34200      0    4.25e+00    0    1.62e+00
2001 08 21  0935    52142   34500      0    4.36e+00    0    1.64e+00
2001 08 21  0940    52142   34800      0    4.37e+00    0    1.65e+00
2001 08 21  0945    52142   35100      0    4.34e+00    0    1.66e+00
2001 08 21  0950    52142   35400      0    4.30e+00    0    1.64e+00
2001 08 21  0955    52142   35700      0    4.25e+00    0    1.61e+00
2001 08 21  1000    52142   36000      0    4.33e+00    0    1.66e+00
2001 08 21  1005    52142   36300      0    4.30e+00    0    1.61e+00
2001 08 21  1010    52142   36600      0    4.32e+00    0    1.63e+00
2001 08 21  1015    52142   36900      0    4.27e+00    0    1.64e+00
2001 08 21  1020    52142   37200      0    4.25e+00    0    1.64e+00
2001 08 21  1025    52142   37500      0    4.19e+00    0    1.59e+00
2001 08 21  1030    52142   37800      0    4.28e+00    0    1.64e+00
2001 08 21  1035    52142   38100      0    4.27e+00    0    1.65e+00
2001 08 21  1040    52142   38400      0    4.22e+00    0    1.59e+00
2001 08 21  1045    52142   38700      0    4.19e+00    0    1.60e+00
2001 08 21  1050    52142   39000      0    4.23e+00    0    1.62e+00
2001 08 21  1055    52142   39300      0    4.23e+00    0    1.61e+00
2001 08 21  1100    52142   39600      0    4.32e+00    0    1.64e+00
2001 08 21  1105    52142   39900      0    4.28e+00    0    1.62e+00
2001 08 21  1110    52142   40200      0    4.25e+00    0    1.62e+00
2001 08 21  1115    52142   40500      0    4.27e+00    0    1.62e+00
2001 08 21  1120    52142   40800      0    4.36e+00    0    1.64e+00
2001 08 21  1125    52142   41100      0    4.44e+00    0    1.67e+00
2001 08 21  1130    52142   41400      0    4.48e+00    0    1.70e+00
2001 08 21  1135    52142   41700      0    4.38e+00    0    1.64e+00
2001 08 21  1140    52142   42000      0    4.42e+00    0    1.61e+00
2001 08 21  1145    52142   42300      0    4.35e+00    0    1.65e+00
2001 08 21  1150    52142   42600      0    4.32e+00    0    1.64e+00
2001 08 21  1155    52142   42900      0    4.39e+00    0    1.65e+00
2001 08 21  1200    52142   43200      0    4.43e+00    0    1.67e+00
2001 08 21  1205    52142   43500      0    4.45e+00    0    1.68e+00
2001 08 21  1210    52142   43800      0    4.38e+00    0    1.61e+00
2001 08 21  1215    52142   44100      0    4.28e+00    0    1.60e+00
2001 08 21  1220    52142   44400      0    4.18e+00    0    1.60e+00
2001 08 21  1225    52142   44700      0    4.28e+00    0    1.67e+00
2001 08 21  1230    52142   45000      0    4.26e+00    0    1.64e+00
2001 08 21  1235    52142   45300      0    4.27e+00    0    1.62e+00
2001 08 21  1240    52142   45600      0    4.18e+00    0    1.62e+00
2001 08 21  1245    52142   45900      9   -1.00e+05    9   -1.00e+05
2001 08 21  1250    52142   46200      0    4.26e+00    0    1.59e+00
2001 08 21  1255    52142   46500      0    4.27e+00    0    1.63e+00
2001 08 21  1300    52142   46800      0    4.30e+00    0    1.60e+00
2001 08 21  1305    52142   47100      0    4.28e+00    0    1.58e+00
2001 08 21  1310    52142   47400      0    4.30e+00    0    1.63e+00
2001 08 21  1315    52142   47700      0    4.29e+00    0    1.60e+00
2001 08 21  1320    52142   48000      0    4.29e+00    0    1.58e+00
2001 08 21  1325    52142   48300      0    4.36e+00    0    1.61e+00
2001 08 21  1330    52142   48600      0    4.24e+00    0    1.57e+00
2001 08 21  1335    52142   48900      0    4.26e+00    0    1.59e+00
2001 08 21  1340    52142   49200      0    4.39e+00    0    1.61e+00
2001 08 21  1345    52142   49500      0    4.35e+00    0    1.60e+00
2001 08 21  1350    52142   49800      0    4.29e+00    0    1.58e+00
2001 08 21  1355    52142   50100      0    4.34e+00    0    1.62e+00
2001 08 21  1400    52142   50400      0    4.39e+00    0    1.60e+00
2001 08 21  1405    52142   50700      0    4.35e+00    0    1.57e+00
2001 08 21  1410    52142   51000      0    4.45e+00    0    1.54e+00
2001 08 21  1415    52142   51300      0    4.74e+00    0    1.64e+00
2001 08 21  1420    52142   51600      0    4.59e+00    0    1.59e+00
2001 08 21  1425    52142   51900      0    4.47e+00    0    1.55e+00
2001 08 21  1430    52142   52200      0    4.45e+00    0    1.59e+00
2001 08 21  1435    52142   52500      0    4.52e+00    0    1.61e+00
2001 08 21  1440    52142   52800      0    4.69e+00    0    1.63e+00
2001 08 21  1445    52142   53100      0    4.66e+00    0    1.62e+00
2001 08 21  1450    52142   53400      0    4.74e+00    0    1.62e+00
2001 08 21  1455    52142   53700      0    4.77e+00    0    1.60e+00
2001 08 21  1500    52142   54000      0    4.97e+00    0    1.58e+00
2001 08 21  1505    52142   54300      0    5.09e+00    0    1.57e+00
2001 08 21  1510    52142   54600      0    5.30e+00    0    1.67e+00
2001 08 21  1515    52142   54900      0    4.88e+00    0    1.64e+00
2001 08 21  1520    52142   55200      0    4.94e+00    0    1.64e+00
2001 08 21  1525    52142   55500      0    4.87e+00    0    1.61e+00
2001 08 21  1530    52142   55800      0    4.89e+00    0    1.58e+00
2001 08 21  1535    52142   56100      0    4.98e+00    0    1.63e+00
2001 08 21  1540    52142   56400      0    4.97e+00    0    1.59e+00
2001 08 21  1545    52142   56700      0    5.39e+00    0    1.68e+00
2001 08 21  1550    52142   57000      0    5.81e+00    0    1.66e+00
2001 08 21  1555    52142   57300      0    6.14e+00    0    1.65e+00
2001 08 21  1600    52142   57600      0    6.64e+00    0    1.70e+00
2001 08 21  1605    52142   57900      0    6.51e+00    0    1.58e+00
2001 08 21  1610    52142   58200      0    6.69e+00    0    1.55e+00
2001 08 21  1615    52142   58500      0    6.54e+00    0    1.58e+00
2001 08 21  1620    52142   58800      0    6.35e+00    0    1.59e+00
2001 08 21  1625    52142   59100      0    6.43e+00    0    1.61e+00
2001 08 21  1630    52142   59400      0    6.49e+00    0    1.67e+00
2001 08 21  1635    52142   59700      0    6.45e+00    0    1.59e+00
2001 08 21  1640    52142   60000      0    6.28e+00    0    1.67e+00
2001 08 21  1645    52142   60300      0    5.99e+00    0    1.59e+00
2001 08 21  1650    52142   60600      0    5.68e+00    0    1.55e+00
2001 08 21  1655    52142   60900      0    5.69e+00    0    1.64e+00
2001 08 21  1700    52142   61200      0    5.29e+00    0    1.64e+00
2001 08 21  1705    52142   61500      0    5.16e+00    0    1.62e+00
2001 08 21  1710    52142   61800      0    5.38e+00    0    1.67e+00
2001 08 21  1715    52142   62100      0    5.53e+00    0    1.69e+00
2001 08 21  1720    52142   62400      0    5.40e+00    0    1.70e+00
2001 08 21  1725    52142   62700      0    5.28e+00    0    1.69e+00
2001 08 21  1730    52142   63000      0    5.51e+00    0    1.74e+00
2001 08 21  1735    52142   63300      0    5.51e+00    0    1.76e+00
2001 08 21  1740    52142   63600      0    5.30e+00    0    1.68e+00
2001 08 21  1745    52142   63900      0    5.32e+00    0    1.71e+00
2001 08 21  1750    52142   64200      0    5.25e+00    0    1.73e+00
2001 08 21  1755    52142   64500      0    5.16e+00    0    1.66e+00
2001 08 21  1800    52142   64800      0    5.14e+00    0    1.69e+00
2001 08 21  1805    52142   65100      0    5.17e+00    0    1.73e+00
2001 08 21  1810    52142   65400      0    5.17e+00    0    1.68e+00
2001 08 21  1815    52142   65700      0    5.07e+00    0    1.63e+00
2001 08 21  1820    52142   66000      0    5.11e+00    0    1.64e+00
2001 08 21  1825    52142   66300      0    5.02e+00    0    1.61e+00
2001 08 21  1830    52142   66600      0    5.26e+00    0    1.74e+00
2001 08 21  1835    52142   66900      0    5.06e+00    0    1.60e+00
2001 08 21  1840    52142   67200      0    5.08e+00    0    1.61e+00
2001 08 21  1845    52142   67500      0    5.10e+00    0    1.66e+00
2001 08 21  1850    52142   67800      0    5.03e+00    0    1.63e+00
2001 08 21  1855    52142   68100      0    5.01e+00    0    1.59e+00
2001 08 21  1900    52142   68400      0    5.06e+00    0    1.64e+00
2001 08 21  1905    52142   68700      0    4.96e+00    0    1.62e+00
2001 08 21  1910    52142   69000      0    5.02e+00    0    1.65e+00
2001 08 21  1915    52142   69300      0    5.11e+00    0    1.63e+00
2001 08 21  1920    52142   69600      0    5.00e+00    0    1.65e+00
2001 08 21  1925    52142   69900      0    5.14e+00    0    1.67e+00
2001 08 21  1930    52142   70200      0    5.04e+00    0    1.59e+00
2001 08 21  1935    52142   70500      0    4.98e+00    0    1.62e+00
2001 08 21  1940    52142   70800      0    4.98e+00    0    1.62e+00
2001 08 21  1945    52142   71100      0    4.80e+00    0    1.58e+00
2001 08 21  1950    52142   71400      0    4.84e+00    0    1.59e+00
2001 08 21  1955    52142   71700      0    4.94e+00    0    1.63e+00
2001 08 21  2000    52142   72000      0    5.04e+00    0    1.64e+00
2001 08 21  2005    52142   72300      0    4.86e+00    0    1.58e+00
2001 08 21  2010    52142   72600      0    4.94e+00    0    1.61e+00
2001 08 21  2015    52142   72900      0    4.92e+00    0    1.60e+00
2001 08 21  2020    52142   73200      0    4.93e+00    0    1.59e+00
2001 08 21  2025    52142   73500      0    5.03e+00    0    1.67e+00
2001 08 21  2030    52142   73800      0    4.90e+00    0    1.58e+00
2001 08 21  2035    52142   74100      0    4.96e+00    0    1.62e+00
2001 08 21  2040    52142   74400      0    4.90e+00    0    1.62e+00
2001 08 21  2045    52142   74700      0    4.89e+00    0    1.66e+00
2001 08 21  2050    52142   75000      0    4.76e+00    0    1.61e+00
2001 08 21  2055    52142   75300      0    4.78e+00    0    1.56e+00
2001 08 21  2100    52142   75600      0    4.78e+00    0    1.63e+00
2001 08 21  2105    52142   75900      0    4.64e+00    0    1.55e+00
2001 08 21  2110    52142   76200      0    4.60e+00    0    1.55e+00
2001 08 21  2115    52142   76500      0    4.71e+00    0    1.57e+00
2001 08 21  2120    52142   76800      0    4.69e+00    0    1.63e+00
2001 08 21  2125    52142   77100      0    4.63e+00    0    1.54e+00
2001 08 21  2130    52142   77400      0    4.67e+00    0    1.58e+00
2001 08 21  2135    52142   77700      0    4.71e+00    0    1.60e+00
2001 08 21  2140    52142   78000      0    4.65e+00    0    1.56e+00
2001 08 21  2145    52142   78300      0    4.65e+00    0    1.59e+00
2001 08 21  2150    52142   78600      0    4.63e+00    0    1.58e+00
2001 08 21  2155    52142   78900      0    4.58e+00    0    1.56e+00
2001 08 21  2200    52142   79200      0    4.62e+00    0    1.58e+00
2001 08 21  2205    52142   79500      0    4.75e+00    0    1.61e+00
2001 08 21  2210    52142   79800      0    4.65e+00    0    1.59e+00
2001 08 21  2215    52142   80100      0    4.58e+00    0    1.55e+00
2001 08 21  2220    52142   80400      0    4.47e+00    0    1.50e+00
2001 08 21  2225    52142   80700      0    4.46e+00    0    1.53e+00
2001 08 21  2230    52142   81000      0    4.53e+00    0    1.58e+00
2001 08 21  2235    52142   81300      0    4.55e+00    0    1.54e+00
2001 08 21  2240    52142   81600      0    4.47e+00    0    1.57e+00
2001 08 21  2245    52142   81900      0    4.55e+00    0    1.58e+00
2001 08 21  2250    52142   82200      0    4.50e+00    0    1.55e+00
2001 08 21  2255    52142   82500      0    4.63e+00    0    1.62e+00
2001 08 21  2300    52142   82800      0    4.61e+00    0    1.59e+00
2001 08 21  2305    52142   83100      0    4.47e+00    0    1.55e+00
2001 08 21  2310    52142   83400      0    4.44e+00    0    1.57e+00
2001 08 21  2315    52142   83700      0    4.42e+00    0    1.54e+00
2001 08 21  2320    52142   84000      0    4.41e+00    0    1.53e+00
2001 08 21  2325    52142   84300      0    4.42e+00    0    1.52e+00
2001 08 21  2330    52142   84600      0    4.36e+00    0    1.49e+00
2001 08 21  2335    52142   84900      0    4.42e+00    0    1.55e+00
2001 08 21  2340    52142   85200      0    4.42e+00    0    1.55e+00
2001 08 21  2345    52142   85500      0    4.36e+00    0    1.52e+00
2001 08 21  2350    52142   85800      0    4.50e+00    0    1.54e+00
2001 08 21  2355    52142   86100      0    4.34e+00    0    1.51e+00
