:Data_list: 20010929_ace_sis_5m.txt
:Created: 2001 Sep 30 0011 UT
# Prepared by the U.S. Dept. of Commerce, NOAA, Space Environment Center.
# Please send comments and suggestions to sec@sec.noaa.gov 
# 
# Units: proton flux p/cs2-sec-ster
# Status(S): 0 = nominal data, 1 to 8 = bad data record, 9 = no data
# Missing data values: -1.00e+05
# Source: ACE Satellite - Solar Isotope Spectrometer
#
# 5-minute averaged Real-time Integral Flux of High-energy Solar Protons
# 
#                 Modified Seconds
# UT Date   Time   Julian  of the      ---- Integral Proton Flux ----
# YR MO DA  HHMM     Day     Day       S    > 10 MeV    S    > 30 MeV
#--------------------------------------------------------------------
2001 09 29  0000    52181       0      0    6.24e+01    0    8.04e+00
2001 09 29  0005    52181     300      0    6.38e+01    0    8.43e+00
2001 09 29  0010    52181     600      0    6.41e+01    0    8.04e+00
2001 09 29  0015    52181     900      0    6.38e+01    0    8.51e+00
2001 09 29  0020    52181    1200      0    6.36e+01    0    8.43e+00
2001 09 29  0025    52181    1500      0    6.15e+01    0    8.00e+00
2001 09 29  0030    52181    1800      0    5.99e+01    0    7.78e+00
2001 09 29  0035    52181    2100      0    6.20e+01    0    8.24e+00
2001 09 29  0040    52181    2400      0    6.16e+01    0    7.84e+00
2001 09 29  0045    52181    2700      0    6.16e+01    0    7.94e+00
2001 09 29  0050    52181    3000      0    6.12e+01    0    7.55e+00
2001 09 29  0055    52181    3300      0    6.15e+01    0    7.91e+00
2001 09 29  0100    52181    3600      0    6.03e+01    0    7.64e+00
2001 09 29  0105    52181    3900      0    6.07e+01    0    7.49e+00
2001 09 29  0110    52181    4200      0    6.04e+01    0    7.86e+00
2001 09 29  0115    52181    4500      0    6.14e+01    0    7.82e+00
2001 09 29  0120    52181    4800      0    5.99e+01    0    7.58e+00
2001 09 29  0125    52181    5100      0    6.13e+01    0    8.05e+00
2001 09 29  0130    52181    5400      0    6.11e+01    0    7.66e+00
2001 09 29  0135    52181    5700      0    5.96e+01    0    7.43e+00
2001 09 29  0140    52181    6000      0    5.88e+01    0    7.22e+00
2001 09 29  0145    52181    6300      0    5.92e+01    0    8.01e+00
2001 09 29  0150    52181    6600      0    6.05e+01    0    7.98e+00
2001 09 29  0155    52181    6900      0    5.92e+01    0    7.69e+00
2001 09 29  0200    52181    7200      0    5.81e+01    0    7.70e+00
2001 09 29  0205    52181    7500      0    5.95e+01    0    7.64e+00
2001 09 29  0210    52181    7800      0    5.97e+01    0    7.83e+00
2001 09 29  0215    52181    8100      0    5.79e+01    0    7.13e+00
2001 09 29  0220    52181    8400      0    5.78e+01    0    7.28e+00
2001 09 29  0225    52181    8700      0    5.79e+01    0    7.23e+00
2001 09 29  0230    52181    9000      0    5.78e+01    0    7.37e+00
2001 09 29  0235    52181    9300      0    5.87e+01    0    7.65e+00
2001 09 29  0240    52181    9600      0    5.83e+01    0    7.68e+00
2001 09 29  0245    52181    9900      0    5.94e+01    0    7.79e+00
2001 09 29  0250    52181   10200      0    5.95e+01    0    7.59e+00
2001 09 29  0255    52181   10500      0    5.85e+01    0    6.93e+00
2001 09 29  0300    52181   10800      0    5.67e+01    0    7.08e+00
2001 09 29  0305    52181   11100      0    5.74e+01    0    7.11e+00
2001 09 29  0310    52181   11400      0    5.75e+01    0    7.60e+00
2001 09 29  0315    52181   11700      0    5.72e+01    0    7.32e+00
2001 09 29  0320    52181   12000      0    5.69e+01    0    7.14e+00
2001 09 29  0325    52181   12300      0    5.68e+01    0    7.11e+00
2001 09 29  0330    52181   12600      0    5.65e+01    0    7.34e+00
2001 09 29  0335    52181   12900      0    5.52e+01    0    7.48e+00
2001 09 29  0340    52181   13200      0    5.49e+01    0    6.81e+00
2001 09 29  0345    52181   13500      0    5.58e+01    0    7.17e+00
2001 09 29  0350    52181   13800      0    5.53e+01    0    6.86e+00
2001 09 29  0355    52181   14100      0    5.37e+01    0    6.96e+00
2001 09 29  0400    52181   14400      0    5.28e+01    0    6.82e+00
2001 09 29  0405    52181   14700      0    5.49e+01    0    7.04e+00
2001 09 29  0410    52181   15000      0    5.39e+01    0    7.27e+00
2001 09 29  0415    52181   15300      0    5.35e+01    0    6.93e+00
2001 09 29  0420    52181   15600      0    5.40e+01    0    6.93e+00
2001 09 29  0425    52181   15900      0    5.28e+01    0    6.95e+00
2001 09 29  0430    52181   16200      0    5.38e+01    0    7.13e+00
2001 09 29  0435    52181   16500      0    5.27e+01    0    6.92e+00
2001 09 29  0440    52181   16800      0    5.26e+01    0    6.93e+00
2001 09 29  0445    52181   17100      0    5.20e+01    0    6.65e+00
2001 09 29  0450    52181   17400      0    5.32e+01    0    7.03e+00
2001 09 29  0455    52181   17700      0    5.34e+01    0    6.50e+00
2001 09 29  0500    52181   18000      0    5.34e+01    0    7.03e+00
2001 09 29  0505    52181   18300      0    5.22e+01    0    6.54e+00
2001 09 29  0510    52181   18600      0    5.15e+01    0    6.80e+00
2001 09 29  0515    52181   18900      0    5.16e+01    0    6.72e+00
2001 09 29  0520    52181   19200      0    5.09e+01    0    6.35e+00
2001 09 29  0525    52181   19500      0    5.14e+01    0    6.57e+00
2001 09 29  0530    52181   19800      0    5.11e+01    0    6.63e+00
2001 09 29  0535    52181   20100      0    5.08e+01    0    6.59e+00
2001 09 29  0540    52181   20400      0    5.09e+01    0    6.44e+00
2001 09 29  0545    52181   20700      0    5.03e+01    0    6.51e+00
2001 09 29  0550    52181   21000      0    5.22e+01    0    6.63e+00
2001 09 29  0555    52181   21300      0    5.10e+01    0    6.37e+00
2001 09 29  0600    52181   21600      0    5.09e+01    0    6.92e+00
2001 09 29  0605    52181   21900      0    5.11e+01    0    6.20e+00
2001 09 29  0610    52181   22200      0    5.20e+01    0    6.74e+00
2001 09 29  0615    52181   22500      0    5.03e+01    0    6.49e+00
2001 09 29  0620    52181   22800      0    5.10e+01    0    6.64e+00
2001 09 29  0625    52181   23100      0    5.22e+01    0    6.71e+00
2001 09 29  0630    52181   23400      0    5.23e+01    0    6.70e+00
2001 09 29  0635    52181   23700      0    4.99e+01    0    6.41e+00
2001 09 29  0640    52181   24000      0    5.05e+01    0    6.97e+00
2001 09 29  0645    52181   24300      0    5.11e+01    0    6.60e+00
2001 09 29  0650    52181   24600      0    5.15e+01    0    6.89e+00
2001 09 29  0655    52181   24900      0    5.06e+01    0    6.60e+00
2001 09 29  0700    52181   25200      0    5.00e+01    0    6.58e+00
2001 09 29  0705    52181   25500      0    5.06e+01    0    6.42e+00
2001 09 29  0710    52181   25800      0    5.07e+01    0    6.62e+00
2001 09 29  0715    52181   26100      0    5.03e+01    0    6.54e+00
2001 09 29  0720    52181   26400      0    5.00e+01    0    6.67e+00
2001 09 29  0725    52181   26700      0    5.01e+01    0    6.61e+00
2001 09 29  0730    52181   27000      0    5.11e+01    0    6.59e+00
2001 09 29  0735    52181   27300      0    5.17e+01    0    6.30e+00
2001 09 29  0740    52181   27600      0    4.97e+01    0    5.99e+00
2001 09 29  0745    52181   27900      0    5.35e+01    0    7.00e+00
2001 09 29  0750    52181   28200      0    5.88e+01    0    7.29e+00
2001 09 29  0755    52181   28500      0    5.27e+01    0    6.79e+00
2001 09 29  0800    52181   28800      0    5.06e+01    0    6.54e+00
2001 09 29  0805    52181   29100      0    4.98e+01    0    6.51e+00
2001 09 29  0810    52181   29400      0    5.57e+01    0    7.11e+00
2001 09 29  0815    52181   29700      0    5.15e+01    0    6.87e+00
2001 09 29  0820    52181   30000      0    5.07e+01    0    6.88e+00
2001 09 29  0825    52181   30300      0    4.97e+01    0    6.34e+00
2001 09 29  0830    52181   30600      0    4.92e+01    0    5.96e+00
2001 09 29  0835    52181   30900      0    4.90e+01    0    6.37e+00
2001 09 29  0840    52181   31200      0    4.92e+01    0    6.28e+00
2001 09 29  0845    52181   31500      0    4.91e+01    0    6.14e+00
2001 09 29  0850    52181   31800      0    4.83e+01    0    6.15e+00
2001 09 29  0855    52181   32100      0    4.87e+01    0    6.04e+00
2001 09 29  0900    52181   32400      0    4.86e+01    0    5.92e+00
2001 09 29  0905    52181   32700      0    4.89e+01    0    6.15e+00
2001 09 29  0910    52181   33000      0    4.79e+01    0    6.45e+00
2001 09 29  0915    52181   33300      0    4.64e+01    0    5.77e+00
2001 09 29  0920    52181   33600      0    4.55e+01    0    5.83e+00
2001 09 29  0925    52181   33900      0    4.49e+01    0    5.79e+00
2001 09 29  0930    52181   34200      0    4.52e+01    0    5.92e+00
2001 09 29  0935    52181   34500      0    4.32e+01    0    5.73e+00
2001 09 29  0940    52181   34800      0    5.11e+01    0    6.81e+00
2001 09 29  0945    52181   35100      0    4.72e+01    0    6.34e+00
2001 09 29  0950    52181   35400      0    4.78e+01    0    6.27e+00
2001 09 29  0955    52181   35700      0    4.24e+01    0    5.77e+00
2001 09 29  1000    52181   36000      0    4.31e+01    0    5.68e+00
2001 09 29  1005    52181   36300      0    4.22e+01    0    5.77e+00
2001 09 29  1010    52181   36600      0    4.10e+01    0    5.31e+00
2001 09 29  1015    52181   36900      0    4.00e+01    0    5.03e+00
2001 09 29  1020    52181   37200      0    3.95e+01    0    5.32e+00
2001 09 29  1025    52181   37500      0    3.86e+01    0    5.16e+00
2001 09 29  1030    52181   37800      0    3.85e+01    0    5.23e+00
2001 09 29  1035    52181   38100      0    3.76e+01    0    4.95e+00
2001 09 29  1040    52181   38400      0    3.72e+01    0    5.04e+00
2001 09 29  1045    52181   38700      0    3.80e+01    0    5.09e+00
2001 09 29  1050    52181   39000      0    3.80e+01    0    5.17e+00
2001 09 29  1055    52181   39300      0    3.73e+01    0    4.94e+00
2001 09 29  1100    52181   39600      0    3.59e+01    0    4.74e+00
2001 09 29  1105    52181   39900      0    3.48e+01    0    4.55e+00
2001 09 29  1110    52181   40200      0    3.43e+01    0    4.51e+00
2001 09 29  1115    52181   40500      0    3.53e+01    0    4.87e+00
2001 09 29  1120    52181   40800      0    3.68e+01    0    4.95e+00
2001 09 29  1125    52181   41100      0    3.94e+01    0    5.14e+00
2001 09 29  1130    52181   41400      0    3.97e+01    0    5.39e+00
2001 09 29  1135    52181   41700      0    3.81e+01    0    4.90e+00
2001 09 29  1140    52181   42000      0    3.54e+01    0    4.82e+00
2001 09 29  1145    52181   42300      0    3.23e+01    0    4.51e+00
2001 09 29  1150    52181   42600      0    3.28e+01    0    4.63e+00
2001 09 29  1155    52181   42900      0    3.14e+01    0    4.32e+00
2001 09 29  1200    52181   43200      0    3.21e+01    0    4.35e+00
2001 09 29  1205    52181   43500      0    3.20e+01    0    4.20e+00
2001 09 29  1210    52181   43800      0    3.19e+01    0    4.42e+00
2001 09 29  1215    52181   44100      0    3.14e+01    0    4.34e+00
2001 09 29  1220    52181   44400      0    3.05e+01    0    4.21e+00
2001 09 29  1225    52181   44700      0    2.91e+01    0    3.98e+00
2001 09 29  1230    52181   45000      0    2.64e+01    0    3.61e+00
2001 09 29  1235    52181   45300      0    2.62e+01    0    3.71e+00
2001 09 29  1240    52181   45600      0    2.52e+01    0    3.64e+00
2001 09 29  1245    52181   45900      0    2.47e+01    0    3.49e+00
2001 09 29  1250    52181   46200      0    2.50e+01    0    3.48e+00
2001 09 29  1255    52181   46500      0    2.52e+01    0    3.60e+00
2001 09 29  1300    52181   46800      0    2.74e+01    0    3.86e+00
2001 09 29  1305    52181   47100      0    2.53e+01    0    3.68e+00
2001 09 29  1310    52181   47400      0    2.53e+01    0    3.61e+00
2001 09 29  1315    52181   47700      0    2.42e+01    0    3.47e+00
2001 09 29  1320    52181   48000      0    2.42e+01    0    3.43e+00
2001 09 29  1325    52181   48300      0    2.44e+01    0    3.50e+00
2001 09 29  1330    52181   48600      0    2.55e+01    0    3.64e+00
2001 09 29  1335    52181   48900      0    2.62e+01    0    3.65e+00
2001 09 29  1340    52181   49200      0    2.83e+01    0    4.22e+00
2001 09 29  1345    52181   49500      0    2.66e+01    0    3.91e+00
2001 09 29  1350    52181   49800      0    2.61e+01    0    3.68e+00
2001 09 29  1355    52181   50100      0    2.60e+01    0    3.70e+00
2001 09 29  1400    52181   50400      0    2.58e+01    0    3.72e+00
2001 09 29  1405    52181   50700      0    2.53e+01    0    3.44e+00
2001 09 29  1410    52181   51000      0    2.15e+01    0    3.09e+00
2001 09 29  1415    52181   51300      0    2.54e+01    0    3.52e+00
2001 09 29  1420    52181   51600      0    2.54e+01    0    3.58e+00
2001 09 29  1425    52181   51900      0    2.64e+01    0    3.58e+00
2001 09 29  1430    52181   52200      0    2.59e+01    0    3.64e+00
2001 09 29  1435    52181   52500      0    2.59e+01    0    3.76e+00
2001 09 29  1440    52181   52800      0    2.62e+01    0    3.51e+00
2001 09 29  1445    52181   53100      0    2.59e+01    0    3.57e+00
2001 09 29  1450    52181   53400      0    2.83e+01    0    3.84e+00
2001 09 29  1455    52181   53700      0    2.79e+01    0    4.00e+00
2001 09 29  1500    52181   54000      0    2.64e+01    0    3.72e+00
2001 09 29  1505    52181   54300      0    2.58e+01    0    3.62e+00
2001 09 29  1510    52181   54600      0    2.55e+01    0    3.70e+00
2001 09 29  1515    52181   54900      0    2.52e+01    0    3.55e+00
2001 09 29  1520    52181   55200      0    2.48e+01    0    3.53e+00
2001 09 29  1525    52181   55500      0    2.43e+01    0    3.43e+00
2001 09 29  1530    52181   55800      0    2.45e+01    0    3.41e+00
2001 09 29  1535    52181   56100      0    2.43e+01    0    3.36e+00
2001 09 29  1540    52181   56400      0    2.42e+01    0    3.49e+00
2001 09 29  1545    52181   56700      0    2.47e+01    0    3.43e+00
2001 09 29  1550    52181   57000      0    2.49e+01    0    3.29e+00
2001 09 29  1555    52181   57300      0    2.48e+01    0    3.57e+00
2001 09 29  1600    52181   57600      0    2.63e+01    0    3.62e+00
2001 09 29  1605    52181   57900      0    2.42e+01    0    3.30e+00
2001 09 29  1610    52181   58200      0    2.35e+01    0    3.30e+00
2001 09 29  1615    52181   58500      0    2.23e+01    0    3.01e+00
2001 09 29  1620    52181   58800      0    2.28e+01    0    3.13e+00
2001 09 29  1625    52181   59100      0    2.32e+01    0    3.20e+00
2001 09 29  1630    52181   59400      0    2.33e+01    0    3.40e+00
2001 09 29  1635    52181   59700      0    2.22e+01    0    3.31e+00
2001 09 29  1640    52181   60000      0    2.23e+01    0    3.08e+00
2001 09 29  1645    52181   60300      0    2.19e+01    0    3.02e+00
2001 09 29  1650    52181   60600      0    2.24e+01    0    3.28e+00
2001 09 29  1655    52181   60900      0    2.24e+01    0    3.16e+00
2001 09 29  1700    52181   61200      0    2.24e+01    0    3.21e+00
2001 09 29  1705    52181   61500      0    2.20e+01    0    3.17e+00
2001 09 29  1710    52181   61800      0    2.16e+01    0    3.05e+00
2001 09 29  1715    52181   62100      0    2.22e+01    0    3.19e+00
2001 09 29  1720    52181   62400      0    2.15e+01    0    3.19e+00
2001 09 29  1725    52181   62700      0    2.16e+01    0    3.02e+00
2001 09 29  1730    52181   63000      0    2.58e+01    0    3.72e+00
2001 09 29  1735    52181   63300      0    2.29e+01    0    3.12e+00
2001 09 29  1740    52181   63600      0    2.19e+01    0    3.76e+00
2001 09 29  1745    52181   63900      0    2.13e+01    0    3.05e+00
2001 09 29  1750    52181   64200      0    2.17e+01    0    3.10e+00
2001 09 29  1755    52181   64500      0    2.13e+01    0    3.08e+00
2001 09 29  1800    52181   64800      0    2.15e+01    0    3.03e+00
2001 09 29  1805    52181   65100      0    2.12e+01    0    3.09e+00
2001 09 29  1810    52181   65400      0    2.11e+01    0    2.99e+00
2001 09 29  1815    52181   65700      0    2.20e+01    0    3.16e+00
2001 09 29  1820    52181   66000      0    2.09e+01    0    2.99e+00
2001 09 29  1825    52181   66300      0    2.07e+01    0    2.80e+00
2001 09 29  1830    52181   66600      0    2.03e+01    0    2.83e+00
2001 09 29  1835    52181   66900      0    2.08e+01    0    2.93e+00
2001 09 29  1840    52181   67200      0    2.06e+01    0    3.05e+00
2001 09 29  1845    52181   67500      0    2.05e+01    0    3.08e+00
2001 09 29  1850    52181   67800      0    2.04e+01    0    3.00e+00
2001 09 29  1855    52181   68100      0    2.05e+01    0    2.99e+00
2001 09 29  1900    52181   68400      0    2.02e+01    0    2.93e+00
2001 09 29  1905    52181   68700      0    2.05e+01    0    2.85e+00
2001 09 29  1910    52181   69000      0    2.07e+01    0    3.03e+00
2001 09 29  1915    52181   69300      0    2.06e+01    0    2.94e+00
2001 09 29  1920    52181   69600      0    2.12e+01    0    2.97e+00
2001 09 29  1925    52181   69900      0    2.12e+01    0    3.05e+00
2001 09 29  1930    52181   70200      0    2.07e+01    0    3.01e+00
2001 09 29  1935    52181   70500      0    2.07e+01    0    3.01e+00
2001 09 29  1940    52181   70800      0    2.01e+01    0    2.92e+00
2001 09 29  1945    52181   71100      0    1.97e+01    0    2.92e+00
2001 09 29  1950    52181   71400      0    1.97e+01    0    2.92e+00
2001 09 29  1955    52181   71700      0    2.04e+01    0    3.08e+00
2001 09 29  2000    52181   72000      0    2.00e+01    0    3.00e+00
2001 09 29  2005    52181   72300      0    2.01e+01    0    2.94e+00
2001 09 29  2010    52181   72600      0    1.87e+01    0    2.77e+00
2001 09 29  2015    52181   72900      0    1.90e+01    0    2.74e+00
2001 09 29  2020    52181   73200      0    1.93e+01    0    2.83e+00
2001 09 29  2025    52181   73500      0    1.94e+01    0    2.83e+00
2001 09 29  2030    52181   73800      0    1.98e+01    0    2.86e+00
2001 09 29  2035    52181   74100      0    1.96e+01    0    2.84e+00
2001 09 29  2040    52181   74400      0    1.92e+01    0    2.79e+00
2001 09 29  2045    52181   74700      0    1.93e+01    0    2.80e+00
2001 09 29  2050    52181   75000      0    1.94e+01    0    2.75e+00
2001 09 29  2055    52181   75300      0    1.99e+01    0    2.99e+00
2001 09 29  2100    52181   75600      0    1.95e+01    0    3.00e+00
2001 09 29  2105    52181   75900      0    2.05e+01    0    2.89e+00
2001 09 29  2110    52181   76200      0    1.96e+01    0    2.92e+00
2001 09 29  2115    52181   76500      0    1.97e+01    0    2.86e+00
2001 09 29  2120    52181   76800      0    1.91e+01    0    2.79e+00
2001 09 29  2125    52181   77100      0    1.93e+01    0    2.81e+00
2001 09 29  2130    52181   77400      0    1.90e+01    0    2.72e+00
2001 09 29  2135    52181   77700      0    1.83e+01    0    2.71e+00
2001 09 29  2140    52181   78000      0    1.82e+01    0    2.63e+00
2001 09 29  2145    52181   78300      0    1.81e+01    0    2.57e+00
2001 09 29  2150    52181   78600      0    1.77e+01    0    2.69e+00
2001 09 29  2155    52181   78900      0    1.73e+01    0    2.58e+00
2001 09 29  2200    52181   79200      0    1.77e+01    0    2.71e+00
2001 09 29  2205    52181   79500      0    1.79e+01    0    2.62e+00
2001 09 29  2210    52181   79800      0    1.68e+01    0    2.51e+00
2001 09 29  2215    52181   80100      0    1.70e+01    0    2.51e+00
2001 09 29  2220    52181   80400      0    1.70e+01    0    2.50e+00
2001 09 29  2225    52181   80700      0    1.68e+01    0    2.54e+00
2001 09 29  2230    52181   81000      0    1.65e+01    0    2.52e+00
2001 09 29  2235    52181   81300      0    1.71e+01    0    2.60e+00
2001 09 29  2240    52181   81600      0    1.70e+01    0    2.73e+00
2001 09 29  2245    52181   81900      0    1.62e+01    0    2.46e+00
2001 09 29  2250    52181   82200      0    1.59e+01    0    2.36e+00
2001 09 29  2255    52181   82500      0    1.65e+01    0    2.54e+00
2001 09 29  2300    52181   82800      0    1.69e+01    0    2.64e+00
2001 09 29  2305    52181   83100      0    1.85e+01    0    2.80e+00
2001 09 29  2310    52181   83400      0    1.68e+01    0    2.57e+00
2001 09 29  2315    52181   83700      0    1.61e+01    0    2.42e+00
2001 09 29  2320    52181   84000      0    1.66e+01    0    2.47e+00
2001 09 29  2325    52181   84300      0    1.63e+01    0    2.46e+00
2001 09 29  2330    52181   84600      0    1.66e+01    0    2.56e+00
2001 09 29  2335    52181   84900      0    1.63e+01    0    2.38e+00
2001 09 29  2340    52181   85200      0    1.63e+01    0    2.60e+00
2001 09 29  2345    52181   85500      0    1.69e+01    0    2.56e+00
2001 09 29  2350    52181   85800      0    1.66e+01    0    2.59e+00
2001 09 29  2355    52181   86100      0    1.64e+01    0    2.61e+00
