:Data_list: 20011125_ace_sis_5m.txt
:Created: 2001 Nov 26 0011 UT
# Prepared by the U.S. Dept. of Commerce, NOAA, Space Environment Center.
# Please send comments and suggestions to sec@sec.noaa.gov 
# 
# Units: proton flux p/cs2-sec-ster
# Status(S): 0 = nominal data, 1 to 8 = bad data record, 9 = no data
# Missing data values: -1.00e+05
# Source: ACE Satellite - Solar Isotope Spectrometer
#
# 5-minute averaged Real-time Integral Flux of High-energy Solar Protons
# 
#                 Modified Seconds
# UT Date   Time   Julian  of the      ---- Integral Proton Flux ----
# YR MO DA  HHMM     Day     Day       S    > 10 MeV    S    > 30 MeV
#--------------------------------------------------------------------
2001 11 25  0000    52238       0      0    2.27e+02    0    1.43e+01
2001 11 25  0005    52238     300      0    2.22e+02    0    1.49e+01
2001 11 25  0010    52238     600      0    2.23e+02    0    1.41e+01
2001 11 25  0015    52238     900      0    2.26e+02    0    1.33e+01
2001 11 25  0020    52238    1200      0    2.25e+02    0    1.55e+01
2001 11 25  0025    52238    1500      0    2.26e+02    0    1.52e+01
2001 11 25  0030    52238    1800      0    2.13e+02    0    1.33e+01
2001 11 25  0035    52238    2100      0    2.15e+02    0    1.33e+01
2001 11 25  0040    52238    2400      0    2.08e+02    0    1.25e+01
2001 11 25  0045    52238    2700      0    1.98e+02    0    1.24e+01
2001 11 25  0050    52238    3000      0    2.01e+02    0    1.19e+01
2001 11 25  0055    52238    3300      0    2.10e+02    0    1.22e+01
2001 11 25  0100    52238    3600      0    2.04e+02    0    1.32e+01
2001 11 25  0105    52238    3900      0    2.03e+02    0    1.25e+01
2001 11 25  0110    52238    4200      0    1.96e+02    0    1.25e+01
2001 11 25  0115    52238    4500      0    1.86e+02    0    1.13e+01
2001 11 25  0120    52238    4800      0    1.85e+02    0    1.22e+01
2001 11 25  0125    52238    5100      0    1.80e+02    0    1.05e+01
2001 11 25  0130    52238    5400      0    1.79e+02    0    1.09e+01
2001 11 25  0135    52238    5700      0    1.69e+02    0    1.08e+01
2001 11 25  0140    52238    6000      0    1.67e+02    0    9.85e+00
2001 11 25  0145    52238    6300      0    1.67e+02    0    1.00e+01
2001 11 25  0150    52238    6600      0    1.71e+02    0    1.10e+01
2001 11 25  0155    52238    6900      0    1.67e+02    0    1.05e+01
2001 11 25  0200    52238    7200      0    1.70e+02    0    9.94e+00
2001 11 25  0205    52238    7500      0    1.66e+02    0    9.91e+00
2001 11 25  0210    52238    7800      0    1.69e+02    0    9.60e+00
2001 11 25  0215    52238    8100      0    1.62e+02    0    9.86e+00
2001 11 25  0220    52238    8400      0    1.65e+02    0    9.27e+00
2001 11 25  0225    52238    8700      0    1.68e+02    0    9.31e+00
2001 11 25  0230    52238    9000      0    1.87e+02    0    1.07e+01
2001 11 25  0235    52238    9300      0    1.99e+02    0    1.14e+01
2001 11 25  0240    52238    9600      0    2.00e+02    0    1.17e+01
2001 11 25  0245    52238    9900      0    2.00e+02    0    1.12e+01
2001 11 25  0250    52238   10200      0    1.97e+02    0    1.20e+01
2001 11 25  0255    52238   10500      0    1.98e+02    0    1.05e+01
2001 11 25  0300    52238   10800      0    1.94e+02    0    1.16e+01
2001 11 25  0305    52238   11100      0    1.93e+02    0    1.18e+01
2001 11 25  0310    52238   11400      0    1.91e+02    0    9.84e+00
2001 11 25  0315    52238   11700      0    1.86e+02    0    1.03e+01
2001 11 25  0320    52238   12000      0    1.59e+02    0    9.25e+00
2001 11 25  0325    52238   12300      0    1.59e+02    0    8.72e+00
2001 11 25  0330    52238   12600      0    1.61e+02    0    8.41e+00
2001 11 25  0335    52238   12900      0    1.59e+02    0    8.55e+00
2001 11 25  0340    52238   13200      0    1.51e+02    0    8.89e+00
2001 11 25  0345    52238   13500      0    1.47e+02    0    7.50e+00
2001 11 25  0350    52238   13800      0    1.44e+02    0    7.49e+00
2001 11 25  0355    52238   14100      0    1.43e+02    0    8.00e+00
2001 11 25  0400    52238   14400      0    1.36e+02    0    7.26e+00
2001 11 25  0405    52238   14700      0    1.38e+02    0    7.48e+00
2001 11 25  0410    52238   15000      0    1.48e+02    0    7.29e+00
2001 11 25  0415    52238   15300      0    1.58e+02    0    8.53e+00
2001 11 25  0420    52238   15600      0    1.57e+02    0    8.77e+00
2001 11 25  0425    52238   15900      0    1.56e+02    0    8.21e+00
2001 11 25  0430    52238   16200      0    1.49e+02    0    7.93e+00
2001 11 25  0435    52238   16500      0    1.53e+02    0    8.64e+00
2001 11 25  0440    52238   16800      0    1.51e+02    0    7.51e+00
2001 11 25  0445    52238   17100      0    1.53e+02    0    7.55e+00
2001 11 25  0450    52238   17400      0    1.55e+02    0    7.96e+00
2001 11 25  0455    52238   17700      0    1.47e+02    0    6.95e+00
2001 11 25  0500    52238   18000      0    1.48e+02    0    8.09e+00
2001 11 25  0505    52238   18300      0    1.50e+02    0    7.87e+00
2001 11 25  0510    52238   18600      0    1.45e+02    0    7.65e+00
2001 11 25  0515    52238   18900      0    1.42e+02    0    7.14e+00
2001 11 25  0520    52238   19200      0    1.33e+02    0    6.85e+00
2001 11 25  0525    52238   19500      0    1.22e+02    0    6.38e+00
2001 11 25  0530    52238   19800      0    1.17e+02    0    6.31e+00
2001 11 25  0535    52238   20100      0    1.12e+02    0    6.06e+00
2001 11 25  0540    52238   20400      0    1.10e+02    0    5.25e+00
2001 11 25  0545    52238   20700      0    1.13e+02    0    5.67e+00
2001 11 25  0550    52238   21000      0    1.18e+02    0    5.67e+00
2001 11 25  0555    52238   21300      0    1.16e+02    0    5.92e+00
2001 11 25  0600    52238   21600      0    1.13e+02    0    5.83e+00
2001 11 25  0605    52238   21900      0    1.15e+02    0    5.76e+00
2001 11 25  0610    52238   22200      0    1.23e+02    0    6.62e+00
2001 11 25  0615    52238   22500      0    1.24e+02    0    6.32e+00
2001 11 25  0620    52238   22800      0    1.24e+02    0    6.23e+00
2001 11 25  0625    52238   23100      0    1.20e+02    0    5.78e+00
2001 11 25  0630    52238   23400      0    1.22e+02    0    5.70e+00
2001 11 25  0635    52238   23700      0    1.22e+02    0    5.84e+00
2001 11 25  0640    52238   24000      0    1.16e+02    0    5.61e+00
2001 11 25  0645    52238   24300      0    1.11e+02    0    5.37e+00
2001 11 25  0650    52238   24600      0    1.10e+02    0    5.59e+00
2001 11 25  0655    52238   24900      0    1.09e+02    0    5.32e+00
2001 11 25  0700    52238   25200      0    1.08e+02    0    4.85e+00
2001 11 25  0705    52238   25500      0    1.08e+02    0    5.53e+00
2001 11 25  0710    52238   25800      0    1.04e+02    0    4.89e+00
2001 11 25  0715    52238   26100      0    1.05e+02    0    5.02e+00
2001 11 25  0720    52238   26400      0    1.11e+02    0    5.49e+00
2001 11 25  0725    52238   26700      0    1.08e+02    0    4.44e+00
2001 11 25  0730    52238   27000      0    1.11e+02    0    5.56e+00
2001 11 25  0735    52238   27300      0    1.09e+02    0    5.22e+00
2001 11 25  0740    52238   27600      0    1.09e+02    0    5.22e+00
2001 11 25  0745    52238   27900      0    1.05e+02    0    4.83e+00
2001 11 25  0750    52238   28200      0    1.10e+02    0    4.80e+00
2001 11 25  0755    52238   28500      0    1.36e+02    0    6.64e+00
2001 11 25  0800    52238   28800      0    1.43e+02    0    5.67e+00
2001 11 25  0805    52238   29100      0    1.36e+02    0    6.07e+00
2001 11 25  0810    52238   29400      0    1.34e+02    0    5.85e+00
2001 11 25  0815    52238   29700      0    1.34e+02    0    6.28e+00
2001 11 25  0820    52238   30000      0    1.33e+02    0    6.15e+00
2001 11 25  0825    52238   30300      0    1.51e+02    0    6.25e+00
2001 11 25  0830    52238   30600      0    1.44e+02    0    6.52e+00
2001 11 25  0835    52238   30900      0    1.23e+02    0    5.54e+00
2001 11 25  0840    52238   31200      0    1.17e+02    0    5.80e+00
2001 11 25  0845    52238   31500      0    1.17e+02    0    5.42e+00
2001 11 25  0850    52238   31800      0    1.20e+02    0    5.12e+00
2001 11 25  0855    52238   32100      0    1.18e+02    0    5.05e+00
2001 11 25  0900    52238   32400      0    1.16e+02    0    5.11e+00
2001 11 25  0905    52238   32700      0    1.17e+02    0    5.52e+00
2001 11 25  0910    52238   33000      0    1.11e+02    0    4.95e+00
2001 11 25  0915    52238   33300      0    1.13e+02    0    5.34e+00
2001 11 25  0920    52238   33600      0    1.15e+02    0    5.65e+00
2001 11 25  0925    52238   33900      0    1.09e+02    0    5.50e+00
2001 11 25  0930    52238   34200      0    1.07e+02    0    5.61e+00
2001 11 25  0935    52238   34500      0    1.08e+02    0    6.17e+00
2001 11 25  0940    52238   34800      0    1.10e+02    0    5.64e+00
2001 11 25  0945    52238   35100      0    1.11e+02    0    6.24e+00
2001 11 25  0950    52238   35400      0    1.16e+02    0    5.87e+00
2001 11 25  0955    52238   35700      0    1.19e+02    0    5.54e+00
2001 11 25  1000    52238   36000      0    1.22e+02    0    5.91e+00
2001 11 25  1005    52238   36300      0    1.11e+02    0    5.29e+00
2001 11 25  1010    52238   36600      0    1.10e+02    0    5.57e+00
2001 11 25  1015    52238   36900      0    1.17e+02    0    5.61e+00
2001 11 25  1020    52238   37200      0    1.15e+02    0    5.72e+00
2001 11 25  1025    52238   37500      0    1.18e+02    0    5.91e+00
2001 11 25  1030    52238   37800      0    1.22e+02    0    5.62e+00
2001 11 25  1035    52238   38100      0    1.18e+02    0    5.80e+00
2001 11 25  1040    52238   38400      0    1.20e+02    0    5.27e+00
2001 11 25  1045    52238   38700      0    1.18e+02    0    5.80e+00
2001 11 25  1050    52238   39000      0    1.20e+02    0    5.57e+00
2001 11 25  1055    52238   39300      0    1.16e+02    0    6.00e+00
2001 11 25  1100    52238   39600      0    1.21e+02    0    6.04e+00
2001 11 25  1105    52238   39900      0    1.19e+02    0    6.02e+00
2001 11 25  1110    52238   40200      0    1.17e+02    0    5.83e+00
2001 11 25  1115    52238   40500      0    1.13e+02    0    5.05e+00
2001 11 25  1120    52238   40800      0    1.08e+02    0    5.00e+00
2001 11 25  1125    52238   41100      0    1.07e+02    0    5.00e+00
2001 11 25  1130    52238   41400      0    1.06e+02    0    5.28e+00
2001 11 25  1135    52238   41700      0    1.05e+02    0    5.35e+00
2001 11 25  1140    52238   42000      0    1.02e+02    0    4.90e+00
2001 11 25  1145    52238   42300      0    9.98e+01    0    4.49e+00
2001 11 25  1150    52238   42600      0    1.02e+02    0    4.89e+00
2001 11 25  1155    52238   42900      0    9.89e+01    0    4.42e+00
2001 11 25  1200    52238   43200      0    9.74e+01    0    4.58e+00
2001 11 25  1205    52238   43500      0    9.84e+01    0    4.78e+00
2001 11 25  1210    52238   43800      0    9.61e+01    0    4.46e+00
2001 11 25  1215    52238   44100      0    9.73e+01    0    4.49e+00
2001 11 25  1220    52238   44400      0    9.63e+01    0    5.22e+00
2001 11 25  1225    52238   44700      0    9.10e+01    0    4.12e+00
2001 11 25  1230    52238   45000      0    7.80e+01    0    3.72e+00
2001 11 25  1235    52238   45300      0    7.66e+01    0    3.43e+00
2001 11 25  1240    52238   45600      0    7.36e+01    0    3.52e+00
2001 11 25  1245    52238   45900      0    7.58e+01    0    2.95e+00
2001 11 25  1250    52238   46200      0    7.53e+01    0    3.53e+00
2001 11 25  1255    52238   46500      0    7.46e+01    0    3.46e+00
2001 11 25  1300    52238   46800      0    7.45e+01    0    3.16e+00
2001 11 25  1305    52238   47100      0    7.32e+01    0    3.49e+00
2001 11 25  1310    52238   47400      0    7.00e+01    0    3.33e+00
2001 11 25  1315    52238   47700      0    7.04e+01    0    3.03e+00
2001 11 25  1320    52238   48000      0    7.04e+01    0    3.58e+00
2001 11 25  1325    52238   48300      0    6.99e+01    0    3.09e+00
2001 11 25  1330    52238   48600      0    7.12e+01    0    3.61e+00
2001 11 25  1335    52238   48900      0    7.12e+01    0    3.87e+00
2001 11 25  1340    52238   49200      0    7.30e+01    0    3.47e+00
2001 11 25  1345    52238   49500      0    7.09e+01    0    3.34e+00
2001 11 25  1350    52238   49800      0    6.90e+01    0    3.16e+00
2001 11 25  1355    52238   50100      0    7.10e+01    0    3.97e+00
2001 11 25  1400    52238   50400      0    7.20e+01    0    3.40e+00
2001 11 25  1405    52238   50700      0    6.72e+01    0    3.25e+00
2001 11 25  1410    52238   51000      0    6.67e+01    0    3.52e+00
2001 11 25  1415    52238   51300      0    6.53e+01    0    3.27e+00
2001 11 25  1420    52238   51600      0    6.41e+01    0    2.98e+00
2001 11 25  1425    52238   51900      0    6.33e+01    0    2.84e+00
2001 11 25  1430    52238   52200      0    6.16e+01    0    2.88e+00
2001 11 25  1435    52238   52500      0    6.21e+01    0    2.76e+00
2001 11 25  1440    52238   52800      0    6.25e+01    0    2.91e+00
2001 11 25  1445    52238   53100      0    6.04e+01    0    2.84e+00
2001 11 25  1450    52238   53400      0    5.98e+01    0    2.83e+00
2001 11 25  1455    52238   53700      0    6.23e+01    0    2.99e+00
2001 11 25  1500    52238   54000      0    5.95e+01    0    2.91e+00
2001 11 25  1505    52238   54300      0    6.21e+01    0    3.25e+00
2001 11 25  1510    52238   54600      0    6.02e+01    0    3.04e+00
2001 11 25  1515    52238   54900      0    6.06e+01    0    3.13e+00
2001 11 25  1520    52238   55200      0    5.74e+01    0    2.93e+00
2001 11 25  1525    52238   55500      0    5.61e+01    0    2.74e+00
2001 11 25  1530    52238   55800      0    5.58e+01    0    2.86e+00
2001 11 25  1535    52238   56100      0    5.90e+01    0    2.64e+00
2001 11 25  1540    52238   56400      0    5.73e+01    0    2.84e+00
2001 11 25  1545    52238   56700      0    5.66e+01    0    2.78e+00
2001 11 25  1550    52238   57000      0    5.70e+01    0    2.77e+00
2001 11 25  1555    52238   57300      0    5.84e+01    0    3.06e+00
2001 11 25  1600    52238   57600      0    5.60e+01    0    2.62e+00
2001 11 25  1605    52238   57900      0    5.58e+01    0    2.90e+00
2001 11 25  1610    52238   58200      0    5.76e+01    0    3.37e+00
2001 11 25  1615    52238   58500      9   -1.00e+05    9   -1.00e+05
2001 11 25  1620    52238   58800      9   -1.00e+05    9   -1.00e+05
2001 11 25  1625    52238   59100      0    5.74e+01    0    2.74e+00
2001 11 25  1630    52238   59400      0    5.43e+01    0    2.80e+00
2001 11 25  1635    52238   59700      0    5.60e+01    0    2.46e+00
2001 11 25  1640    52238   60000      0    5.40e+01    0    2.73e+00
2001 11 25  1645    52238   60300      0    5.53e+01    0    2.96e+00
2001 11 25  1650    52238   60600      0    5.08e+01    0    2.64e+00
2001 11 25  1655    52238   60900      0    4.90e+01    0    2.76e+00
2001 11 25  1700    52238   61200      0    4.95e+01    0    2.32e+00
2001 11 25  1705    52238   61500      0    5.24e+01    0    2.60e+00
2001 11 25  1710    52238   61800      0    5.11e+01    0    2.71e+00
2001 11 25  1715    52238   62100      0    4.91e+01    0    2.34e+00
2001 11 25  1720    52238   62400      0    5.00e+01    0    2.46e+00
2001 11 25  1725    52238   62700      0    4.99e+01    0    2.32e+00
2001 11 25  1730    52238   63000      0    5.22e+01    0    2.71e+00
2001 11 25  1735    52238   63300      0    5.37e+01    0    2.88e+00
2001 11 25  1740    52238   63600      0    5.11e+01    0    2.42e+00
2001 11 25  1745    52238   63900      0    5.39e+01    0    2.78e+00
2001 11 25  1750    52238   64200      0    4.88e+01    0    2.82e+00
2001 11 25  1755    52238   64500      0    4.50e+01    0    2.26e+00
2001 11 25  1800    52238   64800      0    4.56e+01    0    2.42e+00
2001 11 25  1805    52238   65100      0    4.40e+01    0    2.38e+00
2001 11 25  1810    52238   65400      0    4.25e+01    0    2.42e+00
2001 11 25  1815    52238   65700      0    4.19e+01    0    2.21e+00
2001 11 25  1820    52238   66000      0    4.14e+01    0    2.12e+00
2001 11 25  1825    52238   66300      0    4.14e+01    0    2.14e+00
2001 11 25  1830    52238   66600      0    4.17e+01    0    2.17e+00
2001 11 25  1835    52238   66900      0    4.18e+01    0    2.29e+00
2001 11 25  1840    52238   67200      0    4.26e+01    0    2.20e+00
2001 11 25  1845    52238   67500      0    4.22e+01    0    2.26e+00
2001 11 25  1850    52238   67800      0    4.16e+01    0    2.37e+00
2001 11 25  1855    52238   68100      0    3.98e+01    0    2.27e+00
2001 11 25  1900    52238   68400      0    3.97e+01    0    2.08e+00
2001 11 25  1905    52238   68700      0    3.95e+01    0    2.16e+00
2001 11 25  1910    52238   69000      0    4.16e+01    0    2.28e+00
2001 11 25  1915    52238   69300      0    4.24e+01    0    2.28e+00
2001 11 25  1920    52238   69600      0    4.20e+01    0    2.47e+00
2001 11 25  1925    52238   69900      0    4.29e+01    0    2.47e+00
2001 11 25  1930    52238   70200      0    4.14e+01    0    2.32e+00
2001 11 25  1935    52238   70500      0    4.25e+01    0    2.45e+00
2001 11 25  1940    52238   70800      0    4.22e+01    0    2.46e+00
2001 11 25  1945    52238   71100      0    4.09e+01    0    2.20e+00
2001 11 25  1950    52238   71400      0    3.97e+01    0    2.25e+00
2001 11 25  1955    52238   71700      0    3.93e+01    0    2.26e+00
2001 11 25  2000    52238   72000      0    4.08e+01    0    2.34e+00
2001 11 25  2005    52238   72300      0    4.04e+01    0    2.33e+00
2001 11 25  2010    52238   72600      0    3.93e+01    0    2.29e+00
2001 11 25  2015    52238   72900      0    3.91e+01    0    2.26e+00
2001 11 25  2020    52238   73200      0    3.93e+01    0    2.10e+00
2001 11 25  2025    52238   73500      0    3.84e+01    0    2.38e+00
2001 11 25  2030    52238   73800      0    3.79e+01    0    2.33e+00
2001 11 25  2035    52238   74100      0    3.76e+01    0    2.14e+00
2001 11 25  2040    52238   74400      0    3.74e+01    0    2.12e+00
2001 11 25  2045    52238   74700      0    3.72e+01    0    2.04e+00
2001 11 25  2050    52238   75000      0    3.74e+01    0    2.23e+00
2001 11 25  2055    52238   75300      0    3.82e+01    0    2.37e+00
2001 11 25  2100    52238   75600      0    3.85e+01    0    2.37e+00
2001 11 25  2105    52238   75900      0    4.03e+01    0    2.58e+00
2001 11 25  2110    52238   76200      0    3.92e+01    0    2.33e+00
2001 11 25  2115    52238   76500      0    3.90e+01    0    2.41e+00
2001 11 25  2120    52238   76800      0    4.13e+01    0    2.72e+00
2001 11 25  2125    52238   77100      0    3.99e+01    0    2.51e+00
2001 11 25  2130    52238   77400      0    3.98e+01    0    2.41e+00
2001 11 25  2135    52238   77700      0    4.09e+01    0    2.89e+00
2001 11 25  2140    52238   78000      0    4.07e+01    0    2.30e+00
2001 11 25  2145    52238   78300      0    4.14e+01    0    2.70e+00
2001 11 25  2150    52238   78600      0    4.13e+01    0    2.80e+00
2001 11 25  2155    52238   78900      0    4.07e+01    0    2.75e+00
2001 11 25  2200    52238   79200      0    4.13e+01    0    2.52e+00
2001 11 25  2205    52238   79500      0    4.35e+01    0    2.85e+00
2001 11 25  2210    52238   79800      0    4.21e+01    0    2.64e+00
2001 11 25  2215    52238   80100      0    4.25e+01    0    2.79e+00
2001 11 25  2220    52238   80400      0    4.07e+01    0    2.63e+00
2001 11 25  2225    52238   80700      0    4.04e+01    0    2.47e+00
2001 11 25  2230    52238   81000      0    3.95e+01    0    2.50e+00
2001 11 25  2235    52238   81300      0    4.02e+01    0    2.74e+00
2001 11 25  2240    52238   81600      0    4.20e+01    0    2.50e+00
2001 11 25  2245    52238   81900      0    3.96e+01    0    2.46e+00
2001 11 25  2250    52238   82200      0    3.85e+01    0    2.60e+00
2001 11 25  2255    52238   82500      0    3.90e+01    0    2.40e+00
2001 11 25  2300    52238   82800      0    3.93e+01    0    2.72e+00
2001 11 25  2305    52238   83100      0    3.92e+01    0    2.55e+00
2001 11 25  2310    52238   83400      0    4.00e+01    0    2.63e+00
2001 11 25  2315    52238   83700      0    4.17e+01    0    2.68e+00
2001 11 25  2320    52238   84000      0    3.95e+01    0    2.62e+00
2001 11 25  2325    52238   84300      0    3.98e+01    0    2.83e+00
2001 11 25  2330    52238   84600      0    3.91e+01    0    2.65e+00
2001 11 25  2335    52238   84900      0    3.98e+01    0    2.77e+00
2001 11 25  2340    52238   85200      0    3.89e+01    0    2.55e+00
2001 11 25  2345    52238   85500      0    3.86e+01    0    2.82e+00
2001 11 25  2350    52238   85800      0    3.83e+01    0    2.80e+00
2001 11 25  2355    52238   86100      0    3.87e+01    0    2.84e+00
