:Data_list: 20011231_ace_sis_5m.txt
:Created: 2002 Jan 01 0011 UT
# Prepared by the U.S. Dept. of Commerce, NOAA, Space Environment Center.
# Please send comments and suggestions to sec@sec.noaa.gov 
# 
# Units: proton flux p/cs2-sec-ster
# Status(S): 0 = nominal data, 1 to 8 = bad data record, 9 = no data
# Missing data values: -1.00e+05
# Source: ACE Satellite - Solar Isotope Spectrometer
#
# 5-minute averaged Real-time Integral Flux of High-energy Solar Protons
# 
#                 Modified Seconds
# UT Date   Time   Julian  of the      ---- Integral Proton Flux ----
# YR MO DA  HHMM     Day     Day       S    > 10 MeV    S    > 30 MeV
#--------------------------------------------------------------------
2001 12 31  0000    52274       0      0    2.58e+01    0    3.00e+00
2001 12 31  0005    52274     300      0    2.63e+01    0    3.15e+00
2001 12 31  0010    52274     600      0    2.46e+01    0    2.85e+00
2001 12 31  0015    52274     900      0    2.46e+01    0    2.96e+00
2001 12 31  0020    52274    1200      0    2.42e+01    0    2.98e+00
2001 12 31  0025    52274    1500      0    2.43e+01    0    2.80e+00
2001 12 31  0030    52274    1800      0    2.43e+01    0    2.90e+00
2001 12 31  0035    52274    2100      0    2.40e+01    0    2.74e+00
2001 12 31  0040    52274    2400      0    2.42e+01    0    2.78e+00
2001 12 31  0045    52274    2700      0    2.64e+01    0    3.07e+00
2001 12 31  0050    52274    3000      0    2.61e+01    0    3.10e+00
2001 12 31  0055    52274    3300      0    2.70e+01    0    3.07e+00
2001 12 31  0100    52274    3600      0    2.43e+01    0    2.76e+00
2001 12 31  0105    52274    3900      0    2.38e+01    0    2.87e+00
2001 12 31  0110    52274    4200      0    2.42e+01    0    2.95e+00
2001 12 31  0115    52274    4500      0    2.40e+01    0    2.83e+00
2001 12 31  0120    52274    4800      0    2.42e+01    0    2.92e+00
2001 12 31  0125    52274    5100      0    2.55e+01    0    2.83e+00
2001 12 31  0130    52274    5400      0    2.70e+01    0    2.91e+00
2001 12 31  0135    52274    5700      0    2.84e+01    0    3.08e+00
2001 12 31  0140    52274    6000      0    2.82e+01    0    3.05e+00
2001 12 31  0145    52274    6300      0    2.85e+01    0    3.16e+00
2001 12 31  0150    52274    6600      0    3.07e+01    0    3.31e+00
2001 12 31  0155    52274    6900      0    2.87e+01    0    3.19e+00
2001 12 31  0200    52274    7200      0    2.63e+01    0    2.90e+00
2001 12 31  0205    52274    7500      0    2.59e+01    0    2.80e+00
2001 12 31  0210    52274    7800      0    2.81e+01    0    2.99e+00
2001 12 31  0215    52274    8100      0    2.85e+01    0    3.06e+00
2001 12 31  0220    52274    8400      0    2.99e+01    0    2.92e+00
2001 12 31  0225    52274    8700      0    3.08e+01    0    3.18e+00
2001 12 31  0230    52274    9000      0    3.14e+01    0    3.31e+00
2001 12 31  0235    52274    9300      0    3.16e+01    0    3.20e+00
2001 12 31  0240    52274    9600      0    3.26e+01    0    3.18e+00
2001 12 31  0245    52274    9900      0    3.39e+01    0    3.37e+00
2001 12 31  0250    52274   10200      0    3.24e+01    0    3.26e+00
2001 12 31  0255    52274   10500      0    3.19e+01    0    3.16e+00
2001 12 31  0300    52274   10800      0    3.18e+01    0    3.29e+00
2001 12 31  0305    52274   11100      0    3.19e+01    0    3.25e+00
2001 12 31  0310    52274   11400      0    3.39e+01    0    3.33e+00
2001 12 31  0315    52274   11700      0    3.35e+01    0    3.22e+00
2001 12 31  0320    52274   12000      0    3.36e+01    0    3.33e+00
2001 12 31  0325    52274   12300      0    3.23e+01    0    3.15e+00
2001 12 31  0330    52274   12600      0    3.27e+01    0    3.24e+00
2001 12 31  0335    52274   12900      0    3.38e+01    0    3.30e+00
2001 12 31  0340    52274   13200      0    3.40e+01    0    3.24e+00
2001 12 31  0345    52274   13500      0    3.40e+01    0    3.43e+00
2001 12 31  0350    52274   13800      0    3.53e+01    0    3.18e+00
2001 12 31  0355    52274   14100      0    3.55e+01    0    3.34e+00
2001 12 31  0400    52274   14400      0    3.42e+01    0    3.29e+00
2001 12 31  0405    52274   14700      0    3.41e+01    0    3.18e+00
2001 12 31  0410    52274   15000      0    3.44e+01    0    3.15e+00
2001 12 31  0415    52274   15300      0    3.61e+01    0    3.27e+00
2001 12 31  0420    52274   15600      0    3.71e+01    0    3.28e+00
2001 12 31  0425    52274   15900      0    3.95e+01    0    3.74e+00
2001 12 31  0430    52274   16200      0    4.63e+01    0    3.92e+00
2001 12 31  0435    52274   16500      0    4.08e+01    0    3.62e+00
2001 12 31  0440    52274   16800      0    4.63e+01    0    4.32e+00
2001 12 31  0445    52274   17100      0    5.10e+01    0    4.31e+00
2001 12 31  0450    52274   17400      0    4.32e+01    0    3.89e+00
2001 12 31  0455    52274   17700      0    4.41e+01    0    3.95e+00
2001 12 31  0500    52274   18000      0    4.05e+01    0    3.75e+00
2001 12 31  0505    52274   18300      0    4.27e+01    0    3.78e+00
2001 12 31  0510    52274   18600      0    4.54e+01    0    3.96e+00
2001 12 31  0515    52274   18900      0    4.66e+01    0    4.03e+00
2001 12 31  0520    52274   19200      0    4.49e+01    0    3.91e+00
2001 12 31  0525    52274   19500      0    4.64e+01    0    4.03e+00
2001 12 31  0530    52274   19800      0    4.63e+01    0    4.10e+00
2001 12 31  0535    52274   20100      0    4.50e+01    0    3.90e+00
2001 12 31  0540    52274   20400      0    4.44e+01    0    3.85e+00
2001 12 31  0545    52274   20700      0    4.51e+01    0    4.15e+00
2001 12 31  0550    52274   21000      0    4.43e+01    0    3.88e+00
2001 12 31  0555    52274   21300      0    4.56e+01    0    3.89e+00
2001 12 31  0600    52274   21600      0    4.92e+01    0    3.69e+00
2001 12 31  0605    52274   21900      0    5.30e+01    0    4.22e+00
2001 12 31  0610    52274   22200      0    5.35e+01    0    4.40e+00
2001 12 31  0615    52274   22500      0    5.33e+01    0    4.52e+00
2001 12 31  0620    52274   22800      0    5.35e+01    0    4.39e+00
2001 12 31  0625    52274   23100      0    5.28e+01    0    4.38e+00
2001 12 31  0630    52274   23400      0    5.08e+01    0    4.25e+00
2001 12 31  0635    52274   23700      0    5.05e+01    0    4.39e+00
2001 12 31  0640    52274   24000      0    4.99e+01    0    4.24e+00
2001 12 31  0645    52274   24300      0    5.05e+01    0    3.87e+00
2001 12 31  0650    52274   24600      0    5.17e+01    0    4.36e+00
2001 12 31  0655    52274   24900      0    5.28e+01    0    4.38e+00
2001 12 31  0700    52274   25200      0    5.22e+01    0    4.24e+00
2001 12 31  0705    52274   25500      0    4.84e+01    0    4.10e+00
2001 12 31  0710    52274   25800      0    4.85e+01    0    3.88e+00
2001 12 31  0715    52274   26100      0    4.64e+01    0    3.81e+00
2001 12 31  0720    52274   26400      0    4.47e+01    0    3.73e+00
2001 12 31  0725    52274   26700      0    4.72e+01    0    3.92e+00
2001 12 31  0730    52274   27000      0    5.18e+01    0    4.12e+00
2001 12 31  0735    52274   27300      0    5.38e+01    0    4.29e+00
2001 12 31  0740    52274   27600      0    5.33e+01    0    4.22e+00
2001 12 31  0745    52274   27900      0    5.06e+01    0    4.18e+00
2001 12 31  0750    52274   28200      0    5.16e+01    0    4.07e+00
2001 12 31  0755    52274   28500      0    5.04e+01    0    3.87e+00
2001 12 31  0800    52274   28800      0    4.83e+01    0    4.04e+00
2001 12 31  0805    52274   29100      0    4.60e+01    0    3.83e+00
2001 12 31  0810    52274   29400      0    4.79e+01    0    3.91e+00
2001 12 31  0815    52274   29700      0    4.49e+01    0    3.77e+00
2001 12 31  0820    52274   30000      0    4.98e+01    0    4.05e+00
2001 12 31  0825    52274   30300      0    4.82e+01    0    3.82e+00
2001 12 31  0830    52274   30600      0    4.63e+01    0    3.60e+00
2001 12 31  0835    52274   30900      0    4.81e+01    0    3.74e+00
2001 12 31  0840    52274   31200      0    4.95e+01    0    3.97e+00
2001 12 31  0845    52274   31500      0    4.94e+01    0    3.91e+00
2001 12 31  0850    52274   31800      0    4.92e+01    0    3.94e+00
2001 12 31  0855    52274   32100      0    4.64e+01    0    3.54e+00
2001 12 31  0900    52274   32400      0    5.03e+01    0    4.28e+00
2001 12 31  0905    52274   32700      0    4.95e+01    0    3.97e+00
2001 12 31  0910    52274   33000      0    4.76e+01    0    3.94e+00
2001 12 31  0915    52274   33300      0    4.79e+01    0    3.91e+00
2001 12 31  0920    52274   33600      0    4.79e+01    0    3.74e+00
2001 12 31  0925    52274   33900      0    4.97e+01    0    3.77e+00
2001 12 31  0930    52274   34200      0    4.96e+01    0    3.82e+00
2001 12 31  0935    52274   34500      0    4.91e+01    0    3.74e+00
2001 12 31  0940    52274   34800      0    5.39e+01    0    4.06e+00
2001 12 31  0945    52274   35100      0    4.62e+01    0    3.81e+00
2001 12 31  0950    52274   35400      0    4.53e+01    0    3.37e+00
2001 12 31  0955    52274   35700      0    4.49e+01    0    3.54e+00
2001 12 31  1000    52274   36000      0    4.50e+01    0    3.58e+00
2001 12 31  1005    52274   36300      0    5.00e+01    0    3.97e+00
2001 12 31  1010    52274   36600      0    5.04e+01    0    3.93e+00
2001 12 31  1015    52274   36900      0    4.75e+01    0    3.81e+00
2001 12 31  1020    52274   37200      0    4.82e+01    0    3.62e+00
2001 12 31  1025    52274   37500      0    5.28e+01    0    3.96e+00
2001 12 31  1030    52274   37800      0    5.14e+01    0    3.69e+00
2001 12 31  1035    52274   38100      0    4.74e+01    0    3.62e+00
2001 12 31  1040    52274   38400      0    5.47e+01    0    4.43e+00
2001 12 31  1045    52274   38700      0    5.64e+01    0    4.17e+00
2001 12 31  1050    52274   39000      0    5.12e+01    0    3.81e+00
2001 12 31  1055    52274   39300      0    4.94e+01    0    3.63e+00
2001 12 31  1100    52274   39600      0    5.10e+01    0    3.83e+00
2001 12 31  1105    52274   39900      0    4.95e+01    0    3.72e+00
2001 12 31  1110    52274   40200      0    5.09e+01    0    3.79e+00
2001 12 31  1115    52274   40500      0    5.75e+01    0    4.29e+00
2001 12 31  1120    52274   40800      0    5.55e+01    0    4.14e+00
2001 12 31  1125    52274   41100      0    5.20e+01    0    3.75e+00
2001 12 31  1130    52274   41400      0    5.20e+01    0    3.70e+00
2001 12 31  1135    52274   41700      0    5.06e+01    0    3.56e+00
2001 12 31  1140    52274   42000      0    5.00e+01    0    3.53e+00
2001 12 31  1145    52274   42300      0    5.34e+01    0    3.81e+00
2001 12 31  1150    52274   42600      0    5.60e+01    0    4.05e+00
2001 12 31  1155    52274   42900      0    5.71e+01    0    4.37e+00
2001 12 31  1200    52274   43200      0    6.25e+01    0    4.27e+00
2001 12 31  1205    52274   43500      0    6.33e+01    0    4.40e+00
2001 12 31  1210    52274   43800      0    6.22e+01    0    4.22e+00
2001 12 31  1215    52274   44100      0    6.17e+01    0    4.42e+00
2001 12 31  1220    52274   44400      0    6.63e+01    0    4.50e+00
2001 12 31  1225    52274   44700      0    7.00e+01    0    5.03e+00
2001 12 31  1230    52274   45000      0    6.48e+01    0    4.27e+00
2001 12 31  1235    52274   45300      0    6.22e+01    0    4.47e+00
2001 12 31  1240    52274   45600      0    6.51e+01    0    4.55e+00
2001 12 31  1245    52274   45900      0    6.72e+01    0    4.36e+00
2001 12 31  1250    52274   46200      0    6.84e+01    0    4.71e+00
2001 12 31  1255    52274   46500      0    7.15e+01    0    5.11e+00
2001 12 31  1300    52274   46800      0    7.16e+01    0    5.08e+00
2001 12 31  1305    52274   47100      0    6.73e+01    0    4.40e+00
2001 12 31  1310    52274   47400      0    6.80e+01    0    4.62e+00
2001 12 31  1315    52274   47700      0    6.99e+01    0    4.86e+00
2001 12 31  1320    52274   48000      0    7.00e+01    0    4.63e+00
2001 12 31  1325    52274   48300      0    6.85e+01    0    4.64e+00
2001 12 31  1330    52274   48600      0    7.51e+01    0    5.08e+00
2001 12 31  1335    52274   48900      0    7.45e+01    0    4.84e+00
2001 12 31  1340    52274   49200      0    7.05e+01    0    4.80e+00
2001 12 31  1345    52274   49500      0    6.86e+01    0    4.55e+00
2001 12 31  1350    52274   49800      0    7.11e+01    0    4.58e+00
2001 12 31  1355    52274   50100      0    7.07e+01    0    4.48e+00
2001 12 31  1400    52274   50400      0    7.03e+01    0    4.75e+00
2001 12 31  1405    52274   50700      0    7.11e+01    0    4.66e+00
2001 12 31  1410    52274   51000      0    6.83e+01    0    4.42e+00
2001 12 31  1415    52274   51300      0    6.48e+01    0    4.32e+00
2001 12 31  1420    52274   51600      0    6.51e+01    0    4.30e+00
2001 12 31  1425    52274   51900      0    6.48e+01    0    4.35e+00
2001 12 31  1430    52274   52200      0    6.49e+01    0    4.19e+00
2001 12 31  1435    52274   52500      0    6.62e+01    0    4.56e+00
2001 12 31  1440    52274   52800      0    6.87e+01    0    4.54e+00
2001 12 31  1445    52274   53100      0    6.69e+01    0    4.30e+00
2001 12 31  1450    52274   53400      0    7.08e+01    0    4.47e+00
2001 12 31  1455    52274   53700      0    6.63e+01    0    4.23e+00
2001 12 31  1500    52274   54000      0    6.62e+01    0    4.43e+00
2001 12 31  1505    52274   54300      0    6.53e+01    0    4.33e+00
2001 12 31  1510    52274   54600      0    6.59e+01    0    4.42e+00
2001 12 31  1515    52274   54900      0    7.01e+01    0    4.62e+00
2001 12 31  1520    52274   55200      0    7.11e+01    0    4.67e+00
2001 12 31  1525    52274   55500      0    7.01e+01    0    4.53e+00
2001 12 31  1530    52274   55800      0    7.09e+01    0    4.36e+00
2001 12 31  1535    52274   56100      0    6.69e+01    0    4.07e+00
2001 12 31  1540    52274   56400      0    6.64e+01    0    4.29e+00
2001 12 31  1545    52274   56700      0    6.77e+01    0    4.35e+00
2001 12 31  1550    52274   57000      0    6.91e+01    0    4.39e+00
2001 12 31  1555    52274   57300      0    6.81e+01    0    4.53e+00
2001 12 31  1600    52274   57600      0    6.83e+01    0    4.43e+00
2001 12 31  1605    52274   57900      0    6.77e+01    0    4.58e+00
2001 12 31  1610    52274   58200      0    6.67e+01    0    4.49e+00
2001 12 31  1615    52274   58500      0    6.97e+01    0    4.42e+00
2001 12 31  1620    52274   58800      0    6.99e+01    0    4.66e+00
2001 12 31  1625    52274   59100      0    6.81e+01    0    4.53e+00
2001 12 31  1630    52274   59400      0    7.13e+01    0    4.86e+00
2001 12 31  1635    52274   59700      0    6.91e+01    0    4.31e+00
2001 12 31  1640    52274   60000      0    6.80e+01    0    4.26e+00
2001 12 31  1645    52274   60300      0    6.76e+01    0    4.26e+00
2001 12 31  1650    52274   60600      0    6.91e+01    0    4.41e+00
2001 12 31  1655    52274   60900      0    6.97e+01    0    4.61e+00
2001 12 31  1700    52274   61200      0    6.89e+01    0    4.46e+00
2001 12 31  1705    52274   61500      0    6.81e+01    0    4.38e+00
2001 12 31  1710    52274   61800      0    6.91e+01    0    4.43e+00
2001 12 31  1715    52274   62100      0    6.73e+01    0    4.04e+00
2001 12 31  1720    52274   62400      0    6.88e+01    0    4.48e+00
2001 12 31  1725    52274   62700      0    6.98e+01    0    4.50e+00
2001 12 31  1730    52274   63000      0    6.95e+01    0    4.65e+00
2001 12 31  1735    52274   63300      0    7.13e+01    0    4.64e+00
2001 12 31  1740    52274   63600      0    6.92e+01    0    4.35e+00
2001 12 31  1745    52274   63900      0    6.81e+01    0    4.58e+00
2001 12 31  1750    52274   64200      0    6.89e+01    0    4.36e+00
2001 12 31  1755    52274   64500      0    7.01e+01    0    4.26e+00
2001 12 31  1800    52274   64800      0    7.18e+01    0    4.36e+00
2001 12 31  1805    52274   65100      0    7.26e+01    0    4.53e+00
2001 12 31  1810    52274   65400      0    6.96e+01    0    4.33e+00
2001 12 31  1815    52274   65700      0    6.82e+01    0    4.25e+00
2001 12 31  1820    52274   66000      0    6.66e+01    0    4.50e+00
2001 12 31  1825    52274   66300      0    6.63e+01    0    4.46e+00
2001 12 31  1830    52274   66600      0    6.60e+01    0    4.16e+00
2001 12 31  1835    52274   66900      0    6.79e+01    0    4.57e+00
2001 12 31  1840    52274   67200      0    6.70e+01    0    4.07e+00
2001 12 31  1845    52274   67500      0    6.61e+01    0    4.15e+00
2001 12 31  1850    52274   67800      0    6.65e+01    0    4.06e+00
2001 12 31  1855    52274   68100      0    6.74e+01    0    3.98e+00
2001 12 31  1900    52274   68400      0    6.77e+01    0    4.00e+00
2001 12 31  1905    52274   68700      0    6.71e+01    0    4.14e+00
2001 12 31  1910    52274   69000      0    6.57e+01    0    3.98e+00
2001 12 31  1915    52274   69300      0    6.53e+01    0    4.15e+00
2001 12 31  1920    52274   69600      0    6.63e+01    0    4.33e+00
2001 12 31  1925    52274   69900      0    6.73e+01    0    4.03e+00
2001 12 31  1930    52274   70200      0    6.52e+01    0    3.95e+00
2001 12 31  1935    52274   70500      0    6.49e+01    0    4.00e+00
2001 12 31  1940    52274   70800      0    6.67e+01    0    4.26e+00
2001 12 31  1945    52274   71100      0    6.83e+01    0    3.82e+00
2001 12 31  1950    52274   71400      0    7.00e+01    0    4.44e+00
2001 12 31  1955    52274   71700      0    7.48e+01    0    4.27e+00
2001 12 31  2000    52274   72000      0    6.85e+01    0    4.41e+00
2001 12 31  2005    52274   72300      0    6.92e+01    0    4.43e+00
2001 12 31  2010    52274   72600      0    6.74e+01    0    4.09e+00
2001 12 31  2015    52274   72900      0    6.74e+01    0    4.17e+00
2001 12 31  2020    52274   73200      0    6.78e+01    0    4.12e+00
2001 12 31  2025    52274   73500      0    6.55e+01    0    3.85e+00
2001 12 31  2030    52274   73800      0    6.38e+01    0    3.90e+00
2001 12 31  2035    52274   74100      0    6.28e+01    0    4.05e+00
2001 12 31  2040    52274   74400      0    6.40e+01    0    4.04e+00
2001 12 31  2045    52274   74700      0    6.27e+01    0    3.94e+00
2001 12 31  2050    52274   75000      0    6.34e+01    0    3.97e+00
2001 12 31  2055    52274   75300      0    6.33e+01    0    3.77e+00
2001 12 31  2100    52274   75600      0    6.13e+01    0    4.07e+00
2001 12 31  2105    52274   75900      0    6.20e+01    0    3.88e+00
2001 12 31  2110    52274   76200      0    6.02e+01    0    3.74e+00
2001 12 31  2115    52274   76500      0    5.97e+01    0    3.40e+00
2001 12 31  2120    52274   76800      0    6.13e+01    0    3.92e+00
2001 12 31  2125    52274   77100      0    6.07e+01    0    3.69e+00
2001 12 31  2130    52274   77400      0    5.94e+01    0    3.55e+00
2001 12 31  2135    52274   77700      0    6.09e+01    0    3.82e+00
2001 12 31  2140    52274   78000      0    6.18e+01    0    4.00e+00
2001 12 31  2145    52274   78300      0    6.17e+01    0    3.88e+00
2001 12 31  2150    52274   78600      0    6.05e+01    0    3.48e+00
2001 12 31  2155    52274   78900      0    6.12e+01    0    3.75e+00
2001 12 31  2200    52274   79200      0    6.17e+01    0    4.03e+00
2001 12 31  2205    52274   79500      0    6.03e+01    0    3.63e+00
2001 12 31  2210    52274   79800      0    6.08e+01    0    3.58e+00
2001 12 31  2215    52274   80100      0    6.00e+01    0    3.41e+00
2001 12 31  2220    52274   80400      0    6.09e+01    0    3.81e+00
2001 12 31  2225    52274   80700      0    6.11e+01    0    3.87e+00
2001 12 31  2230    52274   81000      0    6.07e+01    0    3.76e+00
2001 12 31  2235    52274   81300      0    5.93e+01    0    3.58e+00
2001 12 31  2240    52274   81600      0    5.82e+01    0    3.62e+00
2001 12 31  2245    52274   81900      0    5.81e+01    0    3.67e+00
2001 12 31  2250    52274   82200      0    5.81e+01    0    3.53e+00
2001 12 31  2255    52274   82500      0    6.14e+01    0    3.73e+00
2001 12 31  2300    52274   82800      0    6.07e+01    0    3.72e+00
2001 12 31  2305    52274   83100      0    5.72e+01    0    3.39e+00
2001 12 31  2310    52274   83400      0    5.73e+01    0    3.52e+00
2001 12 31  2315    52274   83700      0    5.73e+01    0    3.32e+00
2001 12 31  2320    52274   84000      0    5.62e+01    0    3.39e+00
2001 12 31  2325    52274   84300      0    5.66e+01    0    3.58e+00
2001 12 31  2330    52274   84600      0    5.69e+01    0    3.44e+00
2001 12 31  2335    52274   84900      0    5.63e+01    0    3.65e+00
2001 12 31  2340    52274   85200      0    5.65e+01    0    3.47e+00
2001 12 31  2345    52274   85500      0    5.55e+01    0    3.38e+00
2001 12 31  2350    52274   85800      0    5.55e+01    0    3.31e+00
2001 12 31  2355    52274   86100      0    5.87e+01    0    3.60e+00
