:Data_list: 20020911_ace_sis_5m.txt
:Created: 2002 Sep 12 0011 UT
# Prepared by the U.S. Dept. of Commerce, NOAA, Space Environment Center.
# Please send comments and suggestions to sec@sec.noaa.gov 
# 
# Units: proton flux p/cs2-sec-ster
# Status(S): 0 = nominal data, 1 to 8 = bad data record, 9 = no data
# Missing data values: -1.00e+05
# Source: ACE Satellite - Solar Isotope Spectrometer
#
# 5-minute averaged Real-time Integral Flux of High-energy Solar Protons
# 
#                 Modified Seconds
# UT Date   Time   Julian  of the      ---- Integral Proton Flux ----
# YR MO DA  HHMM     Day     Day       S    > 10 MeV    S    > 30 MeV
#--------------------------------------------------------------------
2002 09 11  0000    52528       0      0    9.16e-01    0    5.86e-01
2002 09 11  0005    52528     300      0    8.96e-01    0    5.63e-01
2002 09 11  0010    52528     600      0    8.87e-01    0    5.56e-01
2002 09 11  0015    52528     900      0    9.06e-01    0    5.70e-01
2002 09 11  0020    52528    1200      0    9.00e-01    0    5.68e-01
2002 09 11  0025    52528    1500      0    9.20e-01    0    5.83e-01
2002 09 11  0030    52528    1800      0    9.08e-01    0    5.66e-01
2002 09 11  0035    52528    2100      0    9.11e-01    0    5.64e-01
2002 09 11  0040    52528    2400      0    9.08e-01    0    5.70e-01
2002 09 11  0045    52528    2700      0    8.88e-01    0    5.56e-01
2002 09 11  0050    52528    3000      0    8.91e-01    0    5.59e-01
2002 09 11  0055    52528    3300      0    8.54e-01    0    5.40e-01
2002 09 11  0100    52528    3600      0    8.87e-01    0    5.52e-01
2002 09 11  0105    52528    3900      0    8.79e-01    0    5.49e-01
2002 09 11  0110    52528    4200      0    9.06e-01    0    5.63e-01
2002 09 11  0115    52528    4500      0    8.94e-01    0    5.67e-01
2002 09 11  0120    52528    4800      0    8.97e-01    0    5.66e-01
2002 09 11  0125    52528    5100      0    9.01e-01    0    5.68e-01
2002 09 11  0130    52528    5400      0    9.06e-01    0    5.71e-01
2002 09 11  0135    52528    5700      0    9.11e-01    0    5.80e-01
2002 09 11  0140    52528    6000      0    8.89e-01    0    5.61e-01
2002 09 11  0145    52528    6300      0    9.01e-01    0    5.68e-01
2002 09 11  0150    52528    6600      0    9.19e-01    0    5.81e-01
2002 09 11  0155    52528    6900      0    8.52e-01    0    5.40e-01
2002 09 11  0200    52528    7200      0    8.86e-01    0    5.60e-01
2002 09 11  0205    52528    7500      0    9.25e-01    0    5.92e-01
2002 09 11  0210    52528    7800      0    8.83e-01    0    5.68e-01
2002 09 11  0215    52528    8100      0    9.24e-01    0    5.86e-01
2002 09 11  0220    52528    8400      0    9.06e-01    0    5.74e-01
2002 09 11  0225    52528    8700      0    8.82e-01    0    5.51e-01
2002 09 11  0230    52528    9000      0    9.03e-01    0    5.78e-01
2002 09 11  0235    52528    9300      0    9.06e-01    0    5.69e-01
2002 09 11  0240    52528    9600      0    9.04e-01    0    5.72e-01
2002 09 11  0245    52528    9900      0    8.94e-01    0    5.56e-01
2002 09 11  0250    52528   10200      0    8.72e-01    0    5.59e-01
2002 09 11  0255    52528   10500      0    8.95e-01    0    5.61e-01
2002 09 11  0300    52528   10800      0    8.96e-01    0    5.74e-01
2002 09 11  0305    52528   11100      0    8.88e-01    0    5.66e-01
2002 09 11  0310    52528   11400      0    8.97e-01    0    5.68e-01
2002 09 11  0315    52528   11700      0    8.77e-01    0    5.50e-01
2002 09 11  0320    52528   12000      0    9.10e-01    0    5.76e-01
2002 09 11  0325    52528   12300      0    9.05e-01    0    5.80e-01
2002 09 11  0330    52528   12600      0    8.88e-01    0    5.67e-01
2002 09 11  0335    52528   12900      0    9.18e-01    0    5.83e-01
2002 09 11  0340    52528   13200      0    8.86e-01    0    5.67e-01
2002 09 11  0345    52528   13500      0    8.98e-01    0    5.71e-01
2002 09 11  0350    52528   13800      0    8.79e-01    0    5.52e-01
2002 09 11  0355    52528   14100      0    9.10e-01    0    5.71e-01
2002 09 11  0400    52528   14400      0    9.30e-01    0    5.96e-01
2002 09 11  0405    52528   14700      0    9.02e-01    0    5.71e-01
2002 09 11  0410    52528   15000      0    8.91e-01    0    5.62e-01
2002 09 11  0415    52528   15300      0    8.94e-01    0    5.70e-01
2002 09 11  0420    52528   15600      0    8.97e-01    0    5.71e-01
2002 09 11  0425    52528   15900      0    8.99e-01    0    5.71e-01
2002 09 11  0430    52528   16200      0    8.81e-01    0    5.63e-01
2002 09 11  0435    52528   16500      0    8.93e-01    0    5.69e-01
2002 09 11  0440    52528   16800      0    9.02e-01    0    5.71e-01
2002 09 11  0445    52528   17100      0    8.99e-01    0    5.64e-01
2002 09 11  0450    52528   17400      0    8.93e-01    0    5.63e-01
2002 09 11  0455    52528   17700      0    9.04e-01    0    5.66e-01
2002 09 11  0500    52528   18000      0    8.60e-01    0    5.43e-01
2002 09 11  0505    52528   18300      0    8.89e-01    0    5.64e-01
2002 09 11  0510    52528   18600      0    9.05e-01    0    5.76e-01
2002 09 11  0515    52528   18900      0    9.23e-01    0    5.86e-01
2002 09 11  0520    52528   19200      0    9.03e-01    0    5.73e-01
2002 09 11  0525    52528   19500      0    8.79e-01    0    5.64e-01
2002 09 11  0530    52528   19800      0    8.93e-01    0    5.69e-01
2002 09 11  0535    52528   20100      0    8.95e-01    0    5.73e-01
2002 09 11  0540    52528   20400      0    8.86e-01    0    5.69e-01
2002 09 11  0545    52528   20700      0    8.71e-01    0    5.58e-01
2002 09 11  0550    52528   21000      0    8.88e-01    0    5.59e-01
2002 09 11  0555    52528   21300      0    8.93e-01    0    5.69e-01
2002 09 11  0600    52528   21600      0    9.22e-01    0    5.97e-01
2002 09 11  0605    52528   21900      0    9.04e-01    0    5.80e-01
2002 09 11  0610    52528   22200      0    9.09e-01    0    5.82e-01
2002 09 11  0615    52528   22500      0    9.06e-01    0    5.83e-01
2002 09 11  0620    52528   22800      0    8.92e-01    0    5.69e-01
2002 09 11  0625    52528   23100      0    8.98e-01    0    5.74e-01
2002 09 11  0630    52528   23400      0    8.90e-01    0    5.64e-01
2002 09 11  0635    52528   23700      0    9.21e-01    0    5.84e-01
2002 09 11  0640    52528   24000      0    9.03e-01    0    5.88e-01
2002 09 11  0645    52528   24300      0    9.10e-01    0    5.81e-01
2002 09 11  0650    52528   24600      0    9.04e-01    0    5.76e-01
2002 09 11  0655    52528   24900      0    8.86e-01    0    5.70e-01
2002 09 11  0700    52528   25200      0    9.14e-01    0    5.91e-01
2002 09 11  0705    52528   25500      0    9.00e-01    0    5.78e-01
2002 09 11  0710    52528   25800      0    8.98e-01    0    5.82e-01
2002 09 11  0715    52528   26100      0    9.11e-01    0    5.79e-01
2002 09 11  0720    52528   26400      0    9.08e-01    0    5.86e-01
2002 09 11  0725    52528   26700      0    9.04e-01    0    5.76e-01
2002 09 11  0730    52528   27000      0    8.80e-01    0    5.63e-01
2002 09 11  0735    52528   27300      0    9.00e-01    0    5.81e-01
2002 09 11  0740    52528   27600      0    8.94e-01    0    5.81e-01
2002 09 11  0745    52528   27900      0    9.07e-01    0    5.83e-01
2002 09 11  0750    52528   28200      0    8.85e-01    0    5.74e-01
2002 09 11  0755    52528   28500      0    8.69e-01    0    5.57e-01
2002 09 11  0800    52528   28800      0    8.72e-01    0    5.60e-01
2002 09 11  0805    52528   29100      0    8.63e-01    0    5.43e-01
2002 09 11  0810    52528   29400      0    9.21e-01    0    5.93e-01
2002 09 11  0815    52528   29700      0    9.00e-01    0    5.84e-01
2002 09 11  0820    52528   30000      0    8.72e-01    0    5.60e-01
2002 09 11  0825    52528   30300      0    8.84e-01    0    5.60e-01
2002 09 11  0830    52528   30600      0    8.68e-01    0    5.47e-01
2002 09 11  0835    52528   30900      0    9.02e-01    0    5.76e-01
2002 09 11  0840    52528   31200      0    8.92e-01    0    5.61e-01
2002 09 11  0845    52528   31500      0    9.04e-01    0    5.77e-01
2002 09 11  0850    52528   31800      0    8.76e-01    0    5.54e-01
2002 09 11  0855    52528   32100      0    8.91e-01    0    5.72e-01
2002 09 11  0900    52528   32400      0    9.04e-01    0    5.74e-01
2002 09 11  0905    52528   32700      0    9.07e-01    0    5.84e-01
2002 09 11  0910    52528   33000      0    8.84e-01    0    5.77e-01
2002 09 11  0915    52528   33300      0    8.76e-01    0    5.58e-01
2002 09 11  0920    52528   33600      0    8.50e-01    0    5.46e-01
2002 09 11  0925    52528   33900      0    8.92e-01    0    5.76e-01
2002 09 11  0930    52528   34200      0    8.79e-01    0    5.68e-01
2002 09 11  0935    52528   34500      0    8.82e-01    0    5.61e-01
2002 09 11  0940    52528   34800      0    8.70e-01    0    5.70e-01
2002 09 11  0945    52528   35100      0    8.52e-01    0    5.50e-01
2002 09 11  0950    52528   35400      0    8.56e-01    0    5.47e-01
2002 09 11  0955    52528   35700      0    8.94e-01    0    5.76e-01
2002 09 11  1000    52528   36000      0    8.64e-01    0    5.62e-01
2002 09 11  1005    52528   36300      0    8.68e-01    0    5.56e-01
2002 09 11  1010    52528   36600      0    8.68e-01    0    5.72e-01
2002 09 11  1015    52528   36900      0    8.72e-01    0    5.58e-01
2002 09 11  1020    52528   37200      0    9.04e-01    0    5.84e-01
2002 09 11  1025    52528   37500      0    8.92e-01    0    5.76e-01
2002 09 11  1030    52528   37800      0    8.64e-01    0    5.59e-01
2002 09 11  1035    52528   38100      0    8.56e-01    0    5.62e-01
2002 09 11  1040    52528   38400      0    8.71e-01    0    5.67e-01
2002 09 11  1045    52528   38700      0    8.76e-01    0    5.69e-01
2002 09 11  1050    52528   39000      0    8.60e-01    0    5.52e-01
2002 09 11  1055    52528   39300      0    8.49e-01    0    5.48e-01
2002 09 11  1100    52528   39600      0    8.57e-01    0    5.67e-01
2002 09 11  1105    52528   39900      0    8.58e-01    0    5.61e-01
2002 09 11  1110    52528   40200      0    8.96e-01    0    5.83e-01
2002 09 11  1115    52528   40500      0    8.89e-01    0    5.66e-01
2002 09 11  1120    52528   40800      0    8.74e-01    0    5.67e-01
2002 09 11  1125    52528   41100      0    8.79e-01    0    5.75e-01
2002 09 11  1130    52528   41400      0    8.74e-01    0    5.74e-01
2002 09 11  1135    52528   41700      0    8.92e-01    0    5.78e-01
2002 09 11  1140    52528   42000      0    8.70e-01    0    5.61e-01
2002 09 11  1145    52528   42300      0    8.67e-01    0    5.62e-01
2002 09 11  1150    52528   42600      0    8.31e-01    0    5.41e-01
2002 09 11  1155    52528   42900      0    8.47e-01    0    5.53e-01
2002 09 11  1200    52528   43200      0    8.87e-01    0    5.59e-01
2002 09 11  1205    52528   43500      0    8.63e-01    0    5.59e-01
2002 09 11  1210    52528   43800      0    8.62e-01    0    5.68e-01
2002 09 11  1215    52528   44100      0    8.58e-01    0    5.59e-01
2002 09 11  1220    52528   44400      0    8.43e-01    0    5.47e-01
2002 09 11  1225    52528   44700      0    8.71e-01    0    5.59e-01
2002 09 11  1230    52528   45000      0    8.70e-01    0    5.59e-01
2002 09 11  1235    52528   45300      0    8.49e-01    0    5.59e-01
2002 09 11  1240    52528   45600      0    8.64e-01    0    5.64e-01
2002 09 11  1245    52528   45900      0    8.72e-01    0    5.73e-01
2002 09 11  1250    52528   46200      0    8.49e-01    0    5.56e-01
2002 09 11  1255    52528   46500      0    8.77e-01    0    5.76e-01
2002 09 11  1300    52528   46800      0    8.27e-01    0    5.31e-01
2002 09 11  1305    52528   47100      0    8.52e-01    0    5.57e-01
2002 09 11  1310    52528   47400      0    8.25e-01    0    5.32e-01
2002 09 11  1315    52528   47700      0    8.43e-01    0    5.48e-01
2002 09 11  1320    52528   48000      0    8.64e-01    0    5.68e-01
2002 09 11  1325    52528   48300      0    8.48e-01    0    5.56e-01
2002 09 11  1330    52528   48600      0    8.42e-01    0    5.48e-01
2002 09 11  1335    52528   48900      0    8.62e-01    0    5.72e-01
2002 09 11  1340    52528   49200      0    8.40e-01    0    5.55e-01
2002 09 11  1345    52528   49500      0    8.27e-01    0    5.46e-01
2002 09 11  1350    52528   49800      0    8.31e-01    0    5.47e-01
2002 09 11  1355    52528   50100      0    8.53e-01    0    5.64e-01
2002 09 11  1400    52528   50400      0    8.63e-01    0    5.68e-01
2002 09 11  1405    52528   50700      0    8.57e-01    0    5.60e-01
2002 09 11  1410    52528   51000      0    8.57e-01    0    5.72e-01
2002 09 11  1415    52528   51300      0    8.19e-01    0    5.26e-01
2002 09 11  1420    52528   51600      0    8.55e-01    0    5.54e-01
2002 09 11  1425    52528   51900      0    8.51e-01    0    5.61e-01
2002 09 11  1430    52528   52200      0    8.31e-01    0    5.46e-01
2002 09 11  1435    52528   52500      0    8.47e-01    0    5.58e-01
2002 09 11  1440    52528   52800      0    8.77e-01    0    5.81e-01
2002 09 11  1445    52528   53100      0    8.42e-01    0    5.53e-01
2002 09 11  1450    52528   53400      0    8.49e-01    0    5.51e-01
2002 09 11  1455    52528   53700      0    8.37e-01    0    5.48e-01
2002 09 11  1500    52528   54000      0    8.73e-01    0    5.78e-01
2002 09 11  1505    52528   54300      0    8.43e-01    0    5.56e-01
2002 09 11  1510    52528   54600      0    8.60e-01    0    5.62e-01
2002 09 11  1515    52528   54900      0    8.54e-01    0    5.62e-01
2002 09 11  1520    52528   55200      0    8.47e-01    0    5.50e-01
2002 09 11  1525    52528   55500      0    8.54e-01    0    5.62e-01
2002 09 11  1530    52528   55800      0    8.49e-01    0    5.60e-01
2002 09 11  1535    52528   56100      0    8.33e-01    0    5.46e-01
2002 09 11  1540    52528   56400      0    8.33e-01    0    5.45e-01
2002 09 11  1545    52528   56700      0    8.61e-01    0    5.59e-01
2002 09 11  1550    52528   57000      0    8.50e-01    0    5.50e-01
2002 09 11  1555    52528   57300      0    8.62e-01    0    5.64e-01
2002 09 11  1600    52528   57600      0    8.42e-01    0    5.53e-01
2002 09 11  1605    52528   57900      0    8.40e-01    0    5.54e-01
2002 09 11  1610    52528   58200      0    8.49e-01    0    5.59e-01
2002 09 11  1615    52528   58500      0    8.47e-01    0    5.47e-01
2002 09 11  1620    52528   58800      0    8.33e-01    0    5.43e-01
2002 09 11  1625    52528   59100      0    8.46e-01    0    5.57e-01
2002 09 11  1630    52528   59400      0    8.58e-01    0    5.69e-01
2002 09 11  1635    52528   59700      0    8.23e-01    0    5.47e-01
2002 09 11  1640    52528   60000      0    8.42e-01    0    5.47e-01
2002 09 11  1645    52528   60300      0    8.34e-01    0    5.49e-01
2002 09 11  1650    52528   60600      0    8.74e-01    0    5.87e-01
2002 09 11  1655    52528   60900      0    8.56e-01    0    5.68e-01
2002 09 11  1700    52528   61200      0    8.41e-01    0    5.57e-01
2002 09 11  1705    52528   61500      0    8.40e-01    0    5.50e-01
2002 09 11  1710    52528   61800      9   -1.00e+05    9   -1.00e+05
2002 09 11  1715    52528   62100      0    8.32e-01    0    5.52e-01
2002 09 11  1720    52528   62400      0    8.24e-01    0    5.34e-01
2002 09 11  1725    52528   62700      0    8.54e-01    0    5.58e-01
2002 09 11  1730    52528   63000      0    8.34e-01    0    5.48e-01
2002 09 11  1735    52528   63300      0    8.57e-01    0    5.69e-01
2002 09 11  1740    52528   63600      0    8.53e-01    0    5.62e-01
2002 09 11  1745    52528   63900      0    8.38e-01    0    5.51e-01
2002 09 11  1750    52528   64200      0    8.24e-01    0    5.42e-01
2002 09 11  1755    52528   64500      0    8.47e-01    0    5.57e-01
2002 09 11  1800    52528   64800      9   -1.00e+05    9   -1.00e+05
2002 09 11  1805    52528   65100      9   -1.00e+05    9   -1.00e+05
2002 09 11  1810    52528   65400      9   -1.00e+05    9   -1.00e+05
2002 09 11  1815    52528   65700      0    8.31e-01    0    5.44e-01
2002 09 11  1820    52528   66000      0    8.63e-01    0    5.71e-01
2002 09 11  1825    52528   66300      0    8.16e-01    0    5.39e-01
2002 09 11  1830    52528   66600      0    8.35e-01    0    5.51e-01
2002 09 11  1835    52528   66900      0    8.37e-01    0    5.52e-01
2002 09 11  1840    52528   67200      0    8.37e-01    0    5.54e-01
2002 09 11  1845    52528   67500      0    8.33e-01    0    5.50e-01
2002 09 11  1850    52528   67800      0    8.56e-01    0    5.64e-01
2002 09 11  1855    52528   68100      0    8.33e-01    0    5.50e-01
2002 09 11  1900    52528   68400      0    8.60e-01    0    5.78e-01
2002 09 11  1905    52528   68700      0    8.21e-01    0    5.47e-01
2002 09 11  1910    52528   69000      0    8.35e-01    0    5.42e-01
2002 09 11  1915    52528   69300      0    8.26e-01    0    5.44e-01
2002 09 11  1920    52528   69600      0    8.42e-01    0    5.51e-01
2002 09 11  1925    52528   69900      0    8.43e-01    0    5.62e-01
2002 09 11  1930    52528   70200      0    8.44e-01    0    5.58e-01
2002 09 11  1935    52528   70500      0    8.34e-01    0    5.53e-01
2002 09 11  1940    52528   70800      0    8.47e-01    0    5.66e-01
2002 09 11  1945    52528   71100      0    8.30e-01    0    5.60e-01
2002 09 11  1950    52528   71400      0    8.49e-01    0    5.57e-01
2002 09 11  1955    52528   71700      0    8.36e-01    0    5.57e-01
2002 09 11  2000    52528   72000      0    8.13e-01    0    5.38e-01
2002 09 11  2005    52528   72300      0    8.41e-01    0    5.51e-01
2002 09 11  2010    52528   72600      0    8.46e-01    0    5.62e-01
2002 09 11  2015    52528   72900      0    8.39e-01    0    5.55e-01
2002 09 11  2020    52528   73200      0    8.47e-01    0    5.60e-01
2002 09 11  2025    52528   73500      0    8.20e-01    0    5.51e-01
2002 09 11  2030    52528   73800      0    8.45e-01    0    5.58e-01
2002 09 11  2035    52528   74100      0    8.28e-01    0    5.56e-01
2002 09 11  2040    52528   74400      0    8.33e-01    0    5.58e-01
2002 09 11  2045    52528   74700      0    8.27e-01    0    5.55e-01
2002 09 11  2050    52528   75000      0    8.22e-01    0    5.47e-01
2002 09 11  2055    52528   75300      0    8.50e-01    0    5.71e-01
2002 09 11  2100    52528   75600      0    8.39e-01    0    5.57e-01
2002 09 11  2105    52528   75900      0    8.30e-01    0    5.51e-01
2002 09 11  2110    52528   76200      0    8.22e-01    0    5.46e-01
2002 09 11  2115    52528   76500      0    7.99e-01    0    5.37e-01
2002 09 11  2120    52528   76800      0    8.14e-01    0    5.49e-01
2002 09 11  2125    52528   77100      0    8.14e-01    0    5.45e-01
2002 09 11  2130    52528   77400      0    8.47e-01    0    5.70e-01
2002 09 11  2135    52528   77700      0    8.27e-01    0    5.48e-01
2002 09 11  2140    52528   78000      0    8.52e-01    0    5.72e-01
2002 09 11  2145    52528   78300      0    8.10e-01    0    5.41e-01
2002 09 11  2150    52528   78600      0    8.15e-01    0    5.38e-01
2002 09 11  2155    52528   78900      0    8.59e-01    0    5.78e-01
2002 09 11  2200    52528   79200      0    8.10e-01    0    5.38e-01
2002 09 11  2205    52528   79500      0    8.41e-01    0    5.60e-01
2002 09 11  2210    52528   79800      0    8.31e-01    0    5.53e-01
2002 09 11  2215    52528   80100      0    8.18e-01    0    5.44e-01
2002 09 11  2220    52528   80400      0    8.28e-01    0    5.61e-01
2002 09 11  2225    52528   80700      0    8.32e-01    0    5.61e-01
2002 09 11  2230    52528   81000      0    8.41e-01    0    5.70e-01
2002 09 11  2235    52528   81300      0    8.42e-01    0    5.67e-01
2002 09 11  2240    52528   81600      0    8.34e-01    0    5.57e-01
2002 09 11  2245    52528   81900      0    8.33e-01    0    5.49e-01
2002 09 11  2250    52528   82200      0    8.21e-01    0    5.49e-01
2002 09 11  2255    52528   82500      0    8.38e-01    0    5.64e-01
2002 09 11  2300    52528   82800      0    8.52e-01    0    5.74e-01
2002 09 11  2305    52528   83100      0    8.38e-01    0    5.63e-01
2002 09 11  2310    52528   83400      0    8.46e-01    0    5.61e-01
2002 09 11  2315    52528   83700      0    8.28e-01    0    5.50e-01
2002 09 11  2320    52528   84000      0    8.33e-01    0    5.52e-01
2002 09 11  2325    52528   84300      0    8.27e-01    0    5.53e-01
2002 09 11  2330    52528   84600      0    8.20e-01    0    5.52e-01
2002 09 11  2335    52528   84900      0    8.25e-01    0    5.58e-01
2002 09 11  2340    52528   85200      0    8.19e-01    0    5.36e-01
2002 09 11  2345    52528   85500      0    8.18e-01    0    5.51e-01
2002 09 11  2350    52528   85800      0    8.35e-01    0    5.61e-01
2002 09 11  2355    52528   86100      0    8.31e-01    0    5.61e-01
