:Data_list: 20020827_ace_sis_5m.txt
:Created: 2002 Aug 28 0011 UT
# Prepared by the U.S. Dept. of Commerce, NOAA, Space Environment Center.
# Please send comments and suggestions to sec@sec.noaa.gov 
# 
# Units: proton flux p/cs2-sec-ster
# Status(S): 0 = nominal data, 1 to 8 = bad data record, 9 = no data
# Missing data values: -1.00e+05
# Source: ACE Satellite - Solar Isotope Spectrometer
#
# 5-minute averaged Real-time Integral Flux of High-energy Solar Protons
# 
#                 Modified Seconds
# UT Date   Time   Julian  of the      ---- Integral Proton Flux ----
# YR MO DA  HHMM     Day     Day       S    > 10 MeV    S    > 30 MeV
#--------------------------------------------------------------------
2002 08 27  0000    52513       0      9   -1.00e+05    9   -1.00e+05
2002 08 27  0005    52513     300      9   -1.00e+05    9   -1.00e+05
2002 08 27  0010    52513     600      9   -1.00e+05    9   -1.00e+05
2002 08 27  0015    52513     900      9   -1.00e+05    9   -1.00e+05
2002 08 27  0020    52513    1200      9   -1.00e+05    9   -1.00e+05
2002 08 27  0025    52513    1500      9   -1.00e+05    9   -1.00e+05
2002 08 27  0030    52513    1800      9   -1.00e+05    9   -1.00e+05
2002 08 27  0035    52513    2100      9   -1.00e+05    9   -1.00e+05
2002 08 27  0040    52513    2400      9   -1.00e+05    9   -1.00e+05
2002 08 27  0045    52513    2700      9   -1.00e+05    9   -1.00e+05
2002 08 27  0050    52513    3000      9   -1.00e+05    9   -1.00e+05
2002 08 27  0055    52513    3300      9   -1.00e+05    9   -1.00e+05
2002 08 27  0100    52513    3600      9   -1.00e+05    9   -1.00e+05
2002 08 27  0105    52513    3900      9   -1.00e+05    9   -1.00e+05
2002 08 27  0110    52513    4200      0    3.62e+00    0    1.06e+00
2002 08 27  0115    52513    4500      0    3.57e+00    0    1.05e+00
2002 08 27  0120    52513    4800      0    3.49e+00    0    1.03e+00
2002 08 27  0125    52513    5100      0    3.32e+00    0    1.02e+00
2002 08 27  0130    52513    5400      0    3.36e+00    0    9.82e-01
2002 08 27  0135    52513    5700      0    3.37e+00    0    9.96e-01
2002 08 27  0140    52513    6000      0    3.29e+00    0    9.74e-01
2002 08 27  0145    52513    6300      0    3.31e+00    0    9.93e-01
2002 08 27  0150    52513    6600      0    3.34e+00    0    1.01e+00
2002 08 27  0155    52513    6900      0    3.32e+00    0    1.01e+00
2002 08 27  0200    52513    7200      0    3.28e+00    0    1.00e+00
2002 08 27  0205    52513    7500      0    3.31e+00    0    1.01e+00
2002 08 27  0210    52513    7800      0    3.37e+00    0    1.04e+00
2002 08 27  0215    52513    8100      0    3.31e+00    0    9.75e-01
2002 08 27  0220    52513    8400      0    3.36e+00    0    1.01e+00
2002 08 27  0225    52513    8700      0    3.32e+00    0    1.00e+00
2002 08 27  0230    52513    9000      0    3.33e+00    0    1.03e+00
2002 08 27  0235    52513    9300      0    3.27e+00    0    1.01e+00
2002 08 27  0240    52513    9600      0    3.20e+00    0    1.01e+00
2002 08 27  0245    52513    9900      0    3.17e+00    0    9.37e-01
2002 08 27  0250    52513   10200      0    3.23e+00    0    1.01e+00
2002 08 27  0255    52513   10500      0    3.15e+00    0    9.82e-01
2002 08 27  0300    52513   10800      0    3.16e+00    0    9.68e-01
2002 08 27  0305    52513   11100      0    3.14e+00    0    9.83e-01
2002 08 27  0310    52513   11400      0    3.17e+00    0    9.98e-01
2002 08 27  0315    52513   11700      0    3.23e+00    0    1.02e+00
2002 08 27  0320    52513   12000      0    3.12e+00    0    9.76e-01
2002 08 27  0325    52513   12300      0    3.15e+00    0    1.00e+00
2002 08 27  0330    52513   12600      0    3.10e+00    0    9.77e-01
2002 08 27  0335    52513   12900      0    3.06e+00    0    9.74e-01
2002 08 27  0340    52513   13200      0    3.05e+00    0    9.81e-01
2002 08 27  0345    52513   13500      0    3.15e+00    0    9.96e-01
2002 08 27  0350    52513   13800      0    3.08e+00    0    9.49e-01
2002 08 27  0355    52513   14100      0    3.09e+00    0    9.84e-01
2002 08 27  0400    52513   14400      0    3.12e+00    0    9.79e-01
2002 08 27  0405    52513   14700      0    3.05e+00    0    9.86e-01
2002 08 27  0410    52513   15000      0    3.14e+00    0    9.92e-01
2002 08 27  0415    52513   15300      0    3.04e+00    0    1.00e+00
2002 08 27  0420    52513   15600      0    3.01e+00    0    9.67e-01
2002 08 27  0425    52513   15900      0    2.96e+00    0    9.66e-01
2002 08 27  0430    52513   16200      0    2.89e+00    0    9.44e-01
2002 08 27  0435    52513   16500      0    2.92e+00    0    9.28e-01
2002 08 27  0440    52513   16800      0    2.91e+00    0    9.87e-01
2002 08 27  0445    52513   17100      0    2.93e+00    0    9.80e-01
2002 08 27  0450    52513   17400      0    2.96e+00    0    9.71e-01
2002 08 27  0455    52513   17700      0    2.93e+00    0    9.62e-01
2002 08 27  0500    52513   18000      0    2.91e+00    0    9.48e-01
2002 08 27  0505    52513   18300      0    2.85e+00    0    9.56e-01
2002 08 27  0510    52513   18600      0    2.81e+00    0    9.39e-01
2002 08 27  0515    52513   18900      0    2.81e+00    0    9.47e-01
2002 08 27  0520    52513   19200      0    2.77e+00    0    9.07e-01
2002 08 27  0525    52513   19500      0    2.70e+00    0    9.03e-01
2002 08 27  0530    52513   19800      0    2.64e+00    0    8.93e-01
2002 08 27  0535    52513   20100      0    2.62e+00    0    9.23e-01
2002 08 27  0540    52513   20400      0    2.56e+00    0    9.02e-01
2002 08 27  0545    52513   20700      0    2.56e+00    0    9.01e-01
2002 08 27  0550    52513   21000      0    2.42e+00    0    9.27e-01
2002 08 27  0555    52513   21300      0    2.29e+00    0    8.91e-01
2002 08 27  0600    52513   21600      0    2.42e+00    0    9.26e-01
2002 08 27  0605    52513   21900      0    2.45e+00    0    8.98e-01
2002 08 27  0610    52513   22200      0    2.36e+00    0    9.00e-01
2002 08 27  0615    52513   22500      0    2.44e+00    0    9.05e-01
2002 08 27  0620    52513   22800      0    2.43e+00    0    8.96e-01
2002 08 27  0625    52513   23100      0    2.44e+00    0    9.01e-01
2002 08 27  0630    52513   23400      0    2.40e+00    0    8.88e-01
2002 08 27  0635    52513   23700      0    2.43e+00    0    9.03e-01
2002 08 27  0640    52513   24000      0    2.35e+00    0    8.51e-01
2002 08 27  0645    52513   24300      0    2.27e+00    0    8.85e-01
2002 08 27  0650    52513   24600      0    2.24e+00    0    8.64e-01
2002 08 27  0655    52513   24900      0    2.23e+00    0    8.54e-01
2002 08 27  0700    52513   25200      0    2.30e+00    0    8.73e-01
2002 08 27  0705    52513   25500      0    2.26e+00    0    8.49e-01
2002 08 27  0710    52513   25800      0    2.07e+00    0    8.45e-01
2002 08 27  0715    52513   26100      0    2.03e+00    0    8.30e-01
2002 08 27  0720    52513   26400      0    2.02e+00    0    8.29e-01
2002 08 27  0725    52513   26700      0    1.98e+00    0    8.39e-01
2002 08 27  0730    52513   27000      0    1.99e+00    0    8.19e-01
2002 08 27  0735    52513   27300      0    2.05e+00    0    8.43e-01
2002 08 27  0740    52513   27600      0    2.01e+00    0    8.43e-01
2002 08 27  0745    52513   27900      0    1.95e+00    0    8.14e-01
2002 08 27  0750    52513   28200      0    2.00e+00    0    8.49e-01
2002 08 27  0755    52513   28500      0    1.96e+00    0    8.12e-01
2002 08 27  0800    52513   28800      0    2.00e+00    0    8.27e-01
2002 08 27  0805    52513   29100      0    1.95e+00    0    8.39e-01
2002 08 27  0810    52513   29400      0    1.95e+00    0    8.24e-01
2002 08 27  0815    52513   29700      0    1.98e+00    0    8.29e-01
2002 08 27  0820    52513   30000      0    1.96e+00    0    8.12e-01
2002 08 27  0825    52513   30300      0    1.90e+00    0    8.06e-01
2002 08 27  0830    52513   30600      0    1.86e+00    0    8.05e-01
2002 08 27  0835    52513   30900      0    1.90e+00    0    8.16e-01
2002 08 27  0840    52513   31200      0    1.83e+00    0    7.66e-01
2002 08 27  0845    52513   31500      0    1.86e+00    0    8.11e-01
2002 08 27  0850    52513   31800      0    1.87e+00    0    8.23e-01
2002 08 27  0855    52513   32100      0    1.84e+00    0    8.16e-01
2002 08 27  0900    52513   32400      0    1.92e+00    0    8.50e-01
2002 08 27  0905    52513   32700      0    1.91e+00    0    8.27e-01
2002 08 27  0910    52513   33000      0    1.87e+00    0    8.14e-01
2002 08 27  0915    52513   33300      0    1.83e+00    0    8.02e-01
2002 08 27  0920    52513   33600      0    1.85e+00    0    8.16e-01
2002 08 27  0925    52513   33900      0    1.87e+00    0    8.25e-01
2002 08 27  0930    52513   34200      0    1.83e+00    0    8.18e-01
2002 08 27  0935    52513   34500      0    1.82e+00    0    8.00e-01
2002 08 27  0940    52513   34800      0    1.86e+00    0    8.24e-01
2002 08 27  0945    52513   35100      0    1.87e+00    0    8.10e-01
2002 08 27  0950    52513   35400      0    1.87e+00    0    7.95e-01
2002 08 27  0955    52513   35700      0    1.84e+00    0    7.83e-01
2002 08 27  1000    52513   36000      0    1.85e+00    0    7.98e-01
2002 08 27  1005    52513   36300      0    1.85e+00    0    8.03e-01
2002 08 27  1010    52513   36600      0    1.81e+00    0    7.93e-01
2002 08 27  1015    52513   36900      0    1.82e+00    0    7.96e-01
2002 08 27  1020    52513   37200      0    1.81e+00    0    7.93e-01
2002 08 27  1025    52513   37500      0    1.78e+00    0    7.71e-01
2002 08 27  1030    52513   37800      0    1.82e+00    0    7.80e-01
2002 08 27  1035    52513   38100      0    1.82e+00    0    7.86e-01
2002 08 27  1040    52513   38400      0    1.84e+00    0    7.93e-01
2002 08 27  1045    52513   38700      0    1.90e+00    0    8.29e-01
2002 08 27  1050    52513   39000      0    1.86e+00    0    7.92e-01
2002 08 27  1055    52513   39300      0    1.92e+00    0    8.23e-01
2002 08 27  1100    52513   39600      0    1.91e+00    0    7.92e-01
2002 08 27  1105    52513   39900      0    1.91e+00    0    8.19e-01
2002 08 27  1110    52513   40200      0    1.97e+00    0    8.26e-01
2002 08 27  1115    52513   40500      0    1.98e+00    0    8.07e-01
2002 08 27  1120    52513   40800      0    2.01e+00    0    8.03e-01
2002 08 27  1125    52513   41100      0    2.01e+00    0    8.20e-01
2002 08 27  1130    52513   41400      0    2.04e+00    0    8.12e-01
2002 08 27  1135    52513   41700      0    2.06e+00    0    8.29e-01
2002 08 27  1140    52513   42000      0    2.06e+00    0    8.14e-01
2002 08 27  1145    52513   42300      0    2.07e+00    0    8.16e-01
2002 08 27  1150    52513   42600      0    2.12e+00    0    8.62e-01
2002 08 27  1155    52513   42900      0    2.07e+00    0    8.17e-01
2002 08 27  1200    52513   43200      0    2.07e+00    0    8.26e-01
2002 08 27  1205    52513   43500      0    2.08e+00    0    8.27e-01
2002 08 27  1210    52513   43800      0    2.02e+00    0    7.99e-01
2002 08 27  1215    52513   44100      0    1.96e+00    0    8.03e-01
2002 08 27  1220    52513   44400      0    1.99e+00    0    8.12e-01
2002 08 27  1225    52513   44700      0    2.08e+00    0    8.29e-01
2002 08 27  1230    52513   45000      0    2.03e+00    0    8.06e-01
2002 08 27  1235    52513   45300      0    2.06e+00    0    8.18e-01
2002 08 27  1240    52513   45600      0    2.03e+00    0    7.91e-01
2002 08 27  1245    52513   45900      0    2.02e+00    0    8.24e-01
2002 08 27  1250    52513   46200      0    2.05e+00    0    8.31e-01
2002 08 27  1255    52513   46500      0    2.06e+00    0    8.23e-01
2002 08 27  1300    52513   46800      0    2.01e+00    0    7.98e-01
2002 08 27  1305    52513   47100      0    2.00e+00    0    8.20e-01
2002 08 27  1310    52513   47400      0    1.98e+00    0    8.02e-01
2002 08 27  1315    52513   47700      0    1.99e+00    0    8.24e-01
2002 08 27  1320    52513   48000      0    2.02e+00    0    7.99e-01
2002 08 27  1325    52513   48300      0    2.04e+00    0    8.22e-01
2002 08 27  1330    52513   48600      0    1.95e+00    0    7.87e-01
2002 08 27  1335    52513   48900      0    1.99e+00    0    8.14e-01
2002 08 27  1340    52513   49200      0    1.99e+00    0    8.18e-01
2002 08 27  1345    52513   49500      0    1.99e+00    0    8.08e-01
2002 08 27  1350    52513   49800      0    1.97e+00    0    8.17e-01
2002 08 27  1355    52513   50100      0    1.98e+00    0    8.11e-01
2002 08 27  1400    52513   50400      0    1.94e+00    0    7.92e-01
2002 08 27  1405    52513   50700      0    1.94e+00    0    7.78e-01
2002 08 27  1410    52513   51000      0    1.95e+00    0    7.86e-01
2002 08 27  1415    52513   51300      0    1.99e+00    0    8.09e-01
2002 08 27  1420    52513   51600      0    1.96e+00    0    7.86e-01
2002 08 27  1425    52513   51900      0    1.97e+00    0    8.27e-01
2002 08 27  1430    52513   52200      0    1.99e+00    0    8.34e-01
2002 08 27  1435    52513   52500      0    1.96e+00    0    8.00e-01
2002 08 27  1440    52513   52800      0    1.95e+00    0    8.02e-01
2002 08 27  1445    52513   53100      0    1.99e+00    0    8.07e-01
2002 08 27  1450    52513   53400      0    1.95e+00    0    8.12e-01
2002 08 27  1455    52513   53700      0    1.93e+00    0    7.67e-01
2002 08 27  1500    52513   54000      0    1.94e+00    0    8.24e-01
2002 08 27  1505    52513   54300      0    1.93e+00    0    7.92e-01
2002 08 27  1510    52513   54600      0    1.93e+00    0    7.97e-01
2002 08 27  1515    52513   54900      0    1.97e+00    0    8.20e-01
2002 08 27  1520    52513   55200      0    1.90e+00    0    7.79e-01
2002 08 27  1525    52513   55500      0    1.93e+00    0    7.95e-01
2002 08 27  1530    52513   55800      0    1.92e+00    0    7.91e-01
2002 08 27  1535    52513   56100      0    1.89e+00    0    8.08e-01
2002 08 27  1540    52513   56400      0    1.86e+00    0    7.78e-01
2002 08 27  1545    52513   56700      0    1.91e+00    0    8.00e-01
2002 08 27  1550    52513   57000      0    1.91e+00    0    8.01e-01
2002 08 27  1555    52513   57300      0    1.86e+00    0    7.77e-01
2002 08 27  1600    52513   57600      0    1.87e+00    0    8.04e-01
2002 08 27  1605    52513   57900      0    1.87e+00    0    7.84e-01
2002 08 27  1610    52513   58200      0    1.91e+00    0    8.03e-01
2002 08 27  1615    52513   58500      0    1.88e+00    0    7.82e-01
2002 08 27  1620    52513   58800      0    1.88e+00    0    7.89e-01
2002 08 27  1625    52513   59100      0    1.85e+00    0    7.81e-01
2002 08 27  1630    52513   59400      0    1.85e+00    0    7.81e-01
2002 08 27  1635    52513   59700      0    1.86e+00    0    7.82e-01
2002 08 27  1640    52513   60000      0    1.90e+00    0    7.89e-01
2002 08 27  1645    52513   60300      0    1.90e+00    0    7.91e-01
2002 08 27  1650    52513   60600      0    1.91e+00    0    8.03e-01
2002 08 27  1655    52513   60900      0    1.89e+00    0    8.09e-01
2002 08 27  1700    52513   61200      0    1.86e+00    0    7.72e-01
2002 08 27  1705    52513   61500      0    1.90e+00    0    7.92e-01
2002 08 27  1710    52513   61800      0    1.84e+00    0    7.72e-01
2002 08 27  1715    52513   62100      0    1.82e+00    0    7.71e-01
2002 08 27  1720    52513   62400      0    1.85e+00    0    7.84e-01
2002 08 27  1725    52513   62700      0    1.84e+00    0    7.92e-01
2002 08 27  1730    52513   63000      0    1.84e+00    0    7.88e-01
2002 08 27  1735    52513   63300      0    1.82e+00    0    7.80e-01
2002 08 27  1740    52513   63600      0    1.81e+00    0    7.79e-01
2002 08 27  1745    52513   63900      0    1.85e+00    0    7.87e-01
2002 08 27  1750    52513   64200      0    1.82e+00    0    7.77e-01
2002 08 27  1755    52513   64500      0    1.85e+00    0    7.77e-01
2002 08 27  1800    52513   64800      0    1.80e+00    0    7.74e-01
2002 08 27  1805    52513   65100      0    1.74e+00    0    7.42e-01
2002 08 27  1810    52513   65400      0    1.79e+00    0    7.76e-01
2002 08 27  1815    52513   65700      0    1.75e+00    0    7.56e-01
2002 08 27  1820    52513   66000      0    1.74e+00    0    7.37e-01
2002 08 27  1825    52513   66300      0    1.75e+00    0    7.56e-01
2002 08 27  1830    52513   66600      0    1.78e+00    0    7.89e-01
2002 08 27  1835    52513   66900      0    1.75e+00    0    7.64e-01
2002 08 27  1840    52513   67200      0    1.78e+00    0    7.84e-01
2002 08 27  1845    52513   67500      0    1.72e+00    0    7.50e-01
2002 08 27  1850    52513   67800      0    1.77e+00    0    7.59e-01
2002 08 27  1855    52513   68100      0    1.76e+00    0    7.88e-01
2002 08 27  1900    52513   68400      0    1.71e+00    0    7.53e-01
2002 08 27  1905    52513   68700      0    1.67e+00    0    7.27e-01
2002 08 27  1910    52513   69000      0    1.69e+00    0    7.41e-01
2002 08 27  1915    52513   69300      0    1.62e+00    0    7.32e-01
2002 08 27  1920    52513   69600      0    1.59e+00    0    7.30e-01
2002 08 27  1925    52513   69900      0    1.56e+00    0    7.16e-01
2002 08 27  1930    52513   70200      0    1.56e+00    0    7.16e-01
2002 08 27  1935    52513   70500      0    1.60e+00    0    7.38e-01
2002 08 27  1940    52513   70800      0    1.60e+00    0    7.33e-01
2002 08 27  1945    52513   71100      0    1.59e+00    0    7.12e-01
2002 08 27  1950    52513   71400      0    1.61e+00    0    7.46e-01
2002 08 27  1955    52513   71700      0    1.54e+00    0    7.12e-01
2002 08 27  2000    52513   72000      0    1.53e+00    0    7.18e-01
2002 08 27  2005    52513   72300      0    1.57e+00    0    7.23e-01
2002 08 27  2010    52513   72600      0    1.54e+00    0    7.20e-01
2002 08 27  2015    52513   72900      0    1.53e+00    0    7.15e-01
2002 08 27  2020    52513   73200      0    1.54e+00    0    7.16e-01
2002 08 27  2025    52513   73500      0    1.53e+00    0    7.18e-01
2002 08 27  2030    52513   73800      0    1.53e+00    0    7.27e-01
2002 08 27  2035    52513   74100      0    1.46e+00    0    6.78e-01
2002 08 27  2040    52513   74400      0    1.48e+00    0    7.01e-01
2002 08 27  2045    52513   74700      0    1.49e+00    0    7.03e-01
2002 08 27  2050    52513   75000      0    1.53e+00    0    7.27e-01
2002 08 27  2055    52513   75300      0    1.51e+00    0    7.07e-01
2002 08 27  2100    52513   75600      0    1.47e+00    0    7.02e-01
2002 08 27  2105    52513   75900      0    1.50e+00    0    7.12e-01
2002 08 27  2110    52513   76200      0    1.47e+00    0    7.25e-01
2002 08 27  2115    52513   76500      0    1.46e+00    0    7.14e-01
2002 08 27  2120    52513   76800      0    1.44e+00    0    7.10e-01
2002 08 27  2125    52513   77100      0    1.44e+00    0    6.94e-01
2002 08 27  2130    52513   77400      0    1.43e+00    0    7.03e-01
2002 08 27  2135    52513   77700      0    1.39e+00    0    6.82e-01
2002 08 27  2140    52513   78000      0    1.45e+00    0    7.01e-01
2002 08 27  2145    52513   78300      0    1.51e+00    0    7.52e-01
2002 08 27  2150    52513   78600      0    1.43e+00    0    6.96e-01
2002 08 27  2155    52513   78900      0    1.42e+00    0    7.12e-01
2002 08 27  2200    52513   79200      0    1.33e+00    0    6.60e-01
2002 08 27  2205    52513   79500      0    1.40e+00    0    6.94e-01
2002 08 27  2210    52513   79800      0    1.45e+00    0    7.22e-01
2002 08 27  2215    52513   80100      0    1.38e+00    0    6.85e-01
2002 08 27  2220    52513   80400      0    1.38e+00    0    6.86e-01
2002 08 27  2225    52513   80700      0    1.39e+00    0    6.91e-01
2002 08 27  2230    52513   81000      0    1.41e+00    0    6.97e-01
2002 08 27  2235    52513   81300      0    1.41e+00    0    7.08e-01
2002 08 27  2240    52513   81600      0    1.42e+00    0    7.03e-01
2002 08 27  2245    52513   81900      0    1.37e+00    0    6.85e-01
2002 08 27  2250    52513   82200      0    1.38e+00    0    6.97e-01
2002 08 27  2255    52513   82500      0    1.37e+00    0    6.98e-01
2002 08 27  2300    52513   82800      0    1.39e+00    0    7.11e-01
2002 08 27  2305    52513   83100      0    1.36e+00    0    6.92e-01
2002 08 27  2310    52513   83400      0    1.31e+00    0    6.61e-01
2002 08 27  2315    52513   83700      0    1.28e+00    0    6.64e-01
2002 08 27  2320    52513   84000      0    1.30e+00    0    6.79e-01
2002 08 27  2325    52513   84300      0    1.35e+00    0    7.27e-01
2002 08 27  2330    52513   84600      0    1.35e+00    0    6.94e-01
2002 08 27  2335    52513   84900      0    1.30e+00    0    6.78e-01
2002 08 27  2340    52513   85200      0    1.32e+00    0    6.78e-01
2002 08 27  2345    52513   85500      0    1.34e+00    0    6.90e-01
2002 08 27  2350    52513   85800      0    1.33e+00    0    6.85e-01
2002 08 27  2355    52513   86100      0    1.30e+00    0    6.59e-01
