:Data_list: 20020221_ace_sis_5m.txt
:Created: 2002 Feb 22 0011 UT
# Prepared by the U.S. Dept. of Commerce, NOAA, Space Environment Center.
# Please send comments and suggestions to sec@sec.noaa.gov 
# 
# Units: proton flux p/cs2-sec-ster
# Status(S): 0 = nominal data, 1 to 8 = bad data record, 9 = no data
# Missing data values: -1.00e+05
# Source: ACE Satellite - Solar Isotope Spectrometer
#
# 5-minute averaged Real-time Integral Flux of High-energy Solar Protons
# 
#                 Modified Seconds
# UT Date   Time   Julian  of the      ---- Integral Proton Flux ----
# YR MO DA  HHMM     Day     Day       S    > 10 MeV    S    > 30 MeV
#--------------------------------------------------------------------
2002 02 21  0000    52326       0      0    1.85e+00    0    7.46e-01
2002 02 21  0005    52326     300      0    1.79e+00    0    7.40e-01
2002 02 21  0010    52326     600      0    1.80e+00    0    7.41e-01
2002 02 21  0015    52326     900      0    1.78e+00    0    7.46e-01
2002 02 21  0020    52326    1200      0    1.70e+00    0    7.22e-01
2002 02 21  0025    52326    1500      0    1.74e+00    0    7.33e-01
2002 02 21  0030    52326    1800      0    1.73e+00    0    7.42e-01
2002 02 21  0035    52326    2100      0    1.72e+00    0    7.41e-01
2002 02 21  0040    52326    2400      0    1.74e+00    0    7.40e-01
2002 02 21  0045    52326    2700      0    1.75e+00    0    7.57e-01
2002 02 21  0050    52326    3000      0    1.73e+00    0    7.13e-01
2002 02 21  0055    52326    3300      0    1.74e+00    0    7.33e-01
2002 02 21  0100    52326    3600      0    1.77e+00    0    7.32e-01
2002 02 21  0105    52326    3900      0    1.65e+00    0    7.05e-01
2002 02 21  0110    52326    4200      0    1.69e+00    0    7.38e-01
2002 02 21  0115    52326    4500      0    1.69e+00    0    7.42e-01
2002 02 21  0120    52326    4800      0    1.69e+00    0    7.36e-01
2002 02 21  0125    52326    5100      0    1.65e+00    0    7.13e-01
2002 02 21  0130    52326    5400      0    1.70e+00    0    7.32e-01
2002 02 21  0135    52326    5700      0    1.63e+00    0    7.00e-01
2002 02 21  0140    52326    6000      0    1.65e+00    0    7.29e-01
2002 02 21  0145    52326    6300      0    1.67e+00    0    7.25e-01
2002 02 21  0150    52326    6600      0    1.69e+00    0    7.21e-01
2002 02 21  0155    52326    6900      0    1.64e+00    0    7.27e-01
2002 02 21  0200    52326    7200      0    1.64e+00    0    7.22e-01
2002 02 21  0205    52326    7500      0    1.66e+00    0    7.31e-01
2002 02 21  0210    52326    7800      0    1.61e+00    0    7.06e-01
2002 02 21  0215    52326    8100      0    1.62e+00    0    7.43e-01
2002 02 21  0220    52326    8400      0    1.60e+00    0    7.18e-01
2002 02 21  0225    52326    8700      0    1.57e+00    0    7.16e-01
2002 02 21  0230    52326    9000      0    1.57e+00    0    7.20e-01
2002 02 21  0235    52326    9300      0    1.57e+00    0    7.13e-01
2002 02 21  0240    52326    9600      0    1.60e+00    0    7.17e-01
2002 02 21  0245    52326    9900      0    1.59e+00    0    7.28e-01
2002 02 21  0250    52326   10200      0    1.57e+00    0    7.12e-01
2002 02 21  0255    52326   10500      0    1.53e+00    0    6.87e-01
2002 02 21  0300    52326   10800      0    1.62e+00    0    7.39e-01
2002 02 21  0305    52326   11100      0    1.57e+00    0    7.33e-01
2002 02 21  0310    52326   11400      0    1.55e+00    0    7.13e-01
2002 02 21  0315    52326   11700      0    1.54e+00    0    7.03e-01
2002 02 21  0320    52326   12000      0    1.54e+00    0    6.91e-01
2002 02 21  0325    52326   12300      0    1.54e+00    0    7.12e-01
2002 02 21  0330    52326   12600      0    1.57e+00    0    7.30e-01
2002 02 21  0335    52326   12900      0    1.56e+00    0    7.03e-01
2002 02 21  0340    52326   13200      0    1.56e+00    0    7.16e-01
2002 02 21  0345    52326   13500      0    1.54e+00    0    7.06e-01
2002 02 21  0350    52326   13800      0    1.54e+00    0    7.21e-01
2002 02 21  0355    52326   14100      0    1.50e+00    0    6.84e-01
2002 02 21  0400    52326   14400      0    1.51e+00    0    6.93e-01
2002 02 21  0405    52326   14700      0    1.55e+00    0    7.33e-01
2002 02 21  0410    52326   15000      0    1.51e+00    0    7.00e-01
2002 02 21  0415    52326   15300      0    1.48e+00    0    7.07e-01
2002 02 21  0420    52326   15600      0    1.48e+00    0    6.84e-01
2002 02 21  0425    52326   15900      0    1.47e+00    0    6.82e-01
2002 02 21  0430    52326   16200      0    1.48e+00    0    7.04e-01
2002 02 21  0435    52326   16500      0    1.49e+00    0    7.03e-01
2002 02 21  0440    52326   16800      0    1.48e+00    0    6.91e-01
2002 02 21  0445    52326   17100      0    1.50e+00    0    7.20e-01
2002 02 21  0450    52326   17400      0    1.45e+00    0    6.79e-01
2002 02 21  0455    52326   17700      0    1.47e+00    0    7.00e-01
2002 02 21  0500    52326   18000      0    1.47e+00    0    6.89e-01
2002 02 21  0505    52326   18300      0    1.46e+00    0    6.93e-01
2002 02 21  0510    52326   18600      0    1.46e+00    0    6.87e-01
2002 02 21  0515    52326   18900      0    1.44e+00    0    6.80e-01
2002 02 21  0520    52326   19200      0    1.43e+00    0    6.86e-01
2002 02 21  0525    52326   19500      0    1.48e+00    0    7.16e-01
2002 02 21  0530    52326   19800      0    1.45e+00    0    6.88e-01
2002 02 21  0535    52326   20100      0    1.43e+00    0    6.92e-01
2002 02 21  0540    52326   20400      0    1.46e+00    0    7.11e-01
2002 02 21  0545    52326   20700      0    1.45e+00    0    7.08e-01
2002 02 21  0550    52326   21000      0    1.49e+00    0    7.20e-01
2002 02 21  0555    52326   21300      0    1.48e+00    0    7.02e-01
2002 02 21  0600    52326   21600      0    1.47e+00    0    7.15e-01
2002 02 21  0605    52326   21900      0    1.43e+00    0    6.99e-01
2002 02 21  0610    52326   22200      0    1.42e+00    0    6.99e-01
2002 02 21  0615    52326   22500      0    1.42e+00    0    6.80e-01
2002 02 21  0620    52326   22800      0    1.41e+00    0    7.04e-01
2002 02 21  0625    52326   23100      0    1.42e+00    0    7.03e-01
2002 02 21  0630    52326   23400      0    1.42e+00    0    6.91e-01
2002 02 21  0635    52326   23700      0    1.41e+00    0    6.93e-01
2002 02 21  0640    52326   24000      0    1.39e+00    0    6.76e-01
2002 02 21  0645    52326   24300      0    1.37e+00    0    6.86e-01
2002 02 21  0650    52326   24600      0    1.38e+00    0    6.89e-01
2002 02 21  0655    52326   24900      0    1.38e+00    0    6.88e-01
2002 02 21  0700    52326   25200      0    1.43e+00    0    7.11e-01
2002 02 21  0705    52326   25500      0    1.39e+00    0    6.86e-01
2002 02 21  0710    52326   25800      0    1.40e+00    0    7.13e-01
2002 02 21  0715    52326   26100      0    1.39e+00    0    6.96e-01
2002 02 21  0720    52326   26400      0    1.37e+00    0    6.97e-01
2002 02 21  0725    52326   26700      0    1.34e+00    0    6.64e-01
2002 02 21  0730    52326   27000      0    1.33e+00    0    6.65e-01
2002 02 21  0735    52326   27300      0    1.32e+00    0    6.73e-01
2002 02 21  0740    52326   27600      0    1.35e+00    0    6.99e-01
2002 02 21  0745    52326   27900      0    1.35e+00    0    6.93e-01
2002 02 21  0750    52326   28200      0    1.36e+00    0    6.88e-01
2002 02 21  0755    52326   28500      0    1.31e+00    0    6.63e-01
2002 02 21  0800    52326   28800      0    1.34e+00    0    6.88e-01
2002 02 21  0805    52326   29100      0    1.33e+00    0    6.81e-01
2002 02 21  0810    52326   29400      0    1.29e+00    0    6.77e-01
2002 02 21  0815    52326   29700      0    1.33e+00    0    6.87e-01
2002 02 21  0820    52326   30000      0    1.34e+00    0    6.86e-01
2002 02 21  0825    52326   30300      0    1.30e+00    0    6.76e-01
2002 02 21  0830    52326   30600      0    1.31e+00    0    6.84e-01
2002 02 21  0835    52326   30900      0    1.33e+00    0    6.83e-01
2002 02 21  0840    52326   31200      0    1.32e+00    0    6.70e-01
2002 02 21  0845    52326   31500      0    1.32e+00    0    6.88e-01
2002 02 21  0850    52326   31800      0    1.31e+00    0    6.89e-01
2002 02 21  0855    52326   32100      0    1.32e+00    0    6.90e-01
2002 02 21  0900    52326   32400      0    1.32e+00    0    6.89e-01
2002 02 21  0905    52326   32700      0    1.32e+00    0    6.97e-01
2002 02 21  0910    52326   33000      0    1.29e+00    0    6.72e-01
2002 02 21  0915    52326   33300      0    1.29e+00    0    6.89e-01
2002 02 21  0920    52326   33600      0    1.32e+00    0    7.01e-01
2002 02 21  0925    52326   33900      0    1.30e+00    0    6.88e-01
2002 02 21  0930    52326   34200      0    1.26e+00    0    6.72e-01
2002 02 21  0935    52326   34500      0    1.27e+00    0    6.77e-01
2002 02 21  0940    52326   34800      0    1.27e+00    0    6.83e-01
2002 02 21  0945    52326   35100      0    1.32e+00    0    7.08e-01
2002 02 21  0950    52326   35400      0    1.27e+00    0    6.72e-01
2002 02 21  0955    52326   35700      0    1.28e+00    0    6.82e-01
2002 02 21  1000    52326   36000      0    1.28e+00    0    6.82e-01
2002 02 21  1005    52326   36300      0    1.27e+00    0    6.78e-01
2002 02 21  1010    52326   36600      0    1.26e+00    0    6.63e-01
2002 02 21  1015    52326   36900      0    1.26e+00    0    6.74e-01
2002 02 21  1020    52326   37200      0    1.26e+00    0    6.74e-01
2002 02 21  1025    52326   37500      0    1.27e+00    0    6.86e-01
2002 02 21  1030    52326   37800      0    1.25e+00    0    6.69e-01
2002 02 21  1035    52326   38100      0    1.30e+00    0    7.12e-01
2002 02 21  1040    52326   38400      0    1.27e+00    0    6.85e-01
2002 02 21  1045    52326   38700      0    1.25e+00    0    6.74e-01
2002 02 21  1050    52326   39000      0    1.25e+00    0    6.77e-01
2002 02 21  1055    52326   39300      0    1.27e+00    0    6.84e-01
2002 02 21  1100    52326   39600      0    1.25e+00    0    6.55e-01
2002 02 21  1105    52326   39900      0    1.27e+00    0    6.90e-01
2002 02 21  1110    52326   40200      0    1.33e+00    0    7.14e-01
2002 02 21  1115    52326   40500      0    1.22e+00    0    6.72e-01
2002 02 21  1120    52326   40800      0    1.25e+00    0    6.80e-01
2002 02 21  1125    52326   41100      0    1.23e+00    0    6.86e-01
2002 02 21  1130    52326   41400      0    1.21e+00    0    6.82e-01
2002 02 21  1135    52326   41700      0    1.19e+00    0    6.70e-01
2002 02 21  1140    52326   42000      0    1.19e+00    0    6.59e-01
2002 02 21  1145    52326   42300      0    1.19e+00    0    6.56e-01
2002 02 21  1150    52326   42600      0    1.17e+00    0    6.54e-01
2002 02 21  1155    52326   42900      0    1.16e+00    0    6.57e-01
2002 02 21  1200    52326   43200      0    1.19e+00    0    6.60e-01
2002 02 21  1205    52326   43500      0    1.20e+00    0    6.87e-01
2002 02 21  1210    52326   43800      0    1.20e+00    0    6.70e-01
2002 02 21  1215    52326   44100      0    1.21e+00    0    6.74e-01
2002 02 21  1220    52326   44400      0    1.20e+00    0    6.73e-01
2002 02 21  1225    52326   44700      0    1.18e+00    0    6.65e-01
2002 02 21  1230    52326   45000      0    1.20e+00    0    6.86e-01
2002 02 21  1235    52326   45300      0    1.19e+00    0    6.80e-01
2002 02 21  1240    52326   45600      0    1.17e+00    0    6.55e-01
2002 02 21  1245    52326   45900      0    1.18e+00    0    6.69e-01
2002 02 21  1250    52326   46200      0    1.18e+00    0    6.71e-01
2002 02 21  1255    52326   46500      0    1.16e+00    0    6.49e-01
2002 02 21  1300    52326   46800      0    1.16e+00    0    6.62e-01
2002 02 21  1305    52326   47100      0    1.15e+00    0    6.42e-01
2002 02 21  1310    52326   47400      0    1.14e+00    0    6.47e-01
2002 02 21  1315    52326   47700      0    1.07e+00    0    6.19e-01
2002 02 21  1320    52326   48000      0    1.12e+00    0    6.41e-01
2002 02 21  1325    52326   48300      0    1.16e+00    0    6.72e-01
2002 02 21  1330    52326   48600      0    1.14e+00    0    6.49e-01
2002 02 21  1335    52326   48900      0    1.17e+00    0    6.67e-01
2002 02 21  1340    52326   49200      0    1.15e+00    0    6.60e-01
2002 02 21  1345    52326   49500      0    1.12e+00    0    6.48e-01
2002 02 21  1350    52326   49800      0    1.13e+00    0    6.50e-01
2002 02 21  1355    52326   50100      0    1.15e+00    0    6.52e-01
2002 02 21  1400    52326   50400      0    1.15e+00    0    6.66e-01
2002 02 21  1405    52326   50700      0    1.11e+00    0    6.54e-01
2002 02 21  1410    52326   51000      0    1.13e+00    0    6.49e-01
2002 02 21  1415    52326   51300      0    1.13e+00    0    6.57e-01
2002 02 21  1420    52326   51600      0    1.12e+00    0    6.44e-01
2002 02 21  1425    52326   51900      0    1.12e+00    0    6.37e-01
2002 02 21  1430    52326   52200      0    1.16e+00    0    6.73e-01
2002 02 21  1435    52326   52500      0    1.15e+00    0    6.64e-01
2002 02 21  1440    52326   52800      0    1.11e+00    0    6.53e-01
2002 02 21  1445    52326   53100      0    1.12e+00    0    6.58e-01
2002 02 21  1450    52326   53400      0    1.14e+00    0    6.70e-01
2002 02 21  1455    52326   53700      0    9.65e-01    0    5.72e-01
2002 02 21  1500    52326   54000      9   -1.00e+05    9   -1.00e+05
2002 02 21  1505    52326   54300      0    1.08e+00    0    6.29e-01
2002 02 21  1510    52326   54600      0    1.11e+00    0    6.61e-01
2002 02 21  1515    52326   54900      0    1.11e+00    0    6.48e-01
2002 02 21  1520    52326   55200      0    1.10e+00    0    6.44e-01
2002 02 21  1525    52326   55500      0    1.11e+00    0    6.61e-01
2002 02 21  1530    52326   55800      0    1.10e+00    0    6.48e-01
2002 02 21  1535    52326   56100      0    1.08e+00    0    6.25e-01
2002 02 21  1540    52326   56400      0    1.10e+00    0    6.46e-01
2002 02 21  1545    52326   56700      0    1.11e+00    0    6.44e-01
2002 02 21  1550    52326   57000      0    1.11e+00    0    6.49e-01
2002 02 21  1555    52326   57300      0    1.09e+00    0    6.43e-01
2002 02 21  1600    52326   57600      0    1.09e+00    0    6.44e-01
2002 02 21  1605    52326   57900      0    1.07e+00    0    6.31e-01
2002 02 21  1610    52326   58200      0    1.09e+00    0    6.40e-01
2002 02 21  1615    52326   58500      0    1.09e+00    0    6.53e-01
2002 02 21  1620    52326   58800      0    1.11e+00    0    6.64e-01
2002 02 21  1625    52326   59100      0    1.11e+00    0    6.61e-01
2002 02 21  1630    52326   59400      0    1.13e+00    0    6.79e-01
2002 02 21  1635    52326   59700      0    1.09e+00    0    6.44e-01
2002 02 21  1640    52326   60000      0    1.07e+00    0    6.29e-01
2002 02 21  1645    52326   60300      0    1.09e+00    0    6.48e-01
2002 02 21  1650    52326   60600      0    1.10e+00    0    6.64e-01
2002 02 21  1655    52326   60900      0    1.09e+00    0    6.49e-01
2002 02 21  1700    52326   61200      0    1.09e+00    0    6.54e-01
2002 02 21  1705    52326   61500      0    1.06e+00    0    6.26e-01
2002 02 21  1710    52326   61800      0    1.10e+00    0    6.60e-01
2002 02 21  1715    52326   62100      0    1.07e+00    0    6.46e-01
2002 02 21  1720    52326   62400      0    1.07e+00    0    6.36e-01
2002 02 21  1725    52326   62700      0    1.06e+00    0    6.36e-01
2002 02 21  1730    52326   63000      0    1.06e+00    0    6.48e-01
2002 02 21  1735    52326   63300      0    1.10e+00    0    6.46e-01
2002 02 21  1740    52326   63600      0    1.07e+00    0    6.47e-01
2002 02 21  1745    52326   63900      0    1.07e+00    0    6.48e-01
2002 02 21  1750    52326   64200      0    1.09e+00    0    6.57e-01
2002 02 21  1755    52326   64500      0    1.07e+00    0    6.49e-01
2002 02 21  1800    52326   64800      0    1.07e+00    0    6.41e-01
2002 02 21  1805    52326   65100      0    1.08e+00    0    6.57e-01
2002 02 21  1810    52326   65400      0    1.08e+00    0    6.55e-01
2002 02 21  1815    52326   65700      0    1.07e+00    0    6.43e-01
2002 02 21  1820    52326   66000      0    1.08e+00    0    6.46e-01
2002 02 21  1825    52326   66300      0    1.08e+00    0    6.54e-01
2002 02 21  1830    52326   66600      0    1.08e+00    0    6.48e-01
2002 02 21  1835    52326   66900      0    1.07e+00    0    6.50e-01
2002 02 21  1840    52326   67200      0    1.08e+00    0    6.68e-01
2002 02 21  1845    52326   67500      0    1.05e+00    0    6.24e-01
2002 02 21  1850    52326   67800      0    1.06e+00    0    6.31e-01
2002 02 21  1855    52326   68100      0    1.07e+00    0    6.53e-01
2002 02 21  1900    52326   68400      0    1.06e+00    0    6.42e-01
2002 02 21  1905    52326   68700      0    1.05e+00    0    6.44e-01
2002 02 21  1910    52326   69000      0    1.07e+00    0    6.58e-01
2002 02 21  1915    52326   69300      0    1.05e+00    0    6.39e-01
2002 02 21  1920    52326   69600      0    1.08e+00    0    6.54e-01
2002 02 21  1925    52326   69900      0    1.07e+00    0    6.48e-01
2002 02 21  1930    52326   70200      0    1.05e+00    0    6.44e-01
2002 02 21  1935    52326   70500      0    1.06e+00    0    6.59e-01
2002 02 21  1940    52326   70800      0    1.04e+00    0    6.38e-01
2002 02 21  1945    52326   71100      0    1.04e+00    0    6.29e-01
2002 02 21  1950    52326   71400      0    1.04e+00    0    6.36e-01
2002 02 21  1955    52326   71700      0    1.05e+00    0    6.37e-01
2002 02 21  2000    52326   72000      0    1.04e+00    0    6.40e-01
2002 02 21  2005    52326   72300      0    1.08e+00    0    6.57e-01
2002 02 21  2010    52326   72600      0    1.04e+00    0    6.43e-01
2002 02 21  2015    52326   72900      0    9.87e-01    0    6.07e-01
2002 02 21  2020    52326   73200      0    1.03e+00    0    6.27e-01
2002 02 21  2025    52326   73500      0    1.04e+00    0    6.40e-01
2002 02 21  2030    52326   73800      0    1.05e+00    0    6.46e-01
2002 02 21  2035    52326   74100      0    1.06e+00    0    6.59e-01
2002 02 21  2040    52326   74400      0    1.03e+00    0    6.39e-01
2002 02 21  2045    52326   74700      0    1.03e+00    0    6.31e-01
2002 02 21  2050    52326   75000      0    1.04e+00    0    6.53e-01
2002 02 21  2055    52326   75300      0    1.03e+00    0    6.38e-01
2002 02 21  2100    52326   75600      0    1.04e+00    0    6.42e-01
2002 02 21  2105    52326   75900      0    1.01e+00    0    6.27e-01
2002 02 21  2110    52326   76200      0    1.03e+00    0    6.39e-01
2002 02 21  2115    52326   76500      0    1.02e+00    0    6.27e-01
2002 02 21  2120    52326   76800      0    1.03e+00    0    6.37e-01
2002 02 21  2125    52326   77100      0    1.04e+00    0    6.42e-01
2002 02 21  2130    52326   77400      0    1.02e+00    0    6.31e-01
2002 02 21  2135    52326   77700      0    1.01e+00    0    6.21e-01
2002 02 21  2140    52326   78000      0    1.03e+00    0    6.38e-01
2002 02 21  2145    52326   78300      0    1.01e+00    0    6.27e-01
2002 02 21  2150    52326   78600      0    1.02e+00    0    6.52e-01
2002 02 21  2155    52326   78900      0    1.02e+00    0    6.36e-01
2002 02 21  2200    52326   79200      0    1.04e+00    0    6.55e-01
2002 02 21  2205    52326   79500      0    1.00e+00    0    6.29e-01
2002 02 21  2210    52326   79800      0    1.05e+00    0    6.45e-01
2002 02 21  2215    52326   80100      0    1.04e+00    0    6.53e-01
2002 02 21  2220    52326   80400      0    1.03e+00    0    6.56e-01
2002 02 21  2225    52326   80700      0    1.02e+00    0    6.38e-01
2002 02 21  2230    52326   81000      0    1.01e+00    0    6.32e-01
2002 02 21  2235    52326   81300      0    1.01e+00    0    6.31e-01
2002 02 21  2240    52326   81600      0    1.03e+00    0    6.41e-01
2002 02 21  2245    52326   81900      0    1.04e+00    0    6.54e-01
2002 02 21  2250    52326   82200      0    1.02e+00    0    6.46e-01
2002 02 21  2255    52326   82500      0    1.03e+00    0    6.47e-01
2002 02 21  2300    52326   82800      0    1.00e+00    0    6.27e-01
2002 02 21  2305    52326   83100      0    1.01e+00    0    6.45e-01
2002 02 21  2310    52326   83400      0    9.92e-01    0    6.21e-01
2002 02 21  2315    52326   83700      0    1.03e+00    0    6.43e-01
2002 02 21  2320    52326   84000      0    1.03e+00    0    6.55e-01
2002 02 21  2325    52326   84300      0    1.00e+00    0    6.30e-01
2002 02 21  2330    52326   84600      0    1.01e+00    0    6.41e-01
2002 02 21  2335    52326   84900      0    1.03e+00    0    6.39e-01
2002 02 21  2340    52326   85200      0    1.03e+00    0    6.44e-01
2002 02 21  2345    52326   85500      0    1.01e+00    0    6.36e-01
2002 02 21  2350    52326   85800      0    1.01e+00    0    6.37e-01
2002 02 21  2355    52326   86100      0    1.01e+00    0    6.43e-01
