:Data_list: 20020105_ace_sis_5m.txt
:Created: 2002 Jan 06 0011 UT
# Prepared by the U.S. Dept. of Commerce, NOAA, Space Environment Center.
# Please send comments and suggestions to sec@sec.noaa.gov 
# 
# Units: proton flux p/cs2-sec-ster
# Status(S): 0 = nominal data, 1 to 8 = bad data record, 9 = no data
# Missing data values: -1.00e+05
# Source: ACE Satellite - Solar Isotope Spectrometer
#
# 5-minute averaged Real-time Integral Flux of High-energy Solar Protons
# 
#                 Modified Seconds
# UT Date   Time   Julian  of the      ---- Integral Proton Flux ----
# YR MO DA  HHMM     Day     Day       S    > 10 MeV    S    > 30 MeV
#--------------------------------------------------------------------
2002 01 05  0000    52279       0      0    9.84e+00    0    7.85e-01
2002 01 05  0005    52279     300      0    1.02e+01    0    8.50e-01
2002 01 05  0010    52279     600      0    1.02e+01    0    7.81e-01
2002 01 05  0015    52279     900      0    9.89e+00    0    7.77e-01
2002 01 05  0020    52279    1200      0    1.01e+01    0    7.74e-01
2002 01 05  0025    52279    1500      0    9.74e+00    0    8.68e-01
2002 01 05  0030    52279    1800      0    9.69e+00    0    7.89e-01
2002 01 05  0035    52279    2100      0    9.68e+00    0    8.39e-01
2002 01 05  0040    52279    2400      0    9.38e+00    0    7.70e-01
2002 01 05  0045    52279    2700      0    9.67e+00    0    7.88e-01
2002 01 05  0050    52279    3000      0    9.81e+00    0    7.57e-01
2002 01 05  0055    52279    3300      0    9.72e+00    0    7.80e-01
2002 01 05  0100    52279    3600      0    1.01e+01    0    8.51e-01
2002 01 05  0105    52279    3900      0    9.66e+00    0    8.47e-01
2002 01 05  0110    52279    4200      0    1.02e+01    0    8.74e-01
2002 01 05  0115    52279    4500      0    9.67e+00    0    7.74e-01
2002 01 05  0120    52279    4800      0    9.11e+00    0    7.52e-01
2002 01 05  0125    52279    5100      0    9.59e+00    0    8.23e-01
2002 01 05  0130    52279    5400      0    9.57e+00    0    7.59e-01
2002 01 05  0135    52279    5700      0    9.39e+00    0    8.40e-01
2002 01 05  0140    52279    6000      0    9.04e+00    0    7.69e-01
2002 01 05  0145    52279    6300      0    9.00e+00    0    7.51e-01
2002 01 05  0150    52279    6600      0    9.00e+00    0    7.79e-01
2002 01 05  0155    52279    6900      0    8.94e+00    0    7.29e-01
2002 01 05  0200    52279    7200      0    8.89e+00    0    7.27e-01
2002 01 05  0205    52279    7500      0    9.62e+00    0    8.52e-01
2002 01 05  0210    52279    7800      0    9.22e+00    0    7.66e-01
2002 01 05  0215    52279    8100      0    8.89e+00    0    7.83e-01
2002 01 05  0220    52279    8400      0    8.96e+00    0    7.89e-01
2002 01 05  0225    52279    8700      0    9.42e+00    0    7.88e-01
2002 01 05  0230    52279    9000      0    9.24e+00    0    8.63e-01
2002 01 05  0235    52279    9300      0    9.07e+00    0    7.51e-01
2002 01 05  0240    52279    9600      0    8.75e+00    0    7.12e-01
2002 01 05  0245    52279    9900      0    8.74e+00    0    7.16e-01
2002 01 05  0250    52279   10200      0    8.66e+00    0    7.59e-01
2002 01 05  0255    52279   10500      0    8.94e+00    0    7.84e-01
2002 01 05  0300    52279   10800      0    1.03e+01    0    8.43e-01
2002 01 05  0305    52279   11100      0    1.14e+01    0    1.03e+00
2002 01 05  0310    52279   11400      0    1.02e+01    0    9.12e-01
2002 01 05  0315    52279   11700      0    1.02e+01    0    8.58e-01
2002 01 05  0320    52279   12000      0    9.01e+00    0    7.52e-01
2002 01 05  0325    52279   12300      0    9.02e+00    0    8.19e-01
2002 01 05  0330    52279   12600      0    8.95e+00    0    8.31e-01
2002 01 05  0335    52279   12900      0    8.82e+00    0    7.71e-01
2002 01 05  0340    52279   13200      0    8.82e+00    0    7.87e-01
2002 01 05  0345    52279   13500      0    9.45e+00    0    8.56e-01
2002 01 05  0350    52279   13800      0    8.95e+00    0    7.91e-01
2002 01 05  0355    52279   14100      0    8.61e+00    0    7.62e-01
2002 01 05  0400    52279   14400      0    8.57e+00    0    7.72e-01
2002 01 05  0405    52279   14700      0    8.71e+00    0    7.74e-01
2002 01 05  0410    52279   15000      0    9.50e+00    0    9.09e-01
2002 01 05  0415    52279   15300      0    9.71e+00    0    8.45e-01
2002 01 05  0420    52279   15600      0    8.87e+00    0    7.94e-01
2002 01 05  0425    52279   15900      0    8.77e+00    0    8.62e-01
2002 01 05  0430    52279   16200      0    8.87e+00    0    7.69e-01
2002 01 05  0435    52279   16500      0    8.81e+00    0    7.81e-01
2002 01 05  0440    52279   16800      0    8.84e+00    0    8.04e-01
2002 01 05  0445    52279   17100      0    8.80e+00    0    7.41e-01
2002 01 05  0450    52279   17400      0    8.73e+00    0    7.50e-01
2002 01 05  0455    52279   17700      0    9.35e+00    0    8.13e-01
2002 01 05  0500    52279   18000      0    8.84e+00    0    7.94e-01
2002 01 05  0505    52279   18300      0    8.73e+00    0    7.96e-01
2002 01 05  0510    52279   18600      0    8.68e+00    0    7.52e-01
2002 01 05  0515    52279   18900      0    8.62e+00    0    7.93e-01
2002 01 05  0520    52279   19200      0    8.91e+00    0    7.84e-01
2002 01 05  0525    52279   19500      0    9.35e+00    0    8.28e-01
2002 01 05  0530    52279   19800      0    8.61e+00    0    7.80e-01
2002 01 05  0535    52279   20100      0    8.40e+00    0    7.91e-01
2002 01 05  0540    52279   20400      0    8.30e+00    0    7.36e-01
2002 01 05  0545    52279   20700      0    8.48e+00    0    8.19e-01
2002 01 05  0550    52279   21000      0    8.76e+00    0    8.47e-01
2002 01 05  0555    52279   21300      0    8.91e+00    0    8.29e-01
2002 01 05  0600    52279   21600      0    8.41e+00    0    8.20e-01
2002 01 05  0605    52279   21900      0    8.31e+00    0    8.41e-01
2002 01 05  0610    52279   22200      0    8.37e+00    0    8.13e-01
2002 01 05  0615    52279   22500      0    8.17e+00    0    7.90e-01
2002 01 05  0620    52279   22800      0    8.41e+00    0    8.41e-01
2002 01 05  0625    52279   23100      0    8.08e+00    0    7.74e-01
2002 01 05  0630    52279   23400      0    8.36e+00    0    7.59e-01
2002 01 05  0635    52279   23700      0    8.46e+00    0    7.53e-01
2002 01 05  0640    52279   24000      0    8.43e+00    0    7.63e-01
2002 01 05  0645    52279   24300      0    8.12e+00    0    8.16e-01
2002 01 05  0650    52279   24600      0    8.01e+00    0    7.33e-01
2002 01 05  0655    52279   24900      0    8.02e+00    0    7.87e-01
2002 01 05  0700    52279   25200      0    8.14e+00    0    7.50e-01
2002 01 05  0705    52279   25500      0    8.40e+00    0    7.64e-01
2002 01 05  0710    52279   25800      0    8.46e+00    0    7.85e-01
2002 01 05  0715    52279   26100      0    8.48e+00    0    7.97e-01
2002 01 05  0720    52279   26400      0    7.99e+00    0    8.02e-01
2002 01 05  0725    52279   26700      0    8.33e+00    0    8.07e-01
2002 01 05  0730    52279   27000      0    8.21e+00    0    7.77e-01
2002 01 05  0735    52279   27300      0    8.06e+00    0    7.81e-01
2002 01 05  0740    52279   27600      0    8.04e+00    0    7.45e-01
2002 01 05  0745    52279   27900      0    7.95e+00    0    7.00e-01
2002 01 05  0750    52279   28200      0    7.93e+00    0    7.79e-01
2002 01 05  0755    52279   28500      0    7.99e+00    0    7.77e-01
2002 01 05  0800    52279   28800      0    7.95e+00    0    7.68e-01
2002 01 05  0805    52279   29100      0    7.82e+00    0    7.60e-01
2002 01 05  0810    52279   29400      0    8.62e+00    0    8.48e-01
2002 01 05  0815    52279   29700      0    8.29e+00    0    8.06e-01
2002 01 05  0820    52279   30000      0    8.19e+00    0    7.83e-01
2002 01 05  0825    52279   30300      0    8.17e+00    0    8.01e-01
2002 01 05  0830    52279   30600      0    7.89e+00    0    8.21e-01
2002 01 05  0835    52279   30900      0    8.06e+00    0    8.21e-01
2002 01 05  0840    52279   31200      0    8.12e+00    0    8.40e-01
2002 01 05  0845    52279   31500      0    7.94e+00    0    8.38e-01
2002 01 05  0850    52279   31800      0    7.66e+00    0    7.21e-01
2002 01 05  0855    52279   32100      0    7.78e+00    0    7.87e-01
2002 01 05  0900    52279   32400      0    7.84e+00    0    8.16e-01
2002 01 05  0905    52279   32700      0    7.86e+00    0    7.36e-01
2002 01 05  0910    52279   33000      0    8.01e+00    0    7.69e-01
2002 01 05  0915    52279   33300      0    7.82e+00    0    7.99e-01
2002 01 05  0920    52279   33600      0    7.67e+00    0    7.38e-01
2002 01 05  0925    52279   33900      0    7.87e+00    0    7.96e-01
2002 01 05  0930    52279   34200      0    8.03e+00    0    8.77e-01
2002 01 05  0935    52279   34500      0    8.54e+00    0    8.04e-01
2002 01 05  0940    52279   34800      0    8.36e+00    0    7.82e-01
2002 01 05  0945    52279   35100      0    7.82e+00    0    7.77e-01
2002 01 05  0950    52279   35400      0    7.53e+00    0    7.39e-01
2002 01 05  0955    52279   35700      0    7.39e+00    0    7.70e-01
2002 01 05  1000    52279   36000      0    7.59e+00    0    7.53e-01
2002 01 05  1005    52279   36300      0    7.67e+00    0    7.92e-01
2002 01 05  1010    52279   36600      0    8.29e+00    0    8.50e-01
2002 01 05  1015    52279   36900      0    8.40e+00    0    8.51e-01
2002 01 05  1020    52279   37200      0    7.86e+00    0    7.56e-01
2002 01 05  1025    52279   37500      0    7.62e+00    0    7.52e-01
2002 01 05  1030    52279   37800      0    7.73e+00    0    7.74e-01
2002 01 05  1035    52279   38100      0    7.99e+00    0    8.20e-01
2002 01 05  1040    52279   38400      0    8.96e+00    0    8.41e-01
2002 01 05  1045    52279   38700      0    8.17e+00    0    8.14e-01
2002 01 05  1050    52279   39000      0    7.99e+00    0    8.19e-01
2002 01 05  1055    52279   39300      0    8.14e+00    0    8.61e-01
2002 01 05  1100    52279   39600      0    7.59e+00    0    7.87e-01
2002 01 05  1105    52279   39900      0    7.38e+00    0    7.41e-01
2002 01 05  1110    52279   40200      0    7.24e+00    0    7.46e-01
2002 01 05  1115    52279   40500      0    7.34e+00    0    7.66e-01
2002 01 05  1120    52279   40800      0    7.63e+00    0    7.63e-01
2002 01 05  1125    52279   41100      0    7.34e+00    0    7.89e-01
2002 01 05  1130    52279   41400      0    7.33e+00    0    6.90e-01
2002 01 05  1135    52279   41700      0    7.68e+00    0    7.65e-01
2002 01 05  1140    52279   42000      0    7.54e+00    0    7.68e-01
2002 01 05  1145    52279   42300      0    7.56e+00    0    8.12e-01
2002 01 05  1150    52279   42600      0    7.26e+00    0    7.88e-01
2002 01 05  1155    52279   42900      0    7.25e+00    0    7.54e-01
2002 01 05  1200    52279   43200      0    7.65e+00    0    7.82e-01
2002 01 05  1205    52279   43500      0    7.55e+00    0    8.13e-01
2002 01 05  1210    52279   43800      0    7.43e+00    0    7.53e-01
2002 01 05  1215    52279   44100      0    7.46e+00    0    8.21e-01
2002 01 05  1220    52279   44400      0    7.37e+00    0    7.97e-01
2002 01 05  1225    52279   44700      0    7.37e+00    0    7.58e-01
2002 01 05  1230    52279   45000      0    7.46e+00    0    8.35e-01
2002 01 05  1235    52279   45300      0    7.22e+00    0    7.27e-01
2002 01 05  1240    52279   45600      0    7.70e+00    0    8.28e-01
2002 01 05  1245    52279   45900      0    7.25e+00    0    7.28e-01
2002 01 05  1250    52279   46200      0    7.40e+00    0    7.23e-01
2002 01 05  1255    52279   46500      0    7.32e+00    0    8.04e-01
2002 01 05  1300    52279   46800      0    7.26e+00    0    7.74e-01
2002 01 05  1305    52279   47100      0    7.51e+00    0    7.68e-01
2002 01 05  1310    52279   47400      0    7.42e+00    0    7.78e-01
2002 01 05  1315    52279   47700      0    7.64e+00    0    7.44e-01
2002 01 05  1320    52279   48000      0    7.62e+00    0    8.27e-01
2002 01 05  1325    52279   48300      0    7.30e+00    0    7.46e-01
2002 01 05  1330    52279   48600      0    7.36e+00    0    8.01e-01
2002 01 05  1335    52279   48900      0    7.29e+00    0    7.32e-01
2002 01 05  1340    52279   49200      0    7.48e+00    0    7.56e-01
2002 01 05  1345    52279   49500      0    7.71e+00    0    8.00e-01
2002 01 05  1350    52279   49800      0    7.55e+00    0    7.91e-01
2002 01 05  1355    52279   50100      0    7.68e+00    0    8.39e-01
2002 01 05  1400    52279   50400      0    7.37e+00    0    8.05e-01
2002 01 05  1405    52279   50700      0    7.54e+00    0    8.24e-01
2002 01 05  1410    52279   51000      0    7.23e+00    0    7.98e-01
2002 01 05  1415    52279   51300      0    7.43e+00    0    7.62e-01
2002 01 05  1420    52279   51600      0    7.54e+00    0    8.09e-01
2002 01 05  1425    52279   51900      0    7.08e+00    0    7.17e-01
2002 01 05  1430    52279   52200      0    7.01e+00    0    7.74e-01
2002 01 05  1435    52279   52500      0    6.94e+00    0    7.69e-01
2002 01 05  1440    52279   52800      0    6.95e+00    0    7.98e-01
2002 01 05  1445    52279   53100      0    7.15e+00    0    7.59e-01
2002 01 05  1450    52279   53400      0    7.01e+00    0    7.13e-01
2002 01 05  1455    52279   53700      0    7.17e+00    0    8.07e-01
2002 01 05  1500    52279   54000      0    7.22e+00    0    7.96e-01
2002 01 05  1505    52279   54300      0    7.30e+00    0    8.00e-01
2002 01 05  1510    52279   54600      0    7.63e+00    0    8.34e-01
2002 01 05  1515    52279   54900      0    6.84e+00    0    7.76e-01
2002 01 05  1520    52279   55200      0    6.96e+00    0    7.82e-01
2002 01 05  1525    52279   55500      0    6.89e+00    0    7.27e-01
2002 01 05  1530    52279   55800      0    6.66e+00    0    7.38e-01
2002 01 05  1535    52279   56100      0    7.10e+00    0    7.86e-01
2002 01 05  1540    52279   56400      0    7.21e+00    0    7.46e-01
2002 01 05  1545    52279   56700      0    7.66e+00    0    8.60e-01
2002 01 05  1550    52279   57000      0    7.14e+00    0    7.78e-01
2002 01 05  1555    52279   57300      0    7.05e+00    0    7.41e-01
2002 01 05  1600    52279   57600      0    7.12e+00    0    7.35e-01
2002 01 05  1605    52279   57900      0    7.05e+00    0    7.71e-01
2002 01 05  1610    52279   58200      0    6.80e+00    0    7.22e-01
2002 01 05  1615    52279   58500      0    7.32e+00    0    8.08e-01
2002 01 05  1620    52279   58800      0    6.95e+00    0    7.71e-01
2002 01 05  1625    52279   59100      0    7.05e+00    0    8.04e-01
2002 01 05  1630    52279   59400      0    6.94e+00    0    7.35e-01
2002 01 05  1635    52279   59700      0    6.83e+00    0    7.63e-01
2002 01 05  1640    52279   60000      0    7.03e+00    0    7.42e-01
2002 01 05  1645    52279   60300      0    6.97e+00    0    7.56e-01
2002 01 05  1650    52279   60600      0    7.01e+00    0    7.76e-01
2002 01 05  1655    52279   60900      0    7.12e+00    0    7.93e-01
2002 01 05  1700    52279   61200      0    6.83e+00    0    7.76e-01
2002 01 05  1705    52279   61500      0    6.85e+00    0    7.16e-01
2002 01 05  1710    52279   61800      0    6.82e+00    0    8.23e-01
2002 01 05  1715    52279   62100      0    6.62e+00    0    7.08e-01
2002 01 05  1720    52279   62400      0    7.01e+00    0    8.20e-01
2002 01 05  1725    52279   62700      0    6.84e+00    0    7.62e-01
2002 01 05  1730    52279   63000      0    6.85e+00    0    8.06e-01
2002 01 05  1735    52279   63300      0    6.80e+00    0    7.70e-01
2002 01 05  1740    52279   63600      0    7.11e+00    0    7.81e-01
2002 01 05  1745    52279   63900      0    7.03e+00    0    7.87e-01
2002 01 05  1750    52279   64200      0    7.17e+00    0    7.87e-01
2002 01 05  1755    52279   64500      0    6.84e+00    0    8.09e-01
2002 01 05  1800    52279   64800      0    6.53e+00    0    7.62e-01
2002 01 05  1805    52279   65100      0    6.45e+00    0    7.32e-01
2002 01 05  1810    52279   65400      0    6.43e+00    0    7.06e-01
2002 01 05  1815    52279   65700      0    6.32e+00    0    7.09e-01
2002 01 05  1820    52279   66000      0    6.54e+00    0    7.37e-01
2002 01 05  1825    52279   66300      0    7.15e+00    0    7.66e-01
2002 01 05  1830    52279   66600      0    7.74e+00    0    8.67e-01
2002 01 05  1835    52279   66900      0    7.41e+00    0    7.88e-01
2002 01 05  1840    52279   67200      0    6.79e+00    0    7.55e-01
2002 01 05  1845    52279   67500      0    6.61e+00    0    7.47e-01
2002 01 05  1850    52279   67800      0    6.49e+00    0    7.70e-01
2002 01 05  1855    52279   68100      0    6.29e+00    0    7.59e-01
2002 01 05  1900    52279   68400      0    6.23e+00    0    7.06e-01
2002 01 05  1905    52279   68700      0    7.11e+00    0    8.55e-01
2002 01 05  1910    52279   69000      0    7.29e+00    0    8.71e-01
2002 01 05  1915    52279   69300      0    6.60e+00    0    7.83e-01
2002 01 05  1920    52279   69600      0    6.40e+00    0    7.56e-01
2002 01 05  1925    52279   69900      0    6.18e+00    0    7.32e-01
2002 01 05  1930    52279   70200      0    6.36e+00    0    7.71e-01
2002 01 05  1935    52279   70500      0    6.33e+00    0    7.59e-01
2002 01 05  1940    52279   70800      0    6.77e+00    0    7.79e-01
2002 01 05  1945    52279   71100      0    6.63e+00    0    8.08e-01
2002 01 05  1950    52279   71400      0    6.33e+00    0    7.28e-01
2002 01 05  1955    52279   71700      0    6.46e+00    0    7.39e-01
2002 01 05  2000    52279   72000      0    6.57e+00    0    7.71e-01
2002 01 05  2005    52279   72300      0    6.17e+00    0    6.96e-01
2002 01 05  2010    52279   72600      0    6.15e+00    0    7.18e-01
2002 01 05  2015    52279   72900      0    5.93e+00    0    7.05e-01
2002 01 05  2020    52279   73200      0    6.11e+00    0    6.98e-01
2002 01 05  2025    52279   73500      0    6.31e+00    0    7.97e-01
2002 01 05  2030    52279   73800      0    6.25e+00    0    7.56e-01
2002 01 05  2035    52279   74100      0    6.37e+00    0    7.09e-01
2002 01 05  2040    52279   74400      0    6.31e+00    0    7.65e-01
2002 01 05  2045    52279   74700      0    6.30e+00    0    7.80e-01
2002 01 05  2050    52279   75000      0    5.92e+00    0    7.12e-01
2002 01 05  2055    52279   75300      0    6.15e+00    0    7.37e-01
2002 01 05  2100    52279   75600      0    6.12e+00    0    7.52e-01
2002 01 05  2105    52279   75900      0    6.15e+00    0    7.51e-01
2002 01 05  2110    52279   76200      0    6.22e+00    0    7.81e-01
2002 01 05  2115    52279   76500      0    6.87e+00    0    8.68e-01
2002 01 05  2120    52279   76800      0    6.44e+00    0    8.03e-01
2002 01 05  2125    52279   77100      0    6.16e+00    0    7.29e-01
2002 01 05  2130    52279   77400      0    6.00e+00    0    7.12e-01
2002 01 05  2135    52279   77700      0    6.23e+00    0    7.30e-01
2002 01 05  2140    52279   78000      0    6.14e+00    0    7.68e-01
2002 01 05  2145    52279   78300      0    6.01e+00    0    7.55e-01
2002 01 05  2150    52279   78600      0    5.90e+00    0    7.18e-01
2002 01 05  2155    52279   78900      0    5.80e+00    0    7.08e-01
2002 01 05  2200    52279   79200      0    5.70e+00    0    6.98e-01
2002 01 05  2205    52279   79500      0    5.99e+00    0    7.36e-01
2002 01 05  2210    52279   79800      0    6.16e+00    0    7.69e-01
2002 01 05  2215    52279   80100      0    5.95e+00    0    7.03e-01
2002 01 05  2220    52279   80400      0    6.40e+00    0    8.02e-01
2002 01 05  2225    52279   80700      0    6.64e+00    0    8.42e-01
2002 01 05  2230    52279   81000      0    6.11e+00    0    7.48e-01
2002 01 05  2235    52279   81300      0    5.99e+00    0    7.29e-01
2002 01 05  2240    52279   81600      0    5.91e+00    0    7.47e-01
2002 01 05  2245    52279   81900      0    6.05e+00    0    7.47e-01
2002 01 05  2250    52279   82200      0    6.14e+00    0    8.12e-01
2002 01 05  2255    52279   82500      0    6.59e+00    0    8.62e-01
2002 01 05  2300    52279   82800      0    6.53e+00    0    8.09e-01
2002 01 05  2305    52279   83100      0    5.80e+00    0    7.15e-01
2002 01 05  2310    52279   83400      0    5.83e+00    0    7.51e-01
2002 01 05  2315    52279   83700      0    5.73e+00    0    7.53e-01
2002 01 05  2320    52279   84000      0    5.82e+00    0    7.61e-01
2002 01 05  2325    52279   84300      0    5.86e+00    0    7.46e-01
2002 01 05  2330    52279   84600      0    6.48e+00    0    8.09e-01
2002 01 05  2335    52279   84900      0    6.30e+00    0    7.55e-01
2002 01 05  2340    52279   85200      0    6.47e+00    0    8.20e-01
2002 01 05  2345    52279   85500      0    5.90e+00    0    7.92e-01
2002 01 05  2350    52279   85800      0    5.57e+00    0    7.23e-01
2002 01 05  2355    52279   86100      0    5.72e+00    0    7.40e-01
