:Data_list: 20020424_ace_sis_5m.txt
:Created: 2002 Apr 25 0011 UT
# Prepared by the U.S. Dept. of Commerce, NOAA, Space Environment Center.
# Please send comments and suggestions to sec@sec.noaa.gov 
# 
# Units: proton flux p/cs2-sec-ster
# Status(S): 0 = nominal data, 1 to 8 = bad data record, 9 = no data
# Missing data values: -1.00e+05
# Source: ACE Satellite - Solar Isotope Spectrometer
#
# 5-minute averaged Real-time Integral Flux of High-energy Solar Protons
# 
#                 Modified Seconds
# UT Date   Time   Julian  of the      ---- Integral Proton Flux ----
# YR MO DA  HHMM     Day     Day       S    > 10 MeV    S    > 30 MeV
#--------------------------------------------------------------------
2002 04 24  0000    52388       0      0    9.43e+01    0    2.12e+01
2002 04 24  0005    52388     300      0    9.34e+01    0    2.10e+01
2002 04 24  0010    52388     600      0    9.27e+01    0    2.06e+01
2002 04 24  0015    52388     900      0    9.12e+01    0    2.06e+01
2002 04 24  0020    52388    1200      0    9.26e+01    0    2.07e+01
2002 04 24  0025    52388    1500      0    9.44e+01    0    2.08e+01
2002 04 24  0030    52388    1800      0    9.54e+01    0    2.12e+01
2002 04 24  0035    52388    2100      0    9.58e+01    0    2.17e+01
2002 04 24  0040    52388    2400      0    9.46e+01    0    2.14e+01
2002 04 24  0045    52388    2700      0    9.13e+01    0    2.07e+01
2002 04 24  0050    52388    3000      0    9.02e+01    0    2.06e+01
2002 04 24  0055    52388    3300      0    8.96e+01    0    2.05e+01
2002 04 24  0100    52388    3600      0    9.25e+01    0    2.08e+01
2002 04 24  0105    52388    3900      0    9.75e+01    0    2.17e+01
2002 04 24  0110    52388    4200      0    9.92e+01    0    2.20e+01
2002 04 24  0115    52388    4500      0    1.00e+02    0    2.25e+01
2002 04 24  0120    52388    4800      0    9.94e+01    0    2.28e+01
2002 04 24  0125    52388    5100      0    1.01e+02    0    2.26e+01
2002 04 24  0130    52388    5400      0    1.01e+02    0    2.25e+01
2002 04 24  0135    52388    5700      0    9.95e+01    0    2.21e+01
2002 04 24  0140    52388    6000      0    9.68e+01    0    2.12e+01
2002 04 24  0145    52388    6300      0    9.94e+01    0    2.16e+01
2002 04 24  0150    52388    6600      0    9.93e+01    0    2.17e+01
2002 04 24  0155    52388    6900      0    9.88e+01    0    2.20e+01
2002 04 24  0200    52388    7200      0    9.96e+01    0    2.24e+01
2002 04 24  0205    52388    7500      0    9.91e+01    0    2.14e+01
2002 04 24  0210    52388    7800      0    9.47e+01    0    2.05e+01
2002 04 24  0215    52388    8100      0    9.32e+01    0    2.02e+01
2002 04 24  0220    52388    8400      0    9.33e+01    0    2.07e+01
2002 04 24  0225    52388    8700      0    9.60e+01    0    2.17e+01
2002 04 24  0230    52388    9000      0    9.49e+01    0    2.05e+01
2002 04 24  0235    52388    9300      0    9.50e+01    0    2.14e+01
2002 04 24  0240    52388    9600      9   -1.00e+05    9   -1.00e+05
2002 04 24  0245    52388    9900      0    9.86e+01    0    2.09e+01
2002 04 24  0250    52388   10200      0    9.70e+01    0    2.05e+01
2002 04 24  0255    52388   10500      0    9.96e+01    0    2.15e+01
2002 04 24  0300    52388   10800      0    9.87e+01    0    2.11e+01
2002 04 24  0305    52388   11100      0    9.76e+01    0    2.12e+01
2002 04 24  0310    52388   11400      0    9.81e+01    0    2.09e+01
2002 04 24  0315    52388   11700      0    9.84e+01    0    2.12e+01
2002 04 24  0320    52388   12000      0    9.08e+01    0    1.97e+01
2002 04 24  0325    52388   12300      0    9.07e+01    0    1.89e+01
2002 04 24  0330    52388   12600      0    8.89e+01    0    1.90e+01
2002 04 24  0335    52388   12900      0    8.74e+01    0    1.86e+01
2002 04 24  0340    52388   13200      0    8.44e+01    0    1.80e+01
2002 04 24  0345    52388   13500      0    8.50e+01    0    1.82e+01
2002 04 24  0350    52388   13800      0    8.55e+01    0    1.83e+01
2002 04 24  0355    52388   14100      0    8.46e+01    0    1.77e+01
2002 04 24  0400    52388   14400      0    8.49e+01    0    1.79e+01
2002 04 24  0405    52388   14700      0    8.48e+01    0    1.76e+01
2002 04 24  0410    52388   15000      0    8.49e+01    0    1.78e+01
2002 04 24  0415    52388   15300      0    8.40e+01    0    1.74e+01
2002 04 24  0420    52388   15600      0    8.18e+01    0    1.73e+01
2002 04 24  0425    52388   15900      0    7.92e+01    0    1.69e+01
2002 04 24  0430    52388   16200      0    7.98e+01    0    1.72e+01
2002 04 24  0435    52388   16500      0    7.99e+01    0    1.70e+01
2002 04 24  0440    52388   16800      0    7.90e+01    0    1.70e+01
2002 04 24  0445    52388   17100      0    7.86e+01    0    1.65e+01
2002 04 24  0450    52388   17400      0    7.95e+01    0    1.69e+01
2002 04 24  0455    52388   17700      0    7.80e+01    0    1.63e+01
2002 04 24  0500    52388   18000      0    7.74e+01    0    1.63e+01
2002 04 24  0505    52388   18300      0    7.53e+01    0    1.57e+01
2002 04 24  0510    52388   18600      0    7.45e+01    0    1.55e+01
2002 04 24  0515    52388   18900      0    7.61e+01    0    1.63e+01
2002 04 24  0520    52388   19200      0    7.75e+01    0    1.67e+01
2002 04 24  0525    52388   19500      0    7.87e+01    0    1.63e+01
2002 04 24  0530    52388   19800      0    7.69e+01    0    1.61e+01
2002 04 24  0535    52388   20100      0    7.68e+01    0    1.60e+01
2002 04 24  0540    52388   20400      0    7.72e+01    0    1.60e+01
2002 04 24  0545    52388   20700      0    7.56e+01    0    1.53e+01
2002 04 24  0550    52388   21000      0    7.57e+01    0    1.57e+01
2002 04 24  0555    52388   21300      0    7.62e+01    0    1.59e+01
2002 04 24  0600    52388   21600      0    7.72e+01    0    1.63e+01
2002 04 24  0605    52388   21900      0    7.73e+01    0    1.59e+01
2002 04 24  0610    52388   22200      0    7.50e+01    0    1.51e+01
2002 04 24  0615    52388   22500      0    7.52e+01    0    1.53e+01
2002 04 24  0620    52388   22800      0    7.43e+01    0    1.56e+01
2002 04 24  0625    52388   23100      0    7.44e+01    0    1.54e+01
2002 04 24  0630    52388   23400      0    7.44e+01    0    1.54e+01
2002 04 24  0635    52388   23700      0    7.27e+01    0    1.50e+01
2002 04 24  0640    52388   24000      0    7.26e+01    0    1.53e+01
2002 04 24  0645    52388   24300      0    7.20e+01    0    1.47e+01
2002 04 24  0650    52388   24600      0    7.21e+01    0    1.47e+01
2002 04 24  0655    52388   24900      0    7.33e+01    0    1.51e+01
2002 04 24  0700    52388   25200      0    7.17e+01    0    1.45e+01
2002 04 24  0705    52388   25500      0    7.01e+01    0    1.43e+01
2002 04 24  0710    52388   25800      0    7.09e+01    0    1.42e+01
2002 04 24  0715    52388   26100      0    7.12e+01    0    1.44e+01
2002 04 24  0720    52388   26400      0    7.27e+01    0    1.48e+01
2002 04 24  0725    52388   26700      0    7.17e+01    0    1.46e+01
2002 04 24  0730    52388   27000      0    6.98e+01    0    1.41e+01
2002 04 24  0735    52388   27300      0    6.76e+01    0    1.36e+01
2002 04 24  0740    52388   27600      0    6.89e+01    0    1.38e+01
2002 04 24  0745    52388   27900      0    6.82e+01    0    1.38e+01
2002 04 24  0750    52388   28200      0    6.64e+01    0    1.34e+01
2002 04 24  0755    52388   28500      0    6.23e+01    0    1.30e+01
2002 04 24  0800    52388   28800      0    6.14e+01    0    1.23e+01
2002 04 24  0805    52388   29100      0    6.07e+01    0    1.21e+01
2002 04 24  0810    52388   29400      0    6.07e+01    0    1.24e+01
2002 04 24  0815    52388   29700      0    6.23e+01    0    1.29e+01
2002 04 24  0820    52388   30000      0    6.11e+01    0    1.23e+01
2002 04 24  0825    52388   30300      0    6.08e+01    0    1.24e+01
2002 04 24  0830    52388   30600      0    5.98e+01    0    1.23e+01
2002 04 24  0835    52388   30900      0    6.11e+01    0    1.27e+01
2002 04 24  0840    52388   31200      0    6.09e+01    0    1.24e+01
2002 04 24  0845    52388   31500      0    6.11e+01    0    1.29e+01
2002 04 24  0850    52388   31800      0    6.12e+01    0    1.25e+01
2002 04 24  0855    52388   32100      0    6.10e+01    0    1.26e+01
2002 04 24  0900    52388   32400      0    6.23e+01    0    1.27e+01
2002 04 24  0905    52388   32700      0    6.19e+01    0    1.27e+01
2002 04 24  0910    52388   33000      0    6.13e+01    0    1.22e+01
2002 04 24  0915    52388   33300      0    6.09e+01    0    1.24e+01
2002 04 24  0920    52388   33600      0    6.06e+01    0    1.22e+01
2002 04 24  0925    52388   33900      0    6.03e+01    0    1.16e+01
2002 04 24  0930    52388   34200      0    5.64e+01    0    1.16e+01
2002 04 24  0935    52388   34500      0    5.26e+01    0    1.11e+01
2002 04 24  0940    52388   34800      0    5.32e+01    0    1.09e+01
2002 04 24  0945    52388   35100      0    5.14e+01    0    1.07e+01
2002 04 24  0950    52388   35400      0    4.97e+01    0    1.06e+01
2002 04 24  0955    52388   35700      0    4.92e+01    0    1.05e+01
2002 04 24  1000    52388   36000      0    4.87e+01    0    1.02e+01
2002 04 24  1005    52388   36300      0    4.92e+01    0    1.03e+01
2002 04 24  1010    52388   36600      0    4.96e+01    0    1.01e+01
2002 04 24  1015    52388   36900      0    4.81e+01    0    1.02e+01
2002 04 24  1020    52388   37200      0    4.66e+01    0    9.70e+00
2002 04 24  1025    52388   37500      0    4.63e+01    0    9.62e+00
2002 04 24  1030    52388   37800      0    4.49e+01    0    9.54e+00
2002 04 24  1035    52388   38100      0    4.50e+01    0    9.41e+00
2002 04 24  1040    52388   38400      0    4.47e+01    0    9.22e+00
2002 04 24  1045    52388   38700      0    4.67e+01    0    9.59e+00
2002 04 24  1050    52388   39000      0    4.61e+01    0    9.63e+00
2002 04 24  1055    52388   39300      0    4.58e+01    0    9.43e+00
2002 04 24  1100    52388   39600      0    4.44e+01    0    8.95e+00
2002 04 24  1105    52388   39900      0    4.45e+01    0    9.24e+00
2002 04 24  1110    52388   40200      0    4.57e+01    0    9.43e+00
2002 04 24  1115    52388   40500      9   -1.00e+05    9   -1.00e+05
2002 04 24  1120    52388   40800      0    4.45e+01    0    9.44e+00
2002 04 24  1125    52388   41100      0    4.40e+01    0    9.08e+00
2002 04 24  1130    52388   41400      0    4.39e+01    0    9.24e+00
2002 04 24  1135    52388   41700      0    4.33e+01    0    9.07e+00
2002 04 24  1140    52388   42000      0    4.35e+01    0    8.89e+00
2002 04 24  1145    52388   42300      0    4.36e+01    0    8.84e+00
2002 04 24  1150    52388   42600      0    4.36e+01    0    8.83e+00
2002 04 24  1155    52388   42900      0    4.33e+01    0    8.67e+00
2002 04 24  1200    52388   43200      0    4.36e+01    0    8.81e+00
2002 04 24  1205    52388   43500      0    4.34e+01    0    8.82e+00
2002 04 24  1210    52388   43800      0    4.25e+01    0    8.50e+00
2002 04 24  1215    52388   44100      0    4.15e+01    0    8.31e+00
2002 04 24  1220    52388   44400      0    3.97e+01    0    8.15e+00
2002 04 24  1225    52388   44700      0    3.84e+01    0    8.04e+00
2002 04 24  1230    52388   45000      0    3.86e+01    0    8.11e+00
2002 04 24  1235    52388   45300      0    4.09e+01    0    8.39e+00
2002 04 24  1240    52388   45600      0    4.08e+01    0    8.37e+00
2002 04 24  1245    52388   45900      0    4.02e+01    0    8.42e+00
2002 04 24  1250    52388   46200      0    3.99e+01    0    8.26e+00
2002 04 24  1255    52388   46500      0    4.02e+01    0    8.15e+00
2002 04 24  1300    52388   46800      0    3.94e+01    0    7.94e+00
2002 04 24  1305    52388   47100      0    3.90e+01    0    7.84e+00
2002 04 24  1310    52388   47400      0    3.91e+01    0    8.12e+00
2002 04 24  1315    52388   47700      0    3.88e+01    0    8.07e+00
2002 04 24  1320    52388   48000      0    3.84e+01    0    8.01e+00
2002 04 24  1325    52388   48300      0    3.85e+01    0    8.00e+00
2002 04 24  1330    52388   48600      0    3.74e+01    0    7.76e+00
2002 04 24  1335    52388   48900      0    3.66e+01    0    7.46e+00
2002 04 24  1340    52388   49200      0    3.51e+01    0    7.18e+00
2002 04 24  1345    52388   49500      0    3.58e+01    0    7.28e+00
2002 04 24  1350    52388   49800      0    3.65e+01    0    7.57e+00
2002 04 24  1355    52388   50100      0    3.58e+01    0    7.34e+00
2002 04 24  1400    52388   50400      0    3.72e+01    0    7.45e+00
2002 04 24  1405    52388   50700      0    3.83e+01    0    7.70e+00
2002 04 24  1410    52388   51000      0    3.79e+01    0    7.49e+00
2002 04 24  1415    52388   51300      0    3.71e+01    0    7.64e+00
2002 04 24  1420    52388   51600      0    3.32e+01    0    6.96e+00
2002 04 24  1425    52388   51900      0    3.12e+01    0    6.47e+00
2002 04 24  1430    52388   52200      0    3.14e+01    0    6.64e+00
2002 04 24  1435    52388   52500      0    3.23e+01    0    6.73e+00
2002 04 24  1440    52388   52800      0    3.25e+01    0    6.78e+00
2002 04 24  1445    52388   53100      0    3.22e+01    0    6.80e+00
2002 04 24  1450    52388   53400      0    3.12e+01    0    6.44e+00
2002 04 24  1455    52388   53700      0    2.97e+01    0    6.25e+00
2002 04 24  1500    52388   54000      0    3.05e+01    0    6.40e+00
2002 04 24  1505    52388   54300      0    3.12e+01    0    6.31e+00
2002 04 24  1510    52388   54600      0    2.97e+01    0    6.04e+00
2002 04 24  1515    52388   54900      0    2.95e+01    0    5.98e+00
2002 04 24  1520    52388   55200      0    2.98e+01    0    6.24e+00
2002 04 24  1525    52388   55500      0    2.96e+01    0    6.13e+00
2002 04 24  1530    52388   55800      0    2.94e+01    0    6.18e+00
2002 04 24  1535    52388   56100      0    2.94e+01    0    6.16e+00
2002 04 24  1540    52388   56400      0    2.94e+01    0    6.18e+00
2002 04 24  1545    52388   56700      0    2.87e+01    0    5.96e+00
2002 04 24  1550    52388   57000      0    2.88e+01    0    6.16e+00
2002 04 24  1555    52388   57300      0    2.89e+01    0    6.21e+00
2002 04 24  1600    52388   57600      0    2.89e+01    0    6.13e+00
2002 04 24  1605    52388   57900      0    2.80e+01    0    6.01e+00
2002 04 24  1610    52388   58200      0    2.75e+01    0    5.87e+00
2002 04 24  1615    52388   58500      0    2.73e+01    0    5.72e+00
2002 04 24  1620    52388   58800      0    2.76e+01    0    5.72e+00
2002 04 24  1625    52388   59100      0    2.75e+01    0    5.88e+00
2002 04 24  1630    52388   59400      0    2.75e+01    0    5.92e+00
2002 04 24  1635    52388   59700      0    2.73e+01    0    5.72e+00
2002 04 24  1640    52388   60000      0    2.72e+01    0    5.67e+00
2002 04 24  1645    52388   60300      0    2.70e+01    0    5.67e+00
2002 04 24  1650    52388   60600      0    2.70e+01    0    5.90e+00
2002 04 24  1655    52388   60900      0    2.68e+01    0    5.56e+00
2002 04 24  1700    52388   61200      0    2.65e+01    0    5.63e+00
2002 04 24  1705    52388   61500      0    2.66e+01    0    5.69e+00
2002 04 24  1710    52388   61800      0    2.71e+01    0    5.71e+00
2002 04 24  1715    52388   62100      0    2.68e+01    0    5.74e+00
2002 04 24  1720    52388   62400      0    2.67e+01    0    5.64e+00
2002 04 24  1725    52388   62700      0    2.66e+01    0    5.63e+00
2002 04 24  1730    52388   63000      0    2.69e+01    0    5.88e+00
2002 04 24  1735    52388   63300      0    2.68e+01    0    5.74e+00
2002 04 24  1740    52388   63600      0    2.71e+01    0    5.74e+00
2002 04 24  1745    52388   63900      0    2.68e+01    0    5.65e+00
2002 04 24  1750    52388   64200      0    2.71e+01    0    5.76e+00
2002 04 24  1755    52388   64500      0    2.68e+01    0    5.65e+00
2002 04 24  1800    52388   64800      0    2.60e+01    0    5.39e+00
2002 04 24  1805    52388   65100      0    2.58e+01    0    5.26e+00
2002 04 24  1810    52388   65400      0    2.49e+01    0    5.26e+00
2002 04 24  1815    52388   65700      0    2.54e+01    0    5.39e+00
2002 04 24  1820    52388   66000      0    2.55e+01    0    5.20e+00
2002 04 24  1825    52388   66300      0    2.56e+01    0    5.33e+00
2002 04 24  1830    52388   66600      0    2.54e+01    0    5.25e+00
2002 04 24  1835    52388   66900      0    2.53e+01    0    5.20e+00
2002 04 24  1840    52388   67200      0    2.60e+01    0    5.38e+00
2002 04 24  1845    52388   67500      0    2.64e+01    0    5.57e+00
2002 04 24  1850    52388   67800      0    2.54e+01    0    5.30e+00
2002 04 24  1855    52388   68100      0    2.50e+01    0    5.35e+00
2002 04 24  1900    52388   68400      0    2.48e+01    0    5.09e+00
2002 04 24  1905    52388   68700      0    2.48e+01    0    5.09e+00
2002 04 24  1910    52388   69000      0    2.45e+01    0    5.05e+00
2002 04 24  1915    52388   69300      0    2.43e+01    0    5.17e+00
2002 04 24  1920    52388   69600      0    2.39e+01    0    5.06e+00
2002 04 24  1925    52388   69900      0    2.36e+01    0    4.86e+00
2002 04 24  1930    52388   70200      0    2.40e+01    0    5.02e+00
2002 04 24  1935    52388   70500      0    2.45e+01    0    5.23e+00
2002 04 24  1940    52388   70800      0    2.44e+01    0    5.21e+00
2002 04 24  1945    52388   71100      0    2.42e+01    0    4.98e+00
2002 04 24  1950    52388   71400      0    2.39e+01    0    5.00e+00
2002 04 24  1955    52388   71700      0    2.43e+01    0    5.01e+00
2002 04 24  2000    52388   72000      0    2.46e+01    0    5.06e+00
2002 04 24  2005    52388   72300      0    2.45e+01    0    5.11e+00
2002 04 24  2010    52388   72600      0    2.42e+01    0    4.92e+00
2002 04 24  2015    52388   72900      0    2.41e+01    0    4.94e+00
2002 04 24  2020    52388   73200      0    2.41e+01    0    5.06e+00
2002 04 24  2025    52388   73500      0    2.46e+01    0    5.13e+00
2002 04 24  2030    52388   73800      0    2.45e+01    0    5.01e+00
2002 04 24  2035    52388   74100      0    2.50e+01    0    5.10e+00
2002 04 24  2040    52388   74400      0    2.46e+01    0    5.19e+00
2002 04 24  2045    52388   74700      0    2.40e+01    0    4.87e+00
2002 04 24  2050    52388   75000      0    2.49e+01    0    5.18e+00
2002 04 24  2055    52388   75300      0    2.48e+01    0    5.00e+00
2002 04 24  2100    52388   75600      0    2.38e+01    0    4.89e+00
2002 04 24  2105    52388   75900      0    2.35e+01    0    4.92e+00
2002 04 24  2110    52388   76200      0    2.33e+01    0    4.85e+00
2002 04 24  2115    52388   76500      0    2.39e+01    0    4.88e+00
2002 04 24  2120    52388   76800      0    2.39e+01    0    4.85e+00
2002 04 24  2125    52388   77100      0    2.30e+01    0    4.73e+00
2002 04 24  2130    52388   77400      0    2.26e+01    0    4.67e+00
2002 04 24  2135    52388   77700      0    2.27e+01    0    4.60e+00
2002 04 24  2140    52388   78000      0    2.34e+01    0    4.71e+00
2002 04 24  2145    52388   78300      0    2.36e+01    0    4.86e+00
2002 04 24  2150    52388   78600      0    2.28e+01    0    4.78e+00
2002 04 24  2155    52388   78900      0    2.28e+01    0    4.75e+00
2002 04 24  2200    52388   79200      0    2.16e+01    0    4.44e+00
2002 04 24  2205    52388   79500      0    2.17e+01    0    4.39e+00
2002 04 24  2210    52388   79800      0    2.20e+01    0    4.54e+00
2002 04 24  2215    52388   80100      0    2.12e+01    0    4.45e+00
2002 04 24  2220    52388   80400      0    2.14e+01    0    4.44e+00
2002 04 24  2225    52388   80700      0    2.13e+01    0    4.38e+00
2002 04 24  2230    52388   81000      0    2.18e+01    0    4.41e+00
2002 04 24  2235    52388   81300      0    2.17e+01    0    4.43e+00
2002 04 24  2240    52388   81600      0    2.15e+01    0    4.46e+00
2002 04 24  2245    52388   81900      0    2.14e+01    0    4.43e+00
2002 04 24  2250    52388   82200      0    2.14e+01    0    4.35e+00
2002 04 24  2255    52388   82500      0    2.15e+01    0    4.53e+00
2002 04 24  2300    52388   82800      0    2.13e+01    0    4.39e+00
2002 04 24  2305    52388   83100      0    2.10e+01    0    4.48e+00
2002 04 24  2310    52388   83400      0    2.10e+01    0    4.46e+00
2002 04 24  2315    52388   83700      0    2.11e+01    0    4.42e+00
2002 04 24  2320    52388   84000      0    2.13e+01    0    4.37e+00
2002 04 24  2325    52388   84300      0    2.09e+01    0    4.36e+00
2002 04 24  2330    52388   84600      0    2.09e+01    0    4.32e+00
2002 04 24  2335    52388   84900      0    2.12e+01    0    4.30e+00
2002 04 24  2340    52388   85200      0    2.17e+01    0    4.46e+00
2002 04 24  2345    52388   85500      0    2.13e+01    0    4.43e+00
2002 04 24  2350    52388   85800      0    2.06e+01    0    4.31e+00
2002 04 24  2355    52388   86100      0    2.07e+01    0    4.39e+00
