:Data_list: 20020726_ace_sis_5m.txt
:Created: 2002 Jul 27 0011 UT
# Prepared by the U.S. Dept. of Commerce, NOAA, Space Environment Center.
# Please send comments and suggestions to sec@sec.noaa.gov 
# 
# Units: proton flux p/cs2-sec-ster
# Status(S): 0 = nominal data, 1 to 8 = bad data record, 9 = no data
# Missing data values: -1.00e+05
# Source: ACE Satellite - Solar Isotope Spectrometer
#
# 5-minute averaged Real-time Integral Flux of High-energy Solar Protons
# 
#                 Modified Seconds
# UT Date   Time   Julian  of the      ---- Integral Proton Flux ----
# YR MO DA  HHMM     Day     Day       S    > 10 MeV    S    > 30 MeV
#--------------------------------------------------------------------
2002 07 26  0000    52481       0      0    9.88e+00    0    1.07e+00
2002 07 26  0005    52481     300      0    9.91e+00    0    1.04e+00
2002 07 26  0010    52481     600      0    1.02e+01    0    1.03e+00
2002 07 26  0015    52481     900      0    9.91e+00    0    1.07e+00
2002 07 26  0020    52481    1200      0    9.85e+00    0    1.06e+00
2002 07 26  0025    52481    1500      0    9.85e+00    0    1.05e+00
2002 07 26  0030    52481    1800      0    9.67e+00    0    1.05e+00
2002 07 26  0035    52481    2100      0    9.79e+00    0    1.10e+00
2002 07 26  0040    52481    2400      0    9.64e+00    0    1.10e+00
2002 07 26  0045    52481    2700      0    9.75e+00    0    1.03e+00
2002 07 26  0050    52481    3000      0    9.76e+00    0    1.06e+00
2002 07 26  0055    52481    3300      0    9.77e+00    0    1.02e+00
2002 07 26  0100    52481    3600      0    9.70e+00    0    1.11e+00
2002 07 26  0105    52481    3900      0    9.90e+00    0    1.09e+00
2002 07 26  0110    52481    4200      0    9.81e+00    0    1.11e+00
2002 07 26  0115    52481    4500      0    9.89e+00    0    1.07e+00
2002 07 26  0120    52481    4800      0    9.62e+00    0    1.03e+00
2002 07 26  0125    52481    5100      0    9.79e+00    0    1.04e+00
2002 07 26  0130    52481    5400      0    9.62e+00    0    1.06e+00
2002 07 26  0135    52481    5700      0    9.84e+00    0    1.07e+00
2002 07 26  0140    52481    6000      0    9.67e+00    0    1.00e+00
2002 07 26  0145    52481    6300      0    9.57e+00    0    1.04e+00
2002 07 26  0150    52481    6600      0    9.69e+00    0    1.01e+00
2002 07 26  0155    52481    6900      0    9.65e+00    0    1.07e+00
2002 07 26  0200    52481    7200      0    9.55e+00    0    1.07e+00
2002 07 26  0205    52481    7500      0    9.53e+00    0    1.05e+00
2002 07 26  0210    52481    7800      0    9.51e+00    0    1.06e+00
2002 07 26  0215    52481    8100      0    9.67e+00    0    1.11e+00
2002 07 26  0220    52481    8400      0    9.74e+00    0    1.10e+00
2002 07 26  0225    52481    8700      0    9.51e+00    0    1.11e+00
2002 07 26  0230    52481    9000      0    9.71e+00    0    1.11e+00
2002 07 26  0235    52481    9300      0    9.97e+00    0    1.06e+00
2002 07 26  0240    52481    9600      0    9.69e+00    0    1.02e+00
2002 07 26  0245    52481    9900      0    9.78e+00    0    9.91e-01
2002 07 26  0250    52481   10200      0    1.00e+01    0    1.10e+00
2002 07 26  0255    52481   10500      0    1.01e+01    0    1.11e+00
2002 07 26  0300    52481   10800      0    9.95e+00    0    1.14e+00
2002 07 26  0305    52481   11100      0    9.54e+00    0    1.06e+00
2002 07 26  0310    52481   11400      0    9.43e+00    0    1.09e+00
2002 07 26  0315    52481   11700      0    1.02e+01    0    1.16e+00
2002 07 26  0320    52481   12000      0    1.03e+01    0    1.14e+00
2002 07 26  0325    52481   12300      0    1.01e+01    0    1.09e+00
2002 07 26  0330    52481   12600      0    9.92e+00    0    1.03e+00
2002 07 26  0335    52481   12900      0    9.71e+00    0    1.03e+00
2002 07 26  0340    52481   13200      0    1.01e+01    0    1.12e+00
2002 07 26  0345    52481   13500      0    1.01e+01    0    1.10e+00
2002 07 26  0350    52481   13800      0    9.99e+00    0    1.08e+00
2002 07 26  0355    52481   14100      0    1.01e+01    0    1.09e+00
2002 07 26  0400    52481   14400      0    1.04e+01    0    1.13e+00
2002 07 26  0405    52481   14700      0    9.86e+00    0    1.12e+00
2002 07 26  0410    52481   15000      0    9.60e+00    0    1.02e+00
2002 07 26  0415    52481   15300      0    9.85e+00    0    1.08e+00
2002 07 26  0420    52481   15600      0    9.79e+00    0    1.05e+00
2002 07 26  0425    52481   15900      0    9.65e+00    0    1.01e+00
2002 07 26  0430    52481   16200      0    9.81e+00    0    1.15e+00
2002 07 26  0435    52481   16500      0    9.41e+00    0    9.76e-01
2002 07 26  0440    52481   16800      0    9.66e+00    0    1.11e+00
2002 07 26  0445    52481   17100      0    9.50e+00    0    1.06e+00
2002 07 26  0450    52481   17400      0    9.28e+00    0    9.77e-01
2002 07 26  0455    52481   17700      0    9.43e+00    0    9.97e-01
2002 07 26  0500    52481   18000      0    9.50e+00    0    1.01e+00
2002 07 26  0505    52481   18300      0    9.39e+00    0    1.04e+00
2002 07 26  0510    52481   18600      0    9.55e+00    0    1.09e+00
2002 07 26  0515    52481   18900      0    9.72e+00    0    1.14e+00
2002 07 26  0520    52481   19200      0    9.45e+00    0    1.11e+00
2002 07 26  0525    52481   19500      0    9.33e+00    0    1.02e+00
2002 07 26  0530    52481   19800      0    9.26e+00    0    1.04e+00
2002 07 26  0535    52481   20100      0    9.30e+00    0    1.02e+00
2002 07 26  0540    52481   20400      0    9.30e+00    0    1.02e+00
2002 07 26  0545    52481   20700      0    9.32e+00    0    1.07e+00
2002 07 26  0550    52481   21000      0    9.11e+00    0    1.06e+00
2002 07 26  0555    52481   21300      0    9.49e+00    0    1.09e+00
2002 07 26  0600    52481   21600      0    1.00e+01    0    1.15e+00
2002 07 26  0605    52481   21900      0    8.89e+00    0    9.94e-01
2002 07 26  0610    52481   22200      0    8.87e+00    0    1.05e+00
2002 07 26  0615    52481   22500      0    8.91e+00    0    9.90e-01
2002 07 26  0620    52481   22800      0    8.96e+00    0    1.04e+00
2002 07 26  0625    52481   23100      0    8.83e+00    0    1.05e+00
2002 07 26  0630    52481   23400      0    9.13e+00    0    1.07e+00
2002 07 26  0635    52481   23700      0    9.05e+00    0    1.02e+00
2002 07 26  0640    52481   24000      0    8.97e+00    0    1.01e+00
2002 07 26  0645    52481   24300      0    8.99e+00    0    1.11e+00
2002 07 26  0650    52481   24600      0    8.71e+00    0    9.68e-01
2002 07 26  0655    52481   24900      0    8.81e+00    0    1.06e+00
2002 07 26  0700    52481   25200      0    8.92e+00    0    1.05e+00
2002 07 26  0705    52481   25500      0    9.02e+00    0    1.08e+00
2002 07 26  0710    52481   25800      0    8.92e+00    0    1.05e+00
2002 07 26  0715    52481   26100      0    8.79e+00    0    1.04e+00
2002 07 26  0720    52481   26400      0    8.94e+00    0    1.02e+00
2002 07 26  0725    52481   26700      0    8.54e+00    0    1.03e+00
2002 07 26  0730    52481   27000      0    8.21e+00    0    9.90e-01
2002 07 26  0735    52481   27300      0    8.22e+00    0    9.89e-01
2002 07 26  0740    52481   27600      0    8.31e+00    0    1.01e+00
2002 07 26  0745    52481   27900      0    8.44e+00    0    1.03e+00
2002 07 26  0750    52481   28200      0    8.15e+00    0    9.89e-01
2002 07 26  0755    52481   28500      0    8.03e+00    0    9.79e-01
2002 07 26  0800    52481   28800      0    8.04e+00    0    9.88e-01
2002 07 26  0805    52481   29100      0    8.08e+00    0    9.90e-01
2002 07 26  0810    52481   29400      0    8.37e+00    0    9.97e-01
2002 07 26  0815    52481   29700      9   -1.00e+05    9   -1.00e+05
2002 07 26  0820    52481   30000      9   -1.00e+05    9   -1.00e+05
2002 07 26  0825    52481   30300      9   -1.00e+05    9   -1.00e+05
2002 07 26  0830    52481   30600      9   -1.00e+05    9   -1.00e+05
2002 07 26  0835    52481   30900      9   -1.00e+05    9   -1.00e+05
2002 07 26  0840    52481   31200      9   -1.00e+05    9   -1.00e+05
2002 07 26  0845    52481   31500      9   -1.00e+05    9   -1.00e+05
2002 07 26  0850    52481   31800      9   -1.00e+05    9   -1.00e+05
2002 07 26  0855    52481   32100      9   -1.00e+05    9   -1.00e+05
2002 07 26  0900    52481   32400      0    8.77e+00    0    1.05e+00
2002 07 26  0905    52481   32700      0    8.69e+00    0    1.03e+00
2002 07 26  0910    52481   33000      0    8.50e+00    0    9.82e-01
2002 07 26  0915    52481   33300      0    8.65e+00    0    1.04e+00
2002 07 26  0920    52481   33600      0    8.52e+00    0    1.02e+00
2002 07 26  0925    52481   33900      0    8.50e+00    0    1.03e+00
2002 07 26  0930    52481   34200      0    8.50e+00    0    1.03e+00
2002 07 26  0935    52481   34500      0    8.51e+00    0    9.61e-01
2002 07 26  0940    52481   34800      0    8.38e+00    0    1.01e+00
2002 07 26  0945    52481   35100      0    8.33e+00    0    1.00e+00
2002 07 26  0950    52481   35400      0    8.49e+00    0    9.75e-01
2002 07 26  0955    52481   35700      0    8.71e+00    0    1.03e+00
2002 07 26  1000    52481   36000      0    8.91e+00    0    1.06e+00
2002 07 26  1005    52481   36300      0    9.14e+00    0    1.05e+00
2002 07 26  1010    52481   36600      0    9.18e+00    0    1.06e+00
2002 07 26  1015    52481   36900      0    8.55e+00    0    9.53e-01
2002 07 26  1020    52481   37200      0    8.29e+00    0    1.01e+00
2002 07 26  1025    52481   37500      0    8.11e+00    0    1.02e+00
2002 07 26  1030    52481   37800      0    8.23e+00    0    1.01e+00
2002 07 26  1035    52481   38100      0    8.91e+00    0    1.01e+00
2002 07 26  1040    52481   38400      0    9.10e+00    0    1.04e+00
2002 07 26  1045    52481   38700      0    9.11e+00    0    1.02e+00
2002 07 26  1050    52481   39000      0    9.05e+00    0    1.05e+00
2002 07 26  1055    52481   39300      0    9.03e+00    0    1.05e+00
2002 07 26  1100    52481   39600      0    8.95e+00    0    9.77e-01
2002 07 26  1105    52481   39900      0    8.97e+00    0    1.05e+00
2002 07 26  1110    52481   40200      0    9.04e+00    0    1.05e+00
2002 07 26  1115    52481   40500      0    9.44e+00    0    1.10e+00
2002 07 26  1120    52481   40800      0    8.81e+00    0    1.02e+00
2002 07 26  1125    52481   41100      0    8.76e+00    0    1.04e+00
2002 07 26  1130    52481   41400      0    8.85e+00    0    9.94e-01
2002 07 26  1135    52481   41700      0    8.90e+00    0    1.02e+00
2002 07 26  1140    52481   42000      0    8.73e+00    0    1.00e+00
2002 07 26  1145    52481   42300      0    8.93e+00    0    1.01e+00
2002 07 26  1150    52481   42600      0    8.78e+00    0    9.77e-01
2002 07 26  1155    52481   42900      0    9.04e+00    0    1.03e+00
2002 07 26  1200    52481   43200      0    9.13e+00    0    1.05e+00
2002 07 26  1205    52481   43500      0    9.01e+00    0    1.06e+00
2002 07 26  1210    52481   43800      0    8.91e+00    0    1.04e+00
2002 07 26  1215    52481   44100      0    8.80e+00    0    1.06e+00
2002 07 26  1220    52481   44400      0    9.09e+00    0    1.06e+00
2002 07 26  1225    52481   44700      0    9.02e+00    0    1.02e+00
2002 07 26  1230    52481   45000      0    9.21e+00    0    1.05e+00
2002 07 26  1235    52481   45300      0    9.31e+00    0    1.06e+00
2002 07 26  1240    52481   45600      0    9.58e+00    0    1.17e+00
2002 07 26  1245    52481   45900      0    8.89e+00    0    1.07e+00
2002 07 26  1250    52481   46200      0    8.83e+00    0    1.09e+00
2002 07 26  1255    52481   46500      0    8.74e+00    0    1.04e+00
2002 07 26  1300    52481   46800      0    8.80e+00    0    1.01e+00
2002 07 26  1305    52481   47100      0    8.71e+00    0    1.02e+00
2002 07 26  1310    52481   47400      0    8.72e+00    0    9.88e-01
2002 07 26  1315    52481   47700      0    9.01e+00    0    1.07e+00
2002 07 26  1320    52481   48000      0    8.86e+00    0    1.09e+00
2002 07 26  1325    52481   48300      0    8.71e+00    0    1.01e+00
2002 07 26  1330    52481   48600      0    8.93e+00    0    1.05e+00
2002 07 26  1335    52481   48900      0    8.83e+00    0    1.00e+00
2002 07 26  1340    52481   49200      0    8.72e+00    0    1.00e+00
2002 07 26  1345    52481   49500      0    9.09e+00    0    1.05e+00
2002 07 26  1350    52481   49800      0    9.08e+00    0    1.07e+00
2002 07 26  1355    52481   50100      0    8.59e+00    0    1.02e+00
2002 07 26  1400    52481   50400      0    8.86e+00    0    1.03e+00
2002 07 26  1405    52481   50700      0    9.11e+00    0    1.04e+00
2002 07 26  1410    52481   51000      0    8.94e+00    0    1.01e+00
2002 07 26  1415    52481   51300      0    9.13e+00    0    1.06e+00
2002 07 26  1420    52481   51600      0    8.64e+00    0    9.30e-01
2002 07 26  1425    52481   51900      0    9.02e+00    0    1.04e+00
2002 07 26  1430    52481   52200      0    8.72e+00    0    1.07e+00
2002 07 26  1435    52481   52500      0    8.47e+00    0    9.84e-01
2002 07 26  1440    52481   52800      0    9.33e+00    0    1.10e+00
2002 07 26  1445    52481   53100      0    8.68e+00    0    1.01e+00
2002 07 26  1450    52481   53400      0    8.70e+00    0    1.05e+00
2002 07 26  1455    52481   53700      0    8.56e+00    0    9.82e-01
2002 07 26  1500    52481   54000      0    8.58e+00    0    1.02e+00
2002 07 26  1505    52481   54300      0    8.73e+00    0    1.05e+00
2002 07 26  1510    52481   54600      0    8.70e+00    0    1.04e+00
2002 07 26  1515    52481   54900      0    8.62e+00    0    9.69e-01
2002 07 26  1520    52481   55200      0    8.74e+00    0    1.04e+00
2002 07 26  1525    52481   55500      0    8.73e+00    0    1.04e+00
2002 07 26  1530    52481   55800      0    9.00e+00    0    1.04e+00
2002 07 26  1535    52481   56100      0    8.89e+00    0    1.04e+00
2002 07 26  1540    52481   56400      0    8.59e+00    0    1.01e+00
2002 07 26  1545    52481   56700      0    8.61e+00    0    9.95e-01
2002 07 26  1550    52481   57000      0    8.63e+00    0    1.03e+00
2002 07 26  1555    52481   57300      0    8.54e+00    0    9.80e-01
2002 07 26  1600    52481   57600      0    8.48e+00    0    1.03e+00
2002 07 26  1605    52481   57900      0    8.66e+00    0    1.02e+00
2002 07 26  1610    52481   58200      0    8.41e+00    0    9.73e-01
2002 07 26  1615    52481   58500      0    8.49e+00    0    9.38e-01
2002 07 26  1620    52481   58800      0    8.48e+00    0    9.61e-01
2002 07 26  1625    52481   59100      0    8.45e+00    0    1.07e+00
2002 07 26  1630    52481   59400      0    8.52e+00    0    9.99e-01
2002 07 26  1635    52481   59700      0    8.44e+00    0    9.70e-01
2002 07 26  1640    52481   60000      0    8.62e+00    0    1.04e+00
2002 07 26  1645    52481   60300      0    8.49e+00    0    9.13e-01
2002 07 26  1650    52481   60600      0    8.40e+00    0    1.02e+00
2002 07 26  1655    52481   60900      0    8.54e+00    0    1.03e+00
2002 07 26  1700    52481   61200      0    8.49e+00    0    1.01e+00
2002 07 26  1705    52481   61500      0    8.48e+00    0    1.02e+00
2002 07 26  1710    52481   61800      0    8.53e+00    0    9.99e-01
2002 07 26  1715    52481   62100      0    8.39e+00    0    1.00e+00
2002 07 26  1720    52481   62400      0    8.34e+00    0    1.02e+00
2002 07 26  1725    52481   62700      0    8.41e+00    0    1.00e+00
2002 07 26  1730    52481   63000      0    8.38e+00    0    9.91e-01
2002 07 26  1735    52481   63300      0    8.59e+00    0    1.03e+00
2002 07 26  1740    52481   63600      0    8.31e+00    0    9.90e-01
2002 07 26  1745    52481   63900      0    8.42e+00    0    9.40e-01
2002 07 26  1750    52481   64200      0    8.45e+00    0    9.44e-01
2002 07 26  1755    52481   64500      0    8.31e+00    0    1.03e+00
2002 07 26  1800    52481   64800      0    8.16e+00    0    9.72e-01
2002 07 26  1805    52481   65100      0    8.27e+00    0    1.01e+00
2002 07 26  1810    52481   65400      0    8.23e+00    0    1.03e+00
2002 07 26  1815    52481   65700      0    8.24e+00    0    9.90e-01
2002 07 26  1820    52481   66000      0    8.27e+00    0    9.62e-01
2002 07 26  1825    52481   66300      0    8.29e+00    0    9.72e-01
2002 07 26  1830    52481   66600      0    8.41e+00    0    1.01e+00
2002 07 26  1835    52481   66900      0    8.44e+00    0    1.02e+00
2002 07 26  1840    52481   67200      0    8.37e+00    0    9.52e-01
2002 07 26  1845    52481   67500      0    8.44e+00    0    9.66e-01
2002 07 26  1850    52481   67800      0    8.55e+00    0    1.05e+00
2002 07 26  1855    52481   68100      0    8.34e+00    0    9.49e-01
2002 07 26  1900    52481   68400      0    8.33e+00    0    1.04e+00
2002 07 26  1905    52481   68700      0    8.21e+00    0    1.02e+00
2002 07 26  1910    52481   69000      0    8.34e+00    0    9.73e-01
2002 07 26  1915    52481   69300      0    8.67e+00    0    1.06e+00
2002 07 26  1920    52481   69600      0    8.59e+00    0    1.03e+00
2002 07 26  1925    52481   69900      0    8.14e+00    0    1.05e+00
2002 07 26  1930    52481   70200      0    8.25e+00    0    9.93e-01
2002 07 26  1935    52481   70500      0    8.48e+00    0    1.03e+00
2002 07 26  1940    52481   70800      0    8.19e+00    0    9.89e-01
2002 07 26  1945    52481   71100      0    8.18e+00    0    9.77e-01
2002 07 26  1950    52481   71400      0    8.30e+00    0    1.02e+00
2002 07 26  1955    52481   71700      0    8.28e+00    0    9.81e-01
2002 07 26  2000    52481   72000      0    8.59e+00    0    9.64e-01
2002 07 26  2005    52481   72300      0    8.77e+00    0    9.93e-01
2002 07 26  2010    52481   72600      0    8.61e+00    0    9.86e-01
2002 07 26  2015    52481   72900      0    8.39e+00    0    1.02e+00
2002 07 26  2020    52481   73200      0    8.31e+00    0    9.58e-01
2002 07 26  2025    52481   73500      0    8.39e+00    0    1.01e+00
2002 07 26  2030    52481   73800      0    8.31e+00    0    9.82e-01
2002 07 26  2035    52481   74100      0    8.33e+00    0    9.65e-01
2002 07 26  2040    52481   74400      0    8.00e+00    0    9.82e-01
2002 07 26  2045    52481   74700      0    7.95e+00    0    1.05e+00
2002 07 26  2050    52481   75000      0    8.12e+00    0    1.01e+00
2002 07 26  2055    52481   75300      0    8.31e+00    0    1.04e+00
2002 07 26  2100    52481   75600      0    8.02e+00    0    9.52e-01
2002 07 26  2105    52481   75900      0    7.96e+00    0    9.68e-01
2002 07 26  2110    52481   76200      0    7.79e+00    0    9.59e-01
2002 07 26  2115    52481   76500      0    7.75e+00    0    9.76e-01
2002 07 26  2120    52481   76800      0    7.86e+00    0    9.84e-01
2002 07 26  2125    52481   77100      0    7.75e+00    0    9.79e-01
2002 07 26  2130    52481   77400      0    7.88e+00    0    9.87e-01
2002 07 26  2135    52481   77700      0    8.70e+00    0    1.06e+00
2002 07 26  2140    52481   78000      0    8.49e+00    0    1.02e+00
2002 07 26  2145    52481   78300      0    8.15e+00    0    9.89e-01
2002 07 26  2150    52481   78600      0    7.73e+00    0    9.40e-01
2002 07 26  2155    52481   78900      0    7.73e+00    0    9.71e-01
2002 07 26  2200    52481   79200      0    7.71e+00    0    1.01e+00
2002 07 26  2205    52481   79500      0    7.63e+00    0    9.52e-01
2002 07 26  2210    52481   79800      0    7.68e+00    0    9.60e-01
2002 07 26  2215    52481   80100      0    7.87e+00    0    9.64e-01
2002 07 26  2220    52481   80400      0    8.10e+00    0    9.98e-01
2002 07 26  2225    52481   80700      0    7.79e+00    0    9.48e-01
2002 07 26  2230    52481   81000      0    7.71e+00    0    9.80e-01
2002 07 26  2235    52481   81300      0    7.51e+00    0    9.19e-01
2002 07 26  2240    52481   81600      0    7.61e+00    0    9.16e-01
2002 07 26  2245    52481   81900      0    7.89e+00    0    1.02e+00
2002 07 26  2250    52481   82200      0    7.96e+00    0    9.91e-01
2002 07 26  2255    52481   82500      0    7.94e+00    0    1.02e+00
2002 07 26  2300    52481   82800      0    8.06e+00    0    9.48e-01
2002 07 26  2305    52481   83100      0    8.06e+00    0    1.02e+00
2002 07 26  2310    52481   83400      0    8.24e+00    0    1.00e+00
2002 07 26  2315    52481   83700      0    8.24e+00    0    1.02e+00
2002 07 26  2320    52481   84000      0    8.38e+00    0    1.01e+00
2002 07 26  2325    52481   84300      0    7.83e+00    0    9.63e-01
2002 07 26  2330    52481   84600      0    7.84e+00    0    9.67e-01
2002 07 26  2335    52481   84900      0    7.77e+00    0    9.52e-01
2002 07 26  2340    52481   85200      0    7.71e+00    0    9.23e-01
2002 07 26  2345    52481   85500      0    7.52e+00    0    9.20e-01
2002 07 26  2350    52481   85800      0    8.46e+00    0    1.00e+00
2002 07 26  2355    52481   86100      0    9.00e+00    0    1.04e+00
