:Data_list: 20021112_ace_sis_5m.txt
:Created: 2002 Nov 13 0011 UT
# Prepared by the U.S. Dept. of Commerce, NOAA, Space Environment Center.
# Please send comments and suggestions to sec@sec.noaa.gov 
# 
# Units: proton flux p/cs2-sec-ster
# Status(S): 0 = nominal data, 1 to 8 = bad data record, 9 = no data
# Missing data values: -1.00e+05
# Source: ACE Satellite - Solar Isotope Spectrometer
#
# 5-minute averaged Real-time Integral Flux of High-energy Solar Protons
# 
#                 Modified Seconds
# UT Date   Time   Julian  of the      ---- Integral Proton Flux ----
# YR MO DA  HHMM     Day     Day       S    > 10 MeV    S    > 30 MeV
#--------------------------------------------------------------------
2002 11 12  0000    52590       0      0    1.77e+00    0    6.87e-01
2002 11 12  0005    52590     300      0    1.73e+00    0    6.71e-01
2002 11 12  0010    52590     600      0    1.73e+00    0    6.71e-01
2002 11 12  0015    52590     900      0    1.74e+00    0    6.68e-01
2002 11 12  0020    52590    1200      0    1.71e+00    0    6.62e-01
2002 11 12  0025    52590    1500      0    1.72e+00    0    6.90e-01
2002 11 12  0030    52590    1800      0    1.70e+00    0    6.81e-01
2002 11 12  0035    52590    2100      0    1.68e+00    0    6.66e-01
2002 11 12  0040    52590    2400      0    1.71e+00    0    6.78e-01
2002 11 12  0045    52590    2700      0    1.73e+00    0    6.86e-01
2002 11 12  0050    52590    3000      0    1.71e+00    0    6.69e-01
2002 11 12  0055    52590    3300      0    1.75e+00    0    6.78e-01
2002 11 12  0100    52590    3600      0    1.70e+00    0    6.62e-01
2002 11 12  0105    52590    3900      0    1.71e+00    0    6.75e-01
2002 11 12  0110    52590    4200      0    1.69e+00    0    6.72e-01
2002 11 12  0115    52590    4500      0    1.71e+00    0    6.70e-01
2002 11 12  0120    52590    4800      0    1.72e+00    0    6.91e-01
2002 11 12  0125    52590    5100      0    1.77e+00    0    6.81e-01
2002 11 12  0130    52590    5400      0    1.85e+00    0    6.92e-01
2002 11 12  0135    52590    5700      0    1.78e+00    0    6.81e-01
2002 11 12  0140    52590    6000      0    1.81e+00    0    7.00e-01
2002 11 12  0145    52590    6300      0    1.81e+00    0    6.82e-01
2002 11 12  0150    52590    6600      0    1.86e+00    0    7.10e-01
2002 11 12  0155    52590    6900      0    1.86e+00    0    6.73e-01
2002 11 12  0200    52590    7200      0    1.80e+00    0    6.52e-01
2002 11 12  0205    52590    7500      0    1.80e+00    0    6.84e-01
2002 11 12  0210    52590    7800      0    1.81e+00    0    6.83e-01
2002 11 12  0215    52590    8100      0    1.79e+00    0    6.76e-01
2002 11 12  0220    52590    8400      0    1.85e+00    0    6.96e-01
2002 11 12  0225    52590    8700      0    1.88e+00    0    6.83e-01
2002 11 12  0230    52590    9000      0    1.93e+00    0    6.78e-01
2002 11 12  0235    52590    9300      0    1.93e+00    0    7.14e-01
2002 11 12  0240    52590    9600      0    1.88e+00    0    6.91e-01
2002 11 12  0245    52590    9900      0    1.90e+00    0    7.27e-01
2002 11 12  0250    52590   10200      0    1.78e+00    0    6.96e-01
2002 11 12  0255    52590   10500      0    1.75e+00    0    6.67e-01
2002 11 12  0300    52590   10800      0    1.70e+00    0    6.67e-01
2002 11 12  0305    52590   11100      0    1.66e+00    0    6.54e-01
2002 11 12  0310    52590   11400      0    1.68e+00    0    6.67e-01
2002 11 12  0315    52590   11700      0    1.71e+00    0    6.70e-01
2002 11 12  0320    52590   12000      0    1.73e+00    0    7.05e-01
2002 11 12  0325    52590   12300      0    1.67e+00    0    6.54e-01
2002 11 12  0330    52590   12600      0    1.72e+00    0    6.87e-01
2002 11 12  0335    52590   12900      0    1.69e+00    0    6.91e-01
2002 11 12  0340    52590   13200      0    1.59e+00    0    6.36e-01
2002 11 12  0345    52590   13500      0    1.66e+00    0    6.77e-01
2002 11 12  0350    52590   13800      0    1.64e+00    0    6.53e-01
2002 11 12  0355    52590   14100      0    1.66e+00    0    6.47e-01
2002 11 12  0400    52590   14400      0    1.71e+00    0    6.90e-01
2002 11 12  0405    52590   14700      0    1.67e+00    0    6.83e-01
2002 11 12  0410    52590   15000      0    1.67e+00    0    6.71e-01
2002 11 12  0415    52590   15300      0    1.67e+00    0    6.67e-01
2002 11 12  0420    52590   15600      0    1.69e+00    0    6.91e-01
2002 11 12  0425    52590   15900      0    1.66e+00    0    6.77e-01
2002 11 12  0430    52590   16200      0    1.63e+00    0    6.54e-01
2002 11 12  0435    52590   16500      0    1.66e+00    0    6.63e-01
2002 11 12  0440    52590   16800      0    1.65e+00    0    6.69e-01
2002 11 12  0445    52590   17100      0    1.68e+00    0    6.87e-01
2002 11 12  0450    52590   17400      0    1.68e+00    0    6.82e-01
2002 11 12  0455    52590   17700      0    1.68e+00    0    6.68e-01
2002 11 12  0500    52590   18000      0    1.66e+00    0    6.77e-01
2002 11 12  0505    52590   18300      0    1.65e+00    0    6.88e-01
2002 11 12  0510    52590   18600      0    1.66e+00    0    6.80e-01
2002 11 12  0515    52590   18900      0    1.62e+00    0    6.61e-01
2002 11 12  0520    52590   19200      0    1.64e+00    0    6.70e-01
2002 11 12  0525    52590   19500      0    1.65e+00    0    6.83e-01
2002 11 12  0530    52590   19800      0    1.64e+00    0    6.77e-01
2002 11 12  0535    52590   20100      0    1.62e+00    0    6.60e-01
2002 11 12  0540    52590   20400      0    1.63e+00    0    6.79e-01
2002 11 12  0545    52590   20700      0    1.63e+00    0    6.72e-01
2002 11 12  0550    52590   21000      0    1.64e+00    0    6.79e-01
2002 11 12  0555    52590   21300      0    1.61e+00    0    6.37e-01
2002 11 12  0600    52590   21600      0    1.64e+00    0    6.75e-01
2002 11 12  0605    52590   21900      0    1.63e+00    0    6.52e-01
2002 11 12  0610    52590   22200      0    1.66e+00    0    6.76e-01
2002 11 12  0615    52590   22500      0    1.62e+00    0    6.68e-01
2002 11 12  0620    52590   22800      0    1.56e+00    0    6.26e-01
2002 11 12  0625    52590   23100      0    1.60e+00    0    6.76e-01
2002 11 12  0630    52590   23400      0    1.54e+00    0    6.38e-01
2002 11 12  0635    52590   23700      0    1.55e+00    0    6.54e-01
2002 11 12  0640    52590   24000      0    1.54e+00    0    6.28e-01
2002 11 12  0645    52590   24300      0    1.57e+00    0    6.42e-01
2002 11 12  0650    52590   24600      0    1.62e+00    0    6.76e-01
2002 11 12  0655    52590   24900      0    1.61e+00    0    6.59e-01
2002 11 12  0700    52590   25200      0    1.67e+00    0    6.73e-01
2002 11 12  0705    52590   25500      0    1.72e+00    0    6.76e-01
2002 11 12  0710    52590   25800      0    1.66e+00    0    6.49e-01
2002 11 12  0715    52590   26100      0    1.67e+00    0    6.54e-01
2002 11 12  0720    52590   26400      0    1.69e+00    0    6.87e-01
2002 11 12  0725    52590   26700      0    1.68e+00    0    6.72e-01
2002 11 12  0730    52590   27000      0    1.66e+00    0    6.53e-01
2002 11 12  0735    52590   27300      0    1.70e+00    0    6.68e-01
2002 11 12  0740    52590   27600      0    1.80e+00    0    6.78e-01
2002 11 12  0745    52590   27900      0    1.98e+00    0    6.89e-01
2002 11 12  0750    52590   28200      0    2.02e+00    0    6.84e-01
2002 11 12  0755    52590   28500      0    2.02e+00    0    7.26e-01
2002 11 12  0800    52590   28800      0    1.98e+00    0    6.88e-01
2002 11 12  0805    52590   29100      0    2.07e+00    0    7.14e-01
2002 11 12  0810    52590   29400      0    2.08e+00    0    7.30e-01
2002 11 12  0815    52590   29700      0    2.09e+00    0    7.17e-01
2002 11 12  0820    52590   30000      0    2.16e+00    0    7.44e-01
2002 11 12  0825    52590   30300      0    2.10e+00    0    6.91e-01
2002 11 12  0830    52590   30600      0    2.10e+00    0    7.26e-01
2002 11 12  0835    52590   30900      0    2.08e+00    0    7.09e-01
2002 11 12  0840    52590   31200      0    2.07e+00    0    7.10e-01
2002 11 12  0845    52590   31500      0    2.03e+00    0    7.15e-01
2002 11 12  0850    52590   31800      0    1.99e+00    0    6.58e-01
2002 11 12  0855    52590   32100      0    2.05e+00    0    6.99e-01
2002 11 12  0900    52590   32400      0    2.00e+00    0    6.70e-01
2002 11 12  0905    52590   32700      0    2.01e+00    0    6.81e-01
2002 11 12  0910    52590   33000      0    2.03e+00    0    7.02e-01
2002 11 12  0915    52590   33300      0    1.97e+00    0    6.54e-01
2002 11 12  0920    52590   33600      0    1.99e+00    0    7.00e-01
2002 11 12  0925    52590   33900      0    2.03e+00    0    7.33e-01
2002 11 12  0930    52590   34200      0    1.94e+00    0    6.73e-01
2002 11 12  0935    52590   34500      0    1.85e+00    0    6.63e-01
2002 11 12  0940    52590   34800      0    1.98e+00    0    7.00e-01
2002 11 12  0945    52590   35100      0    1.81e+00    0    6.84e-01
2002 11 12  0950    52590   35400      0    1.75e+00    0    6.59e-01
2002 11 12  0955    52590   35700      0    1.79e+00    0    6.72e-01
2002 11 12  1000    52590   36000      0    1.78e+00    0    6.68e-01
2002 11 12  1005    52590   36300      0    1.77e+00    0    6.66e-01
2002 11 12  1010    52590   36600      0    1.89e+00    0    6.79e-01
2002 11 12  1015    52590   36900      0    1.75e+00    0    6.42e-01
2002 11 12  1020    52590   37200      0    1.77e+00    0    6.73e-01
2002 11 12  1025    52590   37500      0    1.75e+00    0    6.74e-01
2002 11 12  1030    52590   37800      0    1.82e+00    0    6.78e-01
2002 11 12  1035    52590   38100      0    1.69e+00    0    6.44e-01
2002 11 12  1040    52590   38400      0    1.53e+00    0    6.42e-01
2002 11 12  1045    52590   38700      0    1.52e+00    0    6.50e-01
2002 11 12  1050    52590   39000      0    1.49e+00    0    6.26e-01
2002 11 12  1055    52590   39300      0    1.52e+00    0    6.37e-01
2002 11 12  1100    52590   39600      0    1.51e+00    0    6.33e-01
2002 11 12  1105    52590   39900      0    1.55e+00    0    6.60e-01
2002 11 12  1110    52590   40200      0    1.51e+00    0    6.36e-01
2002 11 12  1115    52590   40500      0    1.52e+00    0    6.49e-01
2002 11 12  1120    52590   40800      0    1.49e+00    0    6.50e-01
2002 11 12  1125    52590   41100      0    1.46e+00    0    6.34e-01
2002 11 12  1130    52590   41400      0    1.44e+00    0    6.27e-01
2002 11 12  1135    52590   41700      0    1.41e+00    0    6.14e-01
2002 11 12  1140    52590   42000      0    1.43e+00    0    6.44e-01
2002 11 12  1145    52590   42300      0    1.38e+00    0    6.20e-01
2002 11 12  1150    52590   42600      0    1.40e+00    0    6.23e-01
2002 11 12  1155    52590   42900      0    1.45e+00    0    6.43e-01
2002 11 12  1200    52590   43200      0    1.41e+00    0    6.10e-01
2002 11 12  1205    52590   43500      0    1.37e+00    0    6.09e-01
2002 11 12  1210    52590   43800      0    1.40e+00    0    6.32e-01
2002 11 12  1215    52590   44100      0    1.39e+00    0    6.33e-01
2002 11 12  1220    52590   44400      0    1.40e+00    0    6.37e-01
2002 11 12  1225    52590   44700      9   -1.00e+05    9   -1.00e+05
2002 11 12  1230    52590   45000      0    1.41e+00    0    6.30e-01
2002 11 12  1235    52590   45300      0    1.40e+00    0    6.44e-01
2002 11 12  1240    52590   45600      0    1.41e+00    0    6.23e-01
2002 11 12  1245    52590   45900      0    1.43e+00    0    6.17e-01
2002 11 12  1250    52590   46200      0    1.50e+00    0    6.51e-01
2002 11 12  1255    52590   46500      0    1.47e+00    0    6.29e-01
2002 11 12  1300    52590   46800      0    1.52e+00    0    6.30e-01
2002 11 12  1305    52590   47100      0    1.45e+00    0    6.23e-01
2002 11 12  1310    52590   47400      0    1.43e+00    0    6.22e-01
2002 11 12  1315    52590   47700      0    1.49e+00    0    6.49e-01
2002 11 12  1320    52590   48000      0    1.45e+00    0    6.20e-01
2002 11 12  1325    52590   48300      0    1.45e+00    0    6.26e-01
2002 11 12  1330    52590   48600      0    1.45e+00    0    6.38e-01
2002 11 12  1335    52590   48900      0    1.44e+00    0    6.27e-01
2002 11 12  1340    52590   49200      0    1.42e+00    0    6.22e-01
2002 11 12  1345    52590   49500      0    1.39e+00    0    6.19e-01
2002 11 12  1350    52590   49800      0    1.48e+00    0    6.75e-01
2002 11 12  1355    52590   50100      0    1.45e+00    0    6.36e-01
2002 11 12  1400    52590   50400      0    1.39e+00    0    6.21e-01
2002 11 12  1405    52590   50700      0    1.40e+00    0    6.16e-01
2002 11 12  1410    52590   51000      0    1.39e+00    0    6.23e-01
2002 11 12  1415    52590   51300      0    1.36e+00    0    6.23e-01
2002 11 12  1420    52590   51600      0    1.39e+00    0    6.20e-01
2002 11 12  1425    52590   51900      0    1.36e+00    0    6.23e-01
2002 11 12  1430    52590   52200      0    1.38e+00    0    6.38e-01
2002 11 12  1435    52590   52500      0    1.37e+00    0    6.10e-01
2002 11 12  1440    52590   52800      0    1.35e+00    0    5.92e-01
2002 11 12  1445    52590   53100      0    1.32e+00    0    6.16e-01
2002 11 12  1450    52590   53400      0    1.28e+00    0    5.91e-01
2002 11 12  1455    52590   53700      0    1.28e+00    0    6.04e-01
2002 11 12  1500    52590   54000      0    1.28e+00    0    5.97e-01
2002 11 12  1505    52590   54300      0    1.28e+00    0    5.90e-01
2002 11 12  1510    52590   54600      0    1.26e+00    0    5.95e-01
2002 11 12  1515    52590   54900      0    1.27e+00    0    6.06e-01
2002 11 12  1520    52590   55200      0    1.21e+00    0    5.82e-01
2002 11 12  1525    52590   55500      0    1.26e+00    0    6.01e-01
2002 11 12  1530    52590   55800      0    1.22e+00    0    5.92e-01
2002 11 12  1535    52590   56100      0    1.24e+00    0    6.10e-01
2002 11 12  1540    52590   56400      0    1.26e+00    0    6.27e-01
2002 11 12  1545    52590   56700      0    1.23e+00    0    6.07e-01
2002 11 12  1550    52590   57000      0    1.22e+00    0    5.99e-01
2002 11 12  1555    52590   57300      0    1.28e+00    0    6.40e-01
2002 11 12  1600    52590   57600      0    1.20e+00    0    5.82e-01
2002 11 12  1605    52590   57900      0    1.23e+00    0    6.09e-01
2002 11 12  1610    52590   58200      0    1.23e+00    0    6.20e-01
2002 11 12  1615    52590   58500      0    1.24e+00    0    6.17e-01
2002 11 12  1620    52590   58800      0    1.20e+00    0    5.93e-01
2002 11 12  1625    52590   59100      0    1.21e+00    0    5.90e-01
2002 11 12  1630    52590   59400      0    1.23e+00    0    6.14e-01
2002 11 12  1635    52590   59700      0    1.22e+00    0    5.91e-01
2002 11 12  1640    52590   60000      0    1.23e+00    0    6.13e-01
2002 11 12  1645    52590   60300      0    1.24e+00    0    5.99e-01
2002 11 12  1650    52590   60600      0    1.22e+00    0    6.10e-01
2002 11 12  1655    52590   60900      0    1.23e+00    0    6.00e-01
2002 11 12  1700    52590   61200      0    1.24e+00    0    6.02e-01
2002 11 12  1705    52590   61500      0    1.23e+00    0    6.05e-01
2002 11 12  1710    52590   61800      0    1.24e+00    0    6.02e-01
2002 11 12  1715    52590   62100      0    1.20e+00    0    5.93e-01
2002 11 12  1720    52590   62400      0    1.22e+00    0    6.16e-01
2002 11 12  1725    52590   62700      0    1.22e+00    0    6.13e-01
2002 11 12  1730    52590   63000      0    1.20e+00    0    6.10e-01
2002 11 12  1735    52590   63300      0    1.18e+00    0    5.89e-01
2002 11 12  1740    52590   63600      0    1.15e+00    0    5.93e-01
2002 11 12  1745    52590   63900      0    1.12e+00    0    5.98e-01
2002 11 12  1750    52590   64200      0    1.11e+00    0    5.88e-01
2002 11 12  1755    52590   64500      0    1.08e+00    0    5.63e-01
2002 11 12  1800    52590   64800      0    1.10e+00    0    5.82e-01
2002 11 12  1805    52590   65100      0    1.10e+00    0    5.89e-01
2002 11 12  1810    52590   65400      0    1.10e+00    0    5.96e-01
2002 11 12  1815    52590   65700      0    1.09e+00    0    5.91e-01
2002 11 12  1820    52590   66000      0    1.10e+00    0    5.91e-01
2002 11 12  1825    52590   66300      0    1.08e+00    0    5.80e-01
2002 11 12  1830    52590   66600      0    1.07e+00    0    5.78e-01
2002 11 12  1835    52590   66900      0    1.08e+00    0    5.74e-01
2002 11 12  1840    52590   67200      0    1.10e+00    0    6.01e-01
2002 11 12  1845    52590   67500      0    1.08e+00    0    5.81e-01
2002 11 12  1850    52590   67800      0    1.09e+00    0    5.92e-01
2002 11 12  1855    52590   68100      0    1.07e+00    0    5.73e-01
2002 11 12  1900    52590   68400      0    1.10e+00    0    5.86e-01
2002 11 12  1905    52590   68700      0    1.08e+00    0    5.82e-01
2002 11 12  1910    52590   69000      0    1.08e+00    0    5.87e-01
2002 11 12  1915    52590   69300      0    1.06e+00    0    5.67e-01
2002 11 12  1920    52590   69600      0    1.08e+00    0    5.96e-01
2002 11 12  1925    52590   69900      0    9.84e-01    0    5.30e-01
2002 11 12  1930    52590   70200      0    1.10e+00    0    6.02e-01
2002 11 12  1935    52590   70500      0    1.04e+00    0    5.73e-01
2002 11 12  1940    52590   70800      0    1.02e+00    0    5.70e-01
2002 11 12  1945    52590   71100      0    1.03e+00    0    5.77e-01
2002 11 12  1950    52590   71400      0    1.02e+00    0    5.76e-01
2002 11 12  1955    52590   71700      0    1.03e+00    0    5.80e-01
2002 11 12  2000    52590   72000      0    1.02e+00    0    5.88e-01
2002 11 12  2005    52590   72300      0    1.02e+00    0    5.78e-01
2002 11 12  2010    52590   72600      0    1.01e+00    0    5.62e-01
2002 11 12  2015    52590   72900      0    9.95e-01    0    5.60e-01
2002 11 12  2020    52590   73200      0    1.01e+00    0    5.60e-01
2002 11 12  2025    52590   73500      0    1.03e+00    0    5.79e-01
2002 11 12  2030    52590   73800      0    1.04e+00    0    5.87e-01
2002 11 12  2035    52590   74100      0    1.02e+00    0    5.81e-01
2002 11 12  2040    52590   74400      0    1.03e+00    0    5.65e-01
2002 11 12  2045    52590   74700      0    1.04e+00    0    5.89e-01
2002 11 12  2050    52590   75000      0    9.76e-01    0    5.49e-01
2002 11 12  2055    52590   75300      0    1.02e+00    0    5.73e-01
2002 11 12  2100    52590   75600      0    1.02e+00    0    5.77e-01
2002 11 12  2105    52590   75900      0    1.03e+00    0    5.71e-01
2002 11 12  2110    52590   76200      0    1.04e+00    0    5.71e-01
2002 11 12  2115    52590   76500      0    1.03e+00    0    5.74e-01
2002 11 12  2120    52590   76800      0    1.01e+00    0    5.70e-01
2002 11 12  2125    52590   77100      0    9.78e-01    0    5.60e-01
2002 11 12  2130    52590   77400      0    1.02e+00    0    5.89e-01
2002 11 12  2135    52590   77700      0    9.93e-01    0    5.84e-01
2002 11 12  2140    52590   78000      0    9.89e-01    0    5.86e-01
2002 11 12  2145    52590   78300      0    9.88e-01    0    5.74e-01
2002 11 12  2150    52590   78600      0    9.79e-01    0    5.67e-01
2002 11 12  2155    52590   78900      0    1.03e+00    0    5.99e-01
2002 11 12  2200    52590   79200      0    1.00e+00    0    5.87e-01
2002 11 12  2205    52590   79500      0    9.68e-01    0    5.67e-01
2002 11 12  2210    52590   79800      0    9.66e-01    0    5.59e-01
2002 11 12  2215    52590   80100      0    9.82e-01    0    5.72e-01
2002 11 12  2220    52590   80400      0    9.96e-01    0    5.86e-01
2002 11 12  2225    52590   80700      0    1.01e+00    0    5.88e-01
2002 11 12  2230    52590   81000      0    9.97e-01    0    5.69e-01
2002 11 12  2235    52590   81300      0    9.90e-01    0    5.77e-01
2002 11 12  2240    52590   81600      0    1.01e+00    0    5.91e-01
2002 11 12  2245    52590   81900      0    9.81e-01    0    5.73e-01
2002 11 12  2250    52590   82200      0    9.78e-01    0    5.77e-01
2002 11 12  2255    52590   82500      0    9.83e-01    0    5.70e-01
2002 11 12  2300    52590   82800      9   -1.00e+05    9   -1.00e+05
2002 11 12  2305    52590   83100      9   -1.00e+05    9   -1.00e+05
2002 11 12  2310    52590   83400      0    9.93e-01    0    5.84e-01
2002 11 12  2315    52590   83700      0    1.02e+00    0    6.00e-01
2002 11 12  2320    52590   84000      0    9.93e-01    0    5.82e-01
2002 11 12  2325    52590   84300      0    9.76e-01    0    5.73e-01
2002 11 12  2330    52590   84600      0    9.79e-01    0    5.78e-01
2002 11 12  2335    52590   84900      0    9.94e-01    0    5.88e-01
2002 11 12  2340    52590   85200      0    9.96e-01    0    5.82e-01
2002 11 12  2345    52590   85500      0    9.82e-01    0    5.78e-01
2002 11 12  2350    52590   85800      0    9.88e-01    0    5.82e-01
2002 11 12  2355    52590   86100      0    9.96e-01    0    5.89e-01
