:Data_list: 20020110_ace_sis_5m.txt
:Created: 2002 Jan 11 0011 UT
# Prepared by the U.S. Dept. of Commerce, NOAA, Space Environment Center.
# Please send comments and suggestions to sec@sec.noaa.gov 
# 
# Units: proton flux p/cs2-sec-ster
# Status(S): 0 = nominal data, 1 to 8 = bad data record, 9 = no data
# Missing data values: -1.00e+05
# Source: ACE Satellite - Solar Isotope Spectrometer
#
# 5-minute averaged Real-time Integral Flux of High-energy Solar Protons
# 
#                 Modified Seconds
# UT Date   Time   Julian  of the      ---- Integral Proton Flux ----
# YR MO DA  HHMM     Day     Day       S    > 10 MeV    S    > 30 MeV
#--------------------------------------------------------------------
2002 01 10  0000    52284       0      0    1.38e+00    0    6.53e-01
2002 01 10  0005    52284     300      0    1.36e+00    0    6.50e-01
2002 01 10  0010    52284     600      0    1.42e+00    0    6.92e-01
2002 01 10  0015    52284     900      0    1.33e+00    0    6.48e-01
2002 01 10  0020    52284    1200      0    1.37e+00    0    6.59e-01
2002 01 10  0025    52284    1500      0    1.43e+00    0    7.07e-01
2002 01 10  0030    52284    1800      0    1.32e+00    0    6.38e-01
2002 01 10  0035    52284    2100      0    1.35e+00    0    6.56e-01
2002 01 10  0040    52284    2400      0    1.34e+00    0    6.57e-01
2002 01 10  0045    52284    2700      0    1.39e+00    0    6.82e-01
2002 01 10  0050    52284    3000      0    1.39e+00    0    6.78e-01
2002 01 10  0055    52284    3300      0    1.32e+00    0    6.29e-01
2002 01 10  0100    52284    3600      0    1.36e+00    0    6.49e-01
2002 01 10  0105    52284    3900      0    1.35e+00    0    6.65e-01
2002 01 10  0110    52284    4200      0    1.36e+00    0    6.55e-01
2002 01 10  0115    52284    4500      0    1.46e+00    0    7.17e-01
2002 01 10  0120    52284    4800      0    1.40e+00    0    6.81e-01
2002 01 10  0125    52284    5100      0    1.41e+00    0    6.83e-01
2002 01 10  0130    52284    5400      0    1.34e+00    0    6.43e-01
2002 01 10  0135    52284    5700      0    1.39e+00    0    6.73e-01
2002 01 10  0140    52284    6000      0    1.37e+00    0    6.61e-01
2002 01 10  0145    52284    6300      0    1.41e+00    0    6.92e-01
2002 01 10  0150    52284    6600      0    1.38e+00    0    6.60e-01
2002 01 10  0155    52284    6900      0    1.41e+00    0    6.80e-01
2002 01 10  0200    52284    7200      0    1.39e+00    0    6.63e-01
2002 01 10  0205    52284    7500      0    1.49e+00    0    7.34e-01
2002 01 10  0210    52284    7800      0    1.51e+00    0    7.33e-01
2002 01 10  0215    52284    8100      0    1.56e+00    0    7.64e-01
2002 01 10  0220    52284    8400      0    1.42e+00    0    6.92e-01
2002 01 10  0225    52284    8700      0    1.38e+00    0    6.76e-01
2002 01 10  0230    52284    9000      0    1.40e+00    0    6.74e-01
2002 01 10  0235    52284    9300      0    1.40e+00    0    6.71e-01
2002 01 10  0240    52284    9600      0    1.43e+00    0    6.97e-01
2002 01 10  0245    52284    9900      0    1.37e+00    0    6.61e-01
2002 01 10  0250    52284   10200      0    1.39e+00    0    6.87e-01
2002 01 10  0255    52284   10500      0    1.41e+00    0    6.87e-01
2002 01 10  0300    52284   10800      0    1.36e+00    0    6.56e-01
2002 01 10  0305    52284   11100      0    1.37e+00    0    6.64e-01
2002 01 10  0310    52284   11400      0    1.37e+00    0    6.66e-01
2002 01 10  0315    52284   11700      0    1.39e+00    0    6.76e-01
2002 01 10  0320    52284   12000      0    1.37e+00    0    6.69e-01
2002 01 10  0325    52284   12300      0    1.41e+00    0    6.70e-01
2002 01 10  0330    52284   12600      0    1.42e+00    0    6.80e-01
2002 01 10  0335    52284   12900      0    1.43e+00    0    6.93e-01
2002 01 10  0340    52284   13200      0    1.46e+00    0    6.99e-01
2002 01 10  0345    52284   13500      0    1.47e+00    0    7.15e-01
2002 01 10  0350    52284   13800      0    1.44e+00    0    6.99e-01
2002 01 10  0355    52284   14100      0    1.45e+00    0    7.13e-01
2002 01 10  0400    52284   14400      0    1.42e+00    0    6.72e-01
2002 01 10  0405    52284   14700      0    1.43e+00    0    7.02e-01
2002 01 10  0410    52284   15000      0    1.40e+00    0    6.71e-01
2002 01 10  0415    52284   15300      0    1.41e+00    0    6.71e-01
2002 01 10  0420    52284   15600      0    1.43e+00    0    6.81e-01
2002 01 10  0425    52284   15900      0    1.41e+00    0    6.89e-01
2002 01 10  0430    52284   16200      0    1.41e+00    0    6.75e-01
2002 01 10  0435    52284   16500      0    1.46e+00    0    7.04e-01
2002 01 10  0440    52284   16800      0    1.44e+00    0    6.95e-01
2002 01 10  0445    52284   17100      0    1.68e+00    0    7.91e-01
2002 01 10  0450    52284   17400      0    1.82e+00    0    8.49e-01
2002 01 10  0455    52284   17700      0    1.53e+00    0    7.38e-01
2002 01 10  0500    52284   18000      0    1.48e+00    0    6.98e-01
2002 01 10  0505    52284   18300      0    1.42e+00    0    6.79e-01
2002 01 10  0510    52284   18600      0    1.41e+00    0    6.78e-01
2002 01 10  0515    52284   18900      0    1.53e+00    0    7.61e-01
2002 01 10  0520    52284   19200      0    1.47e+00    0    7.09e-01
2002 01 10  0525    52284   19500      0    1.48e+00    0    7.21e-01
2002 01 10  0530    52284   19800      0    1.42e+00    0    6.76e-01
2002 01 10  0535    52284   20100      0    1.38e+00    0    6.55e-01
2002 01 10  0540    52284   20400      0    1.44e+00    0    7.00e-01
2002 01 10  0545    52284   20700      0    1.45e+00    0    6.99e-01
2002 01 10  0550    52284   21000      0    1.49e+00    0    7.14e-01
2002 01 10  0555    52284   21300      0    1.49e+00    0    7.19e-01
2002 01 10  0600    52284   21600      0    1.48e+00    0    7.04e-01
2002 01 10  0605    52284   21900      0    1.44e+00    0    6.93e-01
2002 01 10  0610    52284   22200      0    1.48e+00    0    7.18e-01
2002 01 10  0615    52284   22500      0    1.48e+00    0    7.00e-01
2002 01 10  0620    52284   22800      0    1.42e+00    0    6.83e-01
2002 01 10  0625    52284   23100      0    1.49e+00    0    7.15e-01
2002 01 10  0630    52284   23400      0    1.49e+00    0    6.92e-01
2002 01 10  0635    52284   23700      0    1.51e+00    0    7.10e-01
2002 01 10  0640    52284   24000      0    1.50e+00    0    7.18e-01
2002 01 10  0645    52284   24300      0    1.54e+00    0    7.29e-01
2002 01 10  0650    52284   24600      0    1.53e+00    0    7.06e-01
2002 01 10  0655    52284   24900      0    1.53e+00    0    7.23e-01
2002 01 10  0700    52284   25200      0    1.50e+00    0    7.09e-01
2002 01 10  0705    52284   25500      0    1.55e+00    0    7.29e-01
2002 01 10  0710    52284   25800      0    1.50e+00    0    7.03e-01
2002 01 10  0715    52284   26100      0    1.49e+00    0    6.98e-01
2002 01 10  0720    52284   26400      0    1.51e+00    0    7.25e-01
2002 01 10  0725    52284   26700      0    1.54e+00    0    7.07e-01
2002 01 10  0730    52284   27000      0    1.59e+00    0    7.43e-01
2002 01 10  0735    52284   27300      0    1.61e+00    0    7.58e-01
2002 01 10  0740    52284   27600      0    1.69e+00    0    7.96e-01
2002 01 10  0745    52284   27900      0    1.58e+00    0    7.31e-01
2002 01 10  0750    52284   28200      0    1.60e+00    0    7.31e-01
2002 01 10  0755    52284   28500      0    1.55e+00    0    7.02e-01
2002 01 10  0800    52284   28800      0    1.58e+00    0    7.17e-01
2002 01 10  0805    52284   29100      0    1.56e+00    0    7.18e-01
2002 01 10  0810    52284   29400      0    1.60e+00    0    7.21e-01
2002 01 10  0815    52284   29700      0    1.58e+00    0    7.22e-01
2002 01 10  0820    52284   30000      0    1.64e+00    0    7.43e-01
2002 01 10  0825    52284   30300      0    1.66e+00    0    7.30e-01
2002 01 10  0830    52284   30600      0    1.67e+00    0    7.61e-01
2002 01 10  0835    52284   30900      0    1.63e+00    0    7.58e-01
2002 01 10  0840    52284   31200      0    1.68e+00    0    7.42e-01
2002 01 10  0845    52284   31500      0    1.69e+00    0    7.49e-01
2002 01 10  0850    52284   31800      0    1.76e+00    0    7.76e-01
2002 01 10  0855    52284   32100      0    1.72e+00    0    7.60e-01
2002 01 10  0900    52284   32400      0    1.77e+00    0    7.83e-01
2002 01 10  0905    52284   32700      0    1.82e+00    0    7.82e-01
2002 01 10  0910    52284   33000      0    1.82e+00    0    7.80e-01
2002 01 10  0915    52284   33300      0    1.83e+00    0    7.61e-01
2002 01 10  0920    52284   33600      0    1.90e+00    0    7.90e-01
2002 01 10  0925    52284   33900      0    1.82e+00    0    7.77e-01
2002 01 10  0930    52284   34200      0    1.86e+00    0    7.80e-01
2002 01 10  0935    52284   34500      0    1.95e+00    0    8.19e-01
2002 01 10  0940    52284   34800      0    1.95e+00    0    8.18e-01
2002 01 10  0945    52284   35100      0    1.88e+00    0    7.93e-01
2002 01 10  0950    52284   35400      0    1.88e+00    0    7.94e-01
2002 01 10  0955    52284   35700      0    1.90e+00    0    7.92e-01
2002 01 10  1000    52284   36000      0    1.93e+00    0    8.03e-01
2002 01 10  1005    52284   36300      0    1.92e+00    0    8.09e-01
2002 01 10  1010    52284   36600      0    1.97e+00    0    8.23e-01
2002 01 10  1015    52284   36900      0    2.05e+00    0    8.32e-01
2002 01 10  1020    52284   37200      0    1.98e+00    0    8.11e-01
2002 01 10  1025    52284   37500      0    1.97e+00    0    8.07e-01
2002 01 10  1030    52284   37800      0    1.94e+00    0    7.89e-01
2002 01 10  1035    52284   38100      0    2.03e+00    0    8.34e-01
2002 01 10  1040    52284   38400      0    2.03e+00    0    8.42e-01
2002 01 10  1045    52284   38700      0    1.95e+00    0    8.26e-01
2002 01 10  1050    52284   39000      0    2.03e+00    0    8.13e-01
2002 01 10  1055    52284   39300      0    2.07e+00    0    8.31e-01
2002 01 10  1100    52284   39600      0    2.08e+00    0    8.30e-01
2002 01 10  1105    52284   39900      0    2.09e+00    0    8.54e-01
2002 01 10  1110    52284   40200      0    2.05e+00    0    8.25e-01
2002 01 10  1115    52284   40500      0    2.12e+00    0    8.29e-01
2002 01 10  1120    52284   40800      0    2.36e+00    0    9.12e-01
2002 01 10  1125    52284   41100      0    2.38e+00    0    8.70e-01
2002 01 10  1130    52284   41400      0    2.50e+00    0    9.22e-01
2002 01 10  1135    52284   41700      0    2.60e+00    0    9.26e-01
2002 01 10  1140    52284   42000      0    2.69e+00    0    9.41e-01
2002 01 10  1145    52284   42300      0    2.78e+00    0    9.43e-01
2002 01 10  1150    52284   42600      0    2.87e+00    0    9.75e-01
2002 01 10  1155    52284   42900      0    2.93e+00    0    1.02e+00
2002 01 10  1200    52284   43200      0    2.90e+00    0    9.83e-01
2002 01 10  1205    52284   43500      0    2.76e+00    0    9.26e-01
2002 01 10  1210    52284   43800      0    3.04e+00    0    1.03e+00
2002 01 10  1215    52284   44100      0    3.15e+00    0    1.04e+00
2002 01 10  1220    52284   44400      0    3.14e+00    0    1.02e+00
2002 01 10  1225    52284   44700      0    3.17e+00    0    1.02e+00
2002 01 10  1230    52284   45000      0    3.26e+00    0    1.05e+00
2002 01 10  1235    52284   45300      0    3.38e+00    0    1.09e+00
2002 01 10  1240    52284   45600      0    3.36e+00    0    1.08e+00
2002 01 10  1245    52284   45900      0    3.21e+00    0    1.03e+00
2002 01 10  1250    52284   46200      0    3.20e+00    0    1.03e+00
2002 01 10  1255    52284   46500      9   -1.00e+05    9   -1.00e+05
2002 01 10  1300    52284   46800      0    3.37e+00    0    1.06e+00
2002 01 10  1305    52284   47100      0    3.52e+00    0    1.15e+00
2002 01 10  1310    52284   47400      0    3.27e+00    0    1.03e+00
2002 01 10  1315    52284   47700      0    3.30e+00    0    1.04e+00
2002 01 10  1320    52284   48000      0    3.21e+00    0    1.02e+00
2002 01 10  1325    52284   48300      0    3.33e+00    0    1.05e+00
2002 01 10  1330    52284   48600      0    3.34e+00    0    1.05e+00
2002 01 10  1335    52284   48900      0    3.52e+00    0    1.09e+00
2002 01 10  1340    52284   49200      0    3.35e+00    0    1.05e+00
2002 01 10  1345    52284   49500      0    3.46e+00    0    1.09e+00
2002 01 10  1350    52284   49800      0    3.58e+00    0    1.14e+00
2002 01 10  1355    52284   50100      0    3.59e+00    0    1.15e+00
2002 01 10  1400    52284   50400      0    3.42e+00    0    1.05e+00
2002 01 10  1405    52284   50700      0    3.49e+00    0    1.07e+00
2002 01 10  1410    52284   51000      0    3.50e+00    0    1.08e+00
2002 01 10  1415    52284   51300      0    3.48e+00    0    1.08e+00
2002 01 10  1420    52284   51600      0    3.56e+00    0    1.07e+00
2002 01 10  1425    52284   51900      0    3.65e+00    0    1.10e+00
2002 01 10  1430    52284   52200      0    3.58e+00    0    1.08e+00
2002 01 10  1435    52284   52500      0    3.66e+00    0    1.08e+00
2002 01 10  1440    52284   52800      0    3.61e+00    0    1.08e+00
2002 01 10  1445    52284   53100      0    3.69e+00    0    1.10e+00
2002 01 10  1450    52284   53400      0    3.70e+00    0    1.07e+00
2002 01 10  1455    52284   53700      0    3.75e+00    0    1.12e+00
2002 01 10  1500    52284   54000      0    3.77e+00    0    1.15e+00
2002 01 10  1505    52284   54300      0    3.65e+00    0    1.09e+00
2002 01 10  1510    52284   54600      0    3.67e+00    0    1.10e+00
2002 01 10  1515    52284   54900      0    3.73e+00    0    1.13e+00
2002 01 10  1520    52284   55200      0    3.93e+00    0    1.17e+00
2002 01 10  1525    52284   55500      0    4.03e+00    0    1.13e+00
2002 01 10  1530    52284   55800      0    4.25e+00    0    1.18e+00
2002 01 10  1535    52284   56100      0    4.21e+00    0    1.18e+00
2002 01 10  1540    52284   56400      0    4.35e+00    0    1.22e+00
2002 01 10  1545    52284   56700      0    4.42e+00    0    1.20e+00
2002 01 10  1550    52284   57000      0    4.31e+00    0    1.21e+00
2002 01 10  1555    52284   57300      0    4.43e+00    0    1.24e+00
2002 01 10  1600    52284   57600      0    4.33e+00    0    1.20e+00
2002 01 10  1605    52284   57900      0    4.33e+00    0    1.18e+00
2002 01 10  1610    52284   58200      9   -1.00e+05    9   -1.00e+05
2002 01 10  1615    52284   58500      9   -1.00e+05    9   -1.00e+05
2002 01 10  1620    52284   58800      9   -1.00e+05    9   -1.00e+05
2002 01 10  1625    52284   59100      9   -1.00e+05    9   -1.00e+05
2002 01 10  1630    52284   59400      9   -1.00e+05    9   -1.00e+05
2002 01 10  1635    52284   59700      9   -1.00e+05    9   -1.00e+05
2002 01 10  1640    52284   60000      9   -1.00e+05    9   -1.00e+05
2002 01 10  1645    52284   60300      9   -1.00e+05    9   -1.00e+05
2002 01 10  1650    52284   60600      9   -1.00e+05    9   -1.00e+05
2002 01 10  1655    52284   60900      9   -1.00e+05    9   -1.00e+05
2002 01 10  1700    52284   61200      9   -1.00e+05    9   -1.00e+05
2002 01 10  1705    52284   61500      9   -1.00e+05    9   -1.00e+05
2002 01 10  1710    52284   61800      0    4.99e+00    0    1.31e+00
2002 01 10  1715    52284   62100      0    4.79e+00    0    1.23e+00
2002 01 10  1720    52284   62400      0    4.88e+00    0    1.26e+00
2002 01 10  1725    52284   62700      0    4.99e+00    0    1.24e+00
2002 01 10  1730    52284   63000      0    5.09e+00    0    1.27e+00
2002 01 10  1735    52284   63300      0    5.52e+00    0    1.29e+00
2002 01 10  1740    52284   63600      0    7.49e+00    0    1.50e+00
2002 01 10  1745    52284   63900      0    9.42e+00    0    1.66e+00
2002 01 10  1750    52284   64200      0    9.70e+00    0    1.68e+00
2002 01 10  1755    52284   64500      0    1.05e+01    0    1.76e+00
2002 01 10  1800    52284   64800      0    9.68e+00    0    1.69e+00
2002 01 10  1805    52284   65100      0    9.78e+00    0    1.65e+00
2002 01 10  1810    52284   65400      0    9.77e+00    0    1.63e+00
2002 01 10  1815    52284   65700      0    9.16e+00    0    1.56e+00
2002 01 10  1820    52284   66000      0    8.98e+00    0    1.62e+00
2002 01 10  1825    52284   66300      0    9.58e+00    0    1.67e+00
2002 01 10  1830    52284   66600      0    9.51e+00    0    1.68e+00
2002 01 10  1835    52284   66900      0    9.17e+00    0    1.64e+00
2002 01 10  1840    52284   67200      0    9.19e+00    0    1.65e+00
2002 01 10  1845    52284   67500      0    8.51e+00    0    1.53e+00
2002 01 10  1850    52284   67800      0    8.41e+00    0    1.53e+00
2002 01 10  1855    52284   68100      0    8.57e+00    0    1.59e+00
2002 01 10  1900    52284   68400      0    8.88e+00    0    1.58e+00
2002 01 10  1905    52284   68700      0    8.66e+00    0    1.56e+00
2002 01 10  1910    52284   69000      0    8.84e+00    0    1.67e+00
2002 01 10  1915    52284   69300      0    8.97e+00    0    1.69e+00
2002 01 10  1920    52284   69600      0    9.95e+00    0    1.67e+00
2002 01 10  1925    52284   69900      0    1.17e+01    0    1.81e+00
2002 01 10  1930    52284   70200      0    1.13e+01    0    1.77e+00
2002 01 10  1935    52284   70500      0    1.15e+01    0    1.79e+00
2002 01 10  1940    52284   70800      0    1.13e+01    0    1.70e+00
2002 01 10  1945    52284   71100      0    1.13e+01    0    1.69e+00
2002 01 10  1950    52284   71400      0    1.35e+01    0    1.89e+00
2002 01 10  1955    52284   71700      0    1.23e+01    0    1.82e+00
2002 01 10  2000    52284   72000      0    1.33e+01    0    1.88e+00
2002 01 10  2005    52284   72300      0    1.69e+01    0    2.13e+00
2002 01 10  2010    52284   72600      0    1.77e+01    0    2.25e+00
2002 01 10  2015    52284   72900      0    1.79e+01    0    2.17e+00
2002 01 10  2020    52284   73200      0    1.83e+01    0    2.22e+00
2002 01 10  2025    52284   73500      0    2.11e+01    0    2.28e+00
2002 01 10  2030    52284   73800      0    1.87e+01    0    2.09e+00
2002 01 10  2035    52284   74100      0    2.25e+01    0    2.61e+00
2002 01 10  2040    52284   74400      0    2.15e+01    0    2.44e+00
2002 01 10  2045    52284   74700      0    2.13e+01    0    2.35e+00
2002 01 10  2050    52284   75000      0    2.38e+01    0    2.27e+00
2002 01 10  2055    52284   75300      0    2.41e+01    0    2.48e+00
2002 01 10  2100    52284   75600      0    3.09e+01    0    2.67e+00
2002 01 10  2105    52284   75900      0    3.50e+01    0    2.88e+00
2002 01 10  2110    52284   76200      0    3.66e+01    0    2.93e+00
2002 01 10  2115    52284   76500      0    3.84e+01    0    2.91e+00
2002 01 10  2120    52284   76800      0    3.88e+01    0    2.94e+00
2002 01 10  2125    52284   77100      0    3.42e+01    0    2.80e+00
2002 01 10  2130    52284   77400      0    3.21e+01    0    2.60e+00
2002 01 10  2135    52284   77700      0    3.13e+01    0    2.72e+00
2002 01 10  2140    52284   78000      0    2.81e+01    0    2.39e+00
2002 01 10  2145    52284   78300      0    2.92e+01    0    2.66e+00
2002 01 10  2150    52284   78600      0    2.76e+01    0    2.48e+00
2002 01 10  2155    52284   78900      0    2.85e+01    0    2.50e+00
2002 01 10  2200    52284   79200      0    2.74e+01    0    2.37e+00
2002 01 10  2205    52284   79500      0    3.38e+01    0    2.53e+00
2002 01 10  2210    52284   79800      0    4.94e+01    0    3.31e+00
2002 01 10  2215    52284   80100      0    5.03e+01    0    3.21e+00
2002 01 10  2220    52284   80400      0    4.90e+01    0    3.26e+00
2002 01 10  2225    52284   80700      0    5.10e+01    0    3.25e+00
2002 01 10  2230    52284   81000      0    4.96e+01    0    3.36e+00
2002 01 10  2235    52284   81300      0    5.16e+01    0    3.17e+00
2002 01 10  2240    52284   81600      0    5.22e+01    0    3.24e+00
2002 01 10  2245    52284   81900      0    5.24e+01    0    3.14e+00
2002 01 10  2250    52284   82200      0    5.09e+01    0    3.16e+00
2002 01 10  2255    52284   82500      0    5.21e+01    0    2.97e+00
2002 01 10  2300    52284   82800      0    5.44e+01    0    3.02e+00
2002 01 10  2305    52284   83100      0    5.31e+01    0    3.06e+00
2002 01 10  2310    52284   83400      0    5.42e+01    0    3.11e+00
2002 01 10  2315    52284   83700      0    5.86e+01    0    3.40e+00
2002 01 10  2320    52284   84000      0    6.29e+01    0    3.38e+00
2002 01 10  2325    52284   84300      0    6.39e+01    0    3.12e+00
2002 01 10  2330    52284   84600      0    6.33e+01    0    3.03e+00
2002 01 10  2335    52284   84900      0    6.40e+01    0    3.34e+00
2002 01 10  2340    52284   85200      0    6.64e+01    0    3.68e+00
2002 01 10  2345    52284   85500      0    6.49e+01    0    3.36e+00
2002 01 10  2350    52284   85800      0    6.26e+01    0    3.38e+00
2002 01 10  2355    52284   86100      0    6.37e+01    0    3.20e+00
