:Data_list: 20020423_ace_sis_5m.txt
:Created: 2002 Apr 24 0011 UT
# Prepared by the U.S. Dept. of Commerce, NOAA, Space Environment Center.
# Please send comments and suggestions to sec@sec.noaa.gov 
# 
# Units: proton flux p/cs2-sec-ster
# Status(S): 0 = nominal data, 1 to 8 = bad data record, 9 = no data
# Missing data values: -1.00e+05
# Source: ACE Satellite - Solar Isotope Spectrometer
#
# 5-minute averaged Real-time Integral Flux of High-energy Solar Protons
# 
#                 Modified Seconds
# UT Date   Time   Julian  of the      ---- Integral Proton Flux ----
# YR MO DA  HHMM     Day     Day       S    > 10 MeV    S    > 30 MeV
#--------------------------------------------------------------------
2002 04 23  0000    52387       0      0    2.75e+02    0    9.01e+01
2002 04 23  0005    52387     300      0    2.68e+02    0    8.82e+01
2002 04 23  0010    52387     600      0    2.64e+02    0    8.65e+01
2002 04 23  0015    52387     900      0    2.66e+02    0    8.68e+01
2002 04 23  0020    52387    1200      0    2.67e+02    0    8.76e+01
2002 04 23  0025    52387    1500      0    2.68e+02    0    8.92e+01
2002 04 23  0030    52387    1800      0    2.70e+02    0    9.12e+01
2002 04 23  0035    52387    2100      0    2.70e+02    0    8.88e+01
2002 04 23  0040    52387    2400      0    2.72e+02    0    9.07e+01
2002 04 23  0045    52387    2700      0    2.64e+02    0    8.70e+01
2002 04 23  0050    52387    3000      0    2.61e+02    0    8.62e+01
2002 04 23  0055    52387    3300      0    2.59e+02    0    8.61e+01
2002 04 23  0100    52387    3600      0    2.52e+02    0    8.26e+01
2002 04 23  0105    52387    3900      0    2.53e+02    0    8.48e+01
2002 04 23  0110    52387    4200      0    2.62e+02    0    8.74e+01
2002 04 23  0115    52387    4500      0    2.60e+02    0    8.44e+01
2002 04 23  0120    52387    4800      0    2.63e+02    0    8.71e+01
2002 04 23  0125    52387    5100      0    2.61e+02    0    8.66e+01
2002 04 23  0130    52387    5400      0    2.54e+02    0    8.18e+01
2002 04 23  0135    52387    5700      0    2.39e+02    0    7.89e+01
2002 04 23  0140    52387    6000      0    2.37e+02    0    7.83e+01
2002 04 23  0145    52387    6300      0    2.41e+02    0    8.09e+01
2002 04 23  0150    52387    6600      0    2.46e+02    0    7.87e+01
2002 04 23  0155    52387    6900      0    2.45e+02    0    7.93e+01
2002 04 23  0200    52387    7200      0    2.45e+02    0    8.08e+01
2002 04 23  0205    52387    7500      0    2.41e+02    0    7.86e+01
2002 04 23  0210    52387    7800      0    2.42e+02    0    8.07e+01
2002 04 23  0215    52387    8100      0    2.43e+02    0    7.99e+01
2002 04 23  0220    52387    8400      0    2.39e+02    0    7.87e+01
2002 04 23  0225    52387    8700      0    2.38e+02    0    7.74e+01
2002 04 23  0230    52387    9000      0    2.36e+02    0    7.71e+01
2002 04 23  0235    52387    9300      0    2.33e+02    0    7.65e+01
2002 04 23  0240    52387    9600      0    2.32e+02    0    7.70e+01
2002 04 23  0245    52387    9900      0    2.28e+02    0    7.43e+01
2002 04 23  0250    52387   10200      0    2.30e+02    0    7.61e+01
2002 04 23  0255    52387   10500      0    2.27e+02    0    7.36e+01
2002 04 23  0300    52387   10800      0    2.24e+02    0    7.46e+01
2002 04 23  0305    52387   11100      0    2.19e+02    0    7.17e+01
2002 04 23  0310    52387   11400      0    2.15e+02    0    7.05e+01
2002 04 23  0315    52387   11700      0    2.18e+02    0    7.18e+01
2002 04 23  0320    52387   12000      0    2.21e+02    0    7.14e+01
2002 04 23  0325    52387   12300      0    2.18e+02    0    7.03e+01
2002 04 23  0330    52387   12600      0    2.18e+02    0    6.99e+01
2002 04 23  0335    52387   12900      0    2.21e+02    0    7.11e+01
2002 04 23  0340    52387   13200      0    2.18e+02    0    7.10e+01
2002 04 23  0345    52387   13500      0    2.16e+02    0    7.02e+01
2002 04 23  0350    52387   13800      0    2.11e+02    0    6.73e+01
2002 04 23  0355    52387   14100      0    2.14e+02    0    6.89e+01
2002 04 23  0400    52387   14400      0    2.17e+02    0    6.90e+01
2002 04 23  0405    52387   14700      0    2.18e+02    0    6.88e+01
2002 04 23  0410    52387   15000      0    2.19e+02    0    6.94e+01
2002 04 23  0415    52387   15300      0    2.29e+02    0    7.33e+01
2002 04 23  0420    52387   15600      0    2.39e+02    0    7.85e+01
2002 04 23  0425    52387   15900      0    2.14e+02    0    6.92e+01
2002 04 23  0430    52387   16200      0    2.06e+02    0    6.71e+01
2002 04 23  0435    52387   16500      0    2.07e+02    0    6.58e+01
2002 04 23  0440    52387   16800      0    2.22e+02    0    7.23e+01
2002 04 23  0445    52387   17100      0    2.24e+02    0    7.09e+01
2002 04 23  0450    52387   17400      0    1.93e+02    0    6.03e+01
2002 04 23  0455    52387   17700      0    1.92e+02    0    6.10e+01
2002 04 23  0500    52387   18000      0    2.04e+02    0    6.71e+01
2002 04 23  0505    52387   18300      0    1.91e+02    0    6.04e+01
2002 04 23  0510    52387   18600      0    1.93e+02    0    6.16e+01
2002 04 23  0515    52387   18900      0    1.87e+02    0    6.06e+01
2002 04 23  0520    52387   19200      0    1.79e+02    0    5.65e+01
2002 04 23  0525    52387   19500      0    1.75e+02    0    5.46e+01
2002 04 23  0530    52387   19800      0    1.83e+02    0    5.61e+01
2002 04 23  0535    52387   20100      0    1.78e+02    0    5.59e+01
2002 04 23  0540    52387   20400      0    1.72e+02    0    5.46e+01
2002 04 23  0545    52387   20700      0    1.77e+02    0    5.59e+01
2002 04 23  0550    52387   21000      0    1.75e+02    0    5.51e+01
2002 04 23  0555    52387   21300      0    1.68e+02    0    5.30e+01
2002 04 23  0600    52387   21600      0    1.60e+02    0    5.14e+01
2002 04 23  0605    52387   21900      0    1.60e+02    0    5.07e+01
2002 04 23  0610    52387   22200      0    1.57e+02    0    4.99e+01
2002 04 23  0615    52387   22500      0    1.49e+02    0    4.67e+01
2002 04 23  0620    52387   22800      0    1.49e+02    0    4.73e+01
2002 04 23  0625    52387   23100      0    1.45e+02    0    4.56e+01
2002 04 23  0630    52387   23400      0    1.47e+02    0    4.55e+01
2002 04 23  0635    52387   23700      0    1.48e+02    0    4.72e+01
2002 04 23  0640    52387   24000      0    1.38e+02    0    4.32e+01
2002 04 23  0645    52387   24300      0    1.42e+02    0    4.32e+01
2002 04 23  0650    52387   24600      0    1.33e+02    0    4.14e+01
2002 04 23  0655    52387   24900      0    1.33e+02    0    4.11e+01
2002 04 23  0700    52387   25200      0    1.33e+02    0    4.11e+01
2002 04 23  0705    52387   25500      0    1.36e+02    0    4.20e+01
2002 04 23  0710    52387   25800      0    1.39e+02    0    4.35e+01
2002 04 23  0715    52387   26100      0    1.44e+02    0    4.46e+01
2002 04 23  0720    52387   26400      0    1.42e+02    0    4.36e+01
2002 04 23  0725    52387   26700      0    1.49e+02    0    4.69e+01
2002 04 23  0730    52387   27000      0    1.44e+02    0    4.48e+01
2002 04 23  0735    52387   27300      0    1.49e+02    0    4.61e+01
2002 04 23  0740    52387   27600      0    1.55e+02    0    4.72e+01
2002 04 23  0745    52387   27900      0    1.46e+02    0    4.48e+01
2002 04 23  0750    52387   28200      0    1.30e+02    0    3.88e+01
2002 04 23  0755    52387   28500      0    1.22e+02    0    3.68e+01
2002 04 23  0800    52387   28800      0    1.25e+02    0    3.70e+01
2002 04 23  0805    52387   29100      0    1.24e+02    0    3.67e+01
2002 04 23  0810    52387   29400      0    1.22e+02    0    3.70e+01
2002 04 23  0815    52387   29700      0    1.20e+02    0    3.61e+01
2002 04 23  0820    52387   30000      0    1.20e+02    0    3.66e+01
2002 04 23  0825    52387   30300      0    1.16e+02    0    3.59e+01
2002 04 23  0830    52387   30600      0    1.12e+02    0    3.38e+01
2002 04 23  0835    52387   30900      0    1.09e+02    0    3.32e+01
2002 04 23  0840    52387   31200      0    1.09e+02    0    3.29e+01
2002 04 23  0845    52387   31500      0    1.09e+02    0    3.25e+01
2002 04 23  0850    52387   31800      0    1.05e+02    0    3.16e+01
2002 04 23  0855    52387   32100      0    1.06e+02    0    3.21e+01
2002 04 23  0900    52387   32400      0    1.05e+02    0    3.15e+01
2002 04 23  0905    52387   32700      0    1.05e+02    0    3.11e+01
2002 04 23  0910    52387   33000      0    1.06e+02    0    3.25e+01
2002 04 23  0915    52387   33300      0    1.05e+02    0    3.20e+01
2002 04 23  0920    52387   33600      0    1.06e+02    0    3.18e+01
2002 04 23  0925    52387   33900      0    1.07e+02    0    3.20e+01
2002 04 23  0930    52387   34200      0    1.08e+02    0    3.18e+01
2002 04 23  0935    52387   34500      0    1.08e+02    0    3.19e+01
2002 04 23  0940    52387   34800      0    1.11e+02    0    3.35e+01
2002 04 23  0945    52387   35100      0    1.13e+02    0    3.31e+01
2002 04 23  0950    52387   35400      0    1.12e+02    0    3.29e+01
2002 04 23  0955    52387   35700      0    1.10e+02    0    3.22e+01
2002 04 23  1000    52387   36000      0    1.05e+02    0    3.06e+01
2002 04 23  1005    52387   36300      0    1.02e+02    0    3.00e+01
2002 04 23  1010    52387   36600      0    1.05e+02    0    3.14e+01
2002 04 23  1015    52387   36900      0    1.06e+02    0    3.19e+01
2002 04 23  1020    52387   37200      0    1.05e+02    0    3.06e+01
2002 04 23  1025    52387   37500      0    1.05e+02    0    3.18e+01
2002 04 23  1030    52387   37800      0    1.04e+02    0    3.13e+01
2002 04 23  1035    52387   38100      0    1.04e+02    0    3.05e+01
2002 04 23  1040    52387   38400      0    1.06e+02    0    3.09e+01
2002 04 23  1045    52387   38700      0    1.03e+02    0    3.04e+01
2002 04 23  1050    52387   39000      0    1.05e+02    0    3.09e+01
2002 04 23  1055    52387   39300      0    1.06e+02    0    3.05e+01
2002 04 23  1100    52387   39600      0    1.08e+02    0    3.11e+01
2002 04 23  1105    52387   39900      0    1.08e+02    0    3.07e+01
2002 04 23  1110    52387   40200      0    1.06e+02    0    3.05e+01
2002 04 23  1115    52387   40500      0    1.03e+02    0    3.00e+01
2002 04 23  1120    52387   40800      0    9.99e+01    0    2.92e+01
2002 04 23  1125    52387   41100      0    9.94e+01    0    2.91e+01
2002 04 23  1130    52387   41400      0    1.00e+02    0    2.88e+01
2002 04 23  1135    52387   41700      0    9.52e+01    0    2.77e+01
2002 04 23  1140    52387   42000      0    8.92e+01    0    2.67e+01
2002 04 23  1145    52387   42300      0    8.53e+01    0    2.55e+01
2002 04 23  1150    52387   42600      0    8.95e+01    0    2.61e+01
2002 04 23  1155    52387   42900      0    8.51e+01    0    2.45e+01
2002 04 23  1200    52387   43200      0    8.08e+01    0    2.41e+01
2002 04 23  1205    52387   43500      0    7.89e+01    0    2.35e+01
2002 04 23  1210    52387   43800      0    7.90e+01    0    2.35e+01
2002 04 23  1215    52387   44100      0    8.02e+01    0    2.35e+01
2002 04 23  1220    52387   44400      0    7.98e+01    0    2.31e+01
2002 04 23  1225    52387   44700      0    8.08e+01    0    2.32e+01
2002 04 23  1230    52387   45000      0    8.09e+01    0    2.38e+01
2002 04 23  1235    52387   45300      0    8.01e+01    0    2.37e+01
2002 04 23  1240    52387   45600      0    7.80e+01    0    2.27e+01
2002 04 23  1245    52387   45900      0    7.65e+01    0    2.25e+01
2002 04 23  1250    52387   46200      0    7.66e+01    0    2.24e+01
2002 04 23  1255    52387   46500      0    7.58e+01    0    2.19e+01
2002 04 23  1300    52387   46800      0    7.67e+01    0    2.22e+01
2002 04 23  1305    52387   47100      0    7.78e+01    0    2.23e+01
2002 04 23  1310    52387   47400      0    7.89e+01    0    2.28e+01
2002 04 23  1315    52387   47700      0    8.59e+01    0    2.52e+01
2002 04 23  1320    52387   48000      0    9.39e+01    0    2.69e+01
2002 04 23  1325    52387   48300      0    9.34e+01    0    2.63e+01
2002 04 23  1330    52387   48600      0    8.64e+01    0    2.51e+01
2002 04 23  1335    52387   48900      0    8.95e+01    0    2.56e+01
2002 04 23  1340    52387   49200      0    9.69e+01    0    2.66e+01
2002 04 23  1345    52387   49500      0    9.77e+01    0    2.74e+01
2002 04 23  1350    52387   49800      0    9.84e+01    0    2.72e+01
2002 04 23  1355    52387   50100      0    9.83e+01    0    2.78e+01
2002 04 23  1400    52387   50400      0    9.90e+01    0    2.73e+01
2002 04 23  1405    52387   50700      0    9.66e+01    0    2.68e+01
2002 04 23  1410    52387   51000      0    9.90e+01    0    2.74e+01
2002 04 23  1415    52387   51300      0    9.92e+01    0    2.70e+01
2002 04 23  1420    52387   51600      0    9.86e+01    0    2.68e+01
2002 04 23  1425    52387   51900      0    9.76e+01    0    2.68e+01
2002 04 23  1430    52387   52200      0    9.85e+01    0    2.71e+01
2002 04 23  1435    52387   52500      0    9.96e+01    0    2.75e+01
2002 04 23  1440    52387   52800      0    1.01e+02    0    2.74e+01
2002 04 23  1445    52387   53100      0    1.01e+02    0    2.81e+01
2002 04 23  1450    52387   53400      0    1.02e+02    0    2.78e+01
2002 04 23  1455    52387   53700      0    9.96e+01    0    2.78e+01
2002 04 23  1500    52387   54000      0    9.89e+01    0    2.79e+01
2002 04 23  1505    52387   54300      0    1.03e+02    0    2.80e+01
2002 04 23  1510    52387   54600      9   -1.00e+05    9   -1.00e+05
2002 04 23  1515    52387   54900      0    1.02e+02    0    2.73e+01
2002 04 23  1520    52387   55200      0    9.94e+01    0    2.68e+01
2002 04 23  1525    52387   55500      0    9.81e+01    0    2.63e+01
2002 04 23  1530    52387   55800      0    9.95e+01    0    2.73e+01
2002 04 23  1535    52387   56100      0    1.00e+02    0    2.73e+01
2002 04 23  1540    52387   56400      0    9.77e+01    0    2.66e+01
2002 04 23  1545    52387   56700      0    9.65e+01    0    2.63e+01
2002 04 23  1550    52387   57000      0    9.67e+01    0    2.67e+01
2002 04 23  1555    52387   57300      0    9.78e+01    0    2.64e+01
2002 04 23  1600    52387   57600      0    9.85e+01    0    2.60e+01
2002 04 23  1605    52387   57900      0    1.02e+02    0    2.74e+01
2002 04 23  1610    52387   58200      0    1.01e+02    0    2.67e+01
2002 04 23  1615    52387   58500      0    1.01e+02    0    2.66e+01
2002 04 23  1620    52387   58800      0    9.83e+01    0    2.64e+01
2002 04 23  1625    52387   59100      0    9.71e+01    0    2.58e+01
2002 04 23  1630    52387   59400      0    9.67e+01    0    2.58e+01
2002 04 23  1635    52387   59700      0    9.74e+01    0    2.58e+01
2002 04 23  1640    52387   60000      0    9.70e+01    0    2.57e+01
2002 04 23  1645    52387   60300      0    9.41e+01    0    2.50e+01
2002 04 23  1650    52387   60600      0    9.15e+01    0    2.44e+01
2002 04 23  1655    52387   60900      0    9.13e+01    0    2.44e+01
2002 04 23  1700    52387   61200      0    9.33e+01    0    2.51e+01
2002 04 23  1705    52387   61500      0    9.32e+01    0    2.47e+01
2002 04 23  1710    52387   61800      0    9.12e+01    0    2.46e+01
2002 04 23  1715    52387   62100      0    9.14e+01    0    2.44e+01
2002 04 23  1720    52387   62400      0    9.25e+01    0    2.45e+01
2002 04 23  1725    52387   62700      0    9.13e+01    0    2.44e+01
2002 04 23  1730    52387   63000      0    9.10e+01    0    2.36e+01
2002 04 23  1735    52387   63300      0    9.37e+01    0    2.43e+01
2002 04 23  1740    52387   63600      0    9.28e+01    0    2.41e+01
2002 04 23  1745    52387   63900      9   -1.00e+05    9   -1.00e+05
2002 04 23  1750    52387   64200      9   -1.00e+05    9   -1.00e+05
2002 04 23  1755    52387   64500      9   -1.00e+05    9   -1.00e+05
2002 04 23  1800    52387   64800      9   -1.00e+05    9   -1.00e+05
2002 04 23  1805    52387   65100      9   -1.00e+05    9   -1.00e+05
2002 04 23  1810    52387   65400      9   -1.00e+05    9   -1.00e+05
2002 04 23  1815    52387   65700      9   -1.00e+05    9   -1.00e+05
2002 04 23  1820    52387   66000      9   -1.00e+05    9   -1.00e+05
2002 04 23  1825    52387   66300      0    9.40e+01    0    2.44e+01
2002 04 23  1830    52387   66600      0    9.52e+01    0    2.47e+01
2002 04 23  1835    52387   66900      0    9.43e+01    0    2.40e+01
2002 04 23  1840    52387   67200      0    9.27e+01    0    2.41e+01
2002 04 23  1845    52387   67500      0    9.49e+01    0    2.47e+01
2002 04 23  1850    52387   67800      0    9.85e+01    0    2.50e+01
2002 04 23  1855    52387   68100      0    9.84e+01    0    2.46e+01
2002 04 23  1900    52387   68400      0    9.77e+01    0    2.49e+01
2002 04 23  1905    52387   68700      0    9.61e+01    0    2.42e+01
2002 04 23  1910    52387   69000      0    9.59e+01    0    2.42e+01
2002 04 23  1915    52387   69300      0    9.43e+01    0    2.38e+01
2002 04 23  1920    52387   69600      0    9.43e+01    0    2.38e+01
2002 04 23  1925    52387   69900      0    9.19e+01    0    2.34e+01
2002 04 23  1930    52387   70200      0    9.11e+01    0    2.33e+01
2002 04 23  1935    52387   70500      0    9.13e+01    0    2.36e+01
2002 04 23  1940    52387   70800      0    9.18e+01    0    2.31e+01
2002 04 23  1945    52387   71100      0    9.03e+01    0    2.30e+01
2002 04 23  1950    52387   71400      0    9.17e+01    0    2.27e+01
2002 04 23  1955    52387   71700      0    9.34e+01    0    2.37e+01
2002 04 23  2000    52387   72000      0    9.30e+01    0    2.35e+01
2002 04 23  2005    52387   72300      0    9.01e+01    0    2.26e+01
2002 04 23  2010    52387   72600      0    9.12e+01    0    2.25e+01
2002 04 23  2015    52387   72900      0    9.25e+01    0    2.27e+01
2002 04 23  2020    52387   73200      0    9.13e+01    0    2.28e+01
2002 04 23  2025    52387   73500      0    9.25e+01    0    2.29e+01
2002 04 23  2030    52387   73800      0    9.24e+01    0    2.27e+01
2002 04 23  2035    52387   74100      0    9.04e+01    0    2.22e+01
2002 04 23  2040    52387   74400      0    9.11e+01    0    2.20e+01
2002 04 23  2045    52387   74700      0    9.26e+01    0    2.32e+01
2002 04 23  2050    52387   75000      0    9.29e+01    0    2.26e+01
2002 04 23  2055    52387   75300      0    9.32e+01    0    2.24e+01
2002 04 23  2100    52387   75600      0    9.37e+01    0    2.26e+01
2002 04 23  2105    52387   75900      0    9.19e+01    0    2.26e+01
2002 04 23  2110    52387   76200      0    9.34e+01    0    2.31e+01
2002 04 23  2115    52387   76500      0    9.26e+01    0    2.27e+01
2002 04 23  2120    52387   76800      0    9.40e+01    0    2.28e+01
2002 04 23  2125    52387   77100      0    9.30e+01    0    2.24e+01
2002 04 23  2130    52387   77400      0    9.15e+01    0    2.24e+01
2002 04 23  2135    52387   77700      0    9.69e+01    0    2.30e+01
2002 04 23  2140    52387   78000      0    9.42e+01    0    2.29e+01
2002 04 23  2145    52387   78300      0    9.51e+01    0    2.32e+01
2002 04 23  2150    52387   78600      0    9.40e+01    0    2.22e+01
2002 04 23  2155    52387   78900      0    9.86e+01    0    2.39e+01
2002 04 23  2200    52387   79200      0    9.79e+01    0    2.31e+01
2002 04 23  2205    52387   79500      0    9.75e+01    0    2.31e+01
2002 04 23  2210    52387   79800      0    9.53e+01    0    2.33e+01
2002 04 23  2215    52387   80100      0    9.56e+01    0    2.29e+01
2002 04 23  2220    52387   80400      0    9.52e+01    0    2.26e+01
2002 04 23  2225    52387   80700      0    9.55e+01    0    2.29e+01
2002 04 23  2230    52387   81000      0    9.50e+01    0    2.22e+01
2002 04 23  2235    52387   81300      0    9.37e+01    0    2.16e+01
2002 04 23  2240    52387   81600      0    9.51e+01    0    2.32e+01
2002 04 23  2245    52387   81900      0    9.63e+01    0    2.26e+01
2002 04 23  2250    52387   82200      0    9.59e+01    0    2.21e+01
2002 04 23  2255    52387   82500      0    9.49e+01    0    2.27e+01
2002 04 23  2300    52387   82800      0    9.47e+01    0    2.22e+01
2002 04 23  2305    52387   83100      0    9.50e+01    0    2.24e+01
2002 04 23  2310    52387   83400      0    9.45e+01    0    2.19e+01
2002 04 23  2315    52387   83700      0    9.35e+01    0    2.13e+01
2002 04 23  2320    52387   84000      0    9.26e+01    0    2.13e+01
2002 04 23  2325    52387   84300      0    9.21e+01    0    2.19e+01
2002 04 23  2330    52387   84600      0    9.15e+01    0    2.13e+01
2002 04 23  2335    52387   84900      0    9.23e+01    0    2.17e+01
2002 04 23  2340    52387   85200      0    9.36e+01    0    2.19e+01
2002 04 23  2345    52387   85500      0    9.59e+01    0    2.22e+01
2002 04 23  2350    52387   85800      0    9.60e+01    0    2.13e+01
2002 04 23  2355    52387   86100      0    9.51e+01    0    2.15e+01
