:Data_list: 20020422_ace_sis_5m.txt
:Created: 2002 Apr 23 0011 UT
# Prepared by the U.S. Dept. of Commerce, NOAA, Space Environment Center.
# Please send comments and suggestions to sec@sec.noaa.gov 
# 
# Units: proton flux p/cs2-sec-ster
# Status(S): 0 = nominal data, 1 to 8 = bad data record, 9 = no data
# Missing data values: -1.00e+05
# Source: ACE Satellite - Solar Isotope Spectrometer
#
# 5-minute averaged Real-time Integral Flux of High-energy Solar Protons
# 
#                 Modified Seconds
# UT Date   Time   Julian  of the      ---- Integral Proton Flux ----
# YR MO DA  HHMM     Day     Day       S    > 10 MeV    S    > 30 MeV
#--------------------------------------------------------------------
2002 04 22  0000    52386       0      0    6.61e+03    0    1.85e+03
2002 04 22  0005    52386     300      0    6.47e+03    0    1.70e+03
2002 04 22  0010    52386     600      0    6.32e+03    0    1.56e+03
2002 04 22  0015    52386     900      0    6.27e+03    0    1.50e+03
2002 04 22  0020    52386    1200      0    6.04e+03    0    1.28e+03
2002 04 22  0025    52386    1500      0    6.14e+03    0    1.38e+03
2002 04 22  0030    52386    1800      0    6.10e+03    0    1.33e+03
2002 04 22  0035    52386    2100      0    6.18e+03    0    1.42e+03
2002 04 22  0040    52386    2400      0    6.11e+03    0    1.35e+03
2002 04 22  0045    52386    2700      0    6.33e+03    0    1.57e+03
2002 04 22  0050    52386    3000      0    6.17e+03    0    1.40e+03
2002 04 22  0055    52386    3300      0    6.28e+03    0    1.51e+03
2002 04 22  0100    52386    3600      0    6.29e+03    0    1.52e+03
2002 04 22  0105    52386    3900      0    6.24e+03    0    1.48e+03
2002 04 22  0110    52386    4200      0    6.22e+03    0    1.45e+03
2002 04 22  0115    52386    4500      0    6.15e+03    0    1.38e+03
2002 04 22  0120    52386    4800      0    6.32e+03    0    1.55e+03
2002 04 22  0125    52386    5100      0    6.37e+03    0    1.61e+03
2002 04 22  0130    52386    5400      0    6.40e+03    0    1.63e+03
2002 04 22  0135    52386    5700      0    6.39e+03    0    1.62e+03
2002 04 22  0140    52386    6000      0    6.45e+03    0    1.68e+03
2002 04 22  0145    52386    6300      0    6.24e+03    0    1.47e+03
2002 04 22  0150    52386    6600      0    6.41e+03    0    1.65e+03
2002 04 22  0155    52386    6900      0    6.27e+03    0    1.51e+03
2002 04 22  0200    52386    7200      0    6.34e+03    0    1.58e+03
2002 04 22  0205    52386    7500      0    6.01e+03    0    1.29e+03
2002 04 22  0210    52386    7800      0    5.96e+03    0    1.20e+03
2002 04 22  0215    52386    8100      0    5.87e+03    0    1.17e+03
2002 04 22  0220    52386    8400      0    5.76e+03    0    1.22e+03
2002 04 22  0225    52386    8700      0    5.15e+03    0    1.05e+03
2002 04 22  0230    52386    9000      0    4.99e+03    0    1.08e+03
2002 04 22  0235    52386    9300      0    5.14e+03    0    1.08e+03
2002 04 22  0240    52386    9600      0    5.21e+03    0    1.08e+03
2002 04 22  0245    52386    9900      0    5.28e+03    0    1.12e+03
2002 04 22  0250    52386   10200      0    5.42e+03    0    1.13e+03
2002 04 22  0255    52386   10500      0    5.44e+03    0    1.15e+03
2002 04 22  0300    52386   10800      0    5.49e+03    0    1.14e+03
2002 04 22  0305    52386   11100      0    5.42e+03    0    1.15e+03
2002 04 22  0310    52386   11400      0    5.30e+03    0    1.10e+03
2002 04 22  0315    52386   11700      0    5.05e+03    0    1.05e+03
2002 04 22  0320    52386   12000      0    4.84e+03    0    1.07e+03
2002 04 22  0325    52386   12300      0    4.77e+03    0    1.06e+03
2002 04 22  0330    52386   12600      0    4.96e+03    0    1.09e+03
2002 04 22  0335    52386   12900      0    5.20e+03    0    1.14e+03
2002 04 22  0340    52386   13200      0    5.06e+03    0    1.03e+03
2002 04 22  0345    52386   13500      0    4.96e+03    0    1.01e+03
2002 04 22  0350    52386   13800      0    4.96e+03    0    1.11e+03
2002 04 22  0355    52386   14100      0    4.70e+03    0    9.93e+02
2002 04 22  0400    52386   14400      0    4.90e+03    0    1.01e+03
2002 04 22  0405    52386   14700      0    4.77e+03    0    1.06e+03
2002 04 22  0410    52386   15000      0    4.64e+03    0    1.02e+03
2002 04 22  0415    52386   15300      0    4.50e+03    0    1.00e+03
2002 04 22  0420    52386   15600      0    4.72e+03    0    1.02e+03
2002 04 22  0425    52386   15900      0    4.70e+03    0    9.78e+02
2002 04 22  0430    52386   16200      0    4.97e+03    0    1.01e+03
2002 04 22  0435    52386   16500      0    4.88e+03    0    1.03e+03
2002 04 22  0440    52386   16800      0    4.82e+03    0    1.04e+03
2002 04 22  0445    52386   17100      0    5.00e+03    0    1.05e+03
2002 04 22  0450    52386   17400      0    4.94e+03    0    1.05e+03
2002 04 22  0455    52386   17700      0    4.94e+03    0    1.09e+03
2002 04 22  0500    52386   18000      0    5.11e+03    0    1.05e+03
2002 04 22  0505    52386   18300      0    4.94e+03    0    1.07e+03
2002 04 22  0510    52386   18600      0    5.01e+03    0    1.09e+03
2002 04 22  0515    52386   18900      0    5.01e+03    0    1.04e+03
2002 04 22  0520    52386   19200      0    4.85e+03    0    1.10e+03
2002 04 22  0525    52386   19500      0    4.88e+03    0    1.06e+03
2002 04 22  0530    52386   19800      0    4.87e+03    0    1.04e+03
2002 04 22  0535    52386   20100      0    4.83e+03    0    1.06e+03
2002 04 22  0540    52386   20400      0    4.70e+03    0    1.05e+03
2002 04 22  0545    52386   20700      0    4.49e+03    0    9.74e+02
2002 04 22  0550    52386   21000      0    4.29e+03    0    9.81e+02
2002 04 22  0555    52386   21300      0    4.29e+03    0    9.18e+02
2002 04 22  0600    52386   21600      0    4.16e+03    0    9.22e+02
2002 04 22  0605    52386   21900      0    4.43e+03    0    9.88e+02
2002 04 22  0610    52386   22200      0    3.96e+03    0    8.89e+02
2002 04 22  0615    52386   22500      0    3.43e+03    0    8.10e+02
2002 04 22  0620    52386   22800      0    3.63e+03    0    8.43e+02
2002 04 22  0625    52386   23100      0    3.88e+03    0    8.36e+02
2002 04 22  0630    52386   23400      0    3.80e+03    0    8.42e+02
2002 04 22  0635    52386   23700      0    3.76e+03    0    8.42e+02
2002 04 22  0640    52386   24000      0    3.68e+03    0    8.39e+02
2002 04 22  0645    52386   24300      0    3.70e+03    0    7.98e+02
2002 04 22  0650    52386   24600      0    3.71e+03    0    8.87e+02
2002 04 22  0655    52386   24900      0    3.64e+03    0    7.92e+02
2002 04 22  0700    52386   25200      0    3.57e+03    0    8.16e+02
2002 04 22  0705    52386   25500      0    3.55e+03    0    8.28e+02
2002 04 22  0710    52386   25800      0    3.26e+03    0    7.69e+02
2002 04 22  0715    52386   26100      0    2.93e+03    0    7.04e+02
2002 04 22  0720    52386   26400      0    2.86e+03    0    6.93e+02
2002 04 22  0725    52386   26700      0    2.90e+03    0    7.04e+02
2002 04 22  0730    52386   27000      0    2.95e+03    0    7.25e+02
2002 04 22  0735    52386   27300      0    2.93e+03    0    6.99e+02
2002 04 22  0740    52386   27600      0    2.88e+03    0    6.93e+02
2002 04 22  0745    52386   27900      0    2.73e+03    0    6.65e+02
2002 04 22  0750    52386   28200      0    2.48e+03    0    6.39e+02
2002 04 22  0755    52386   28500      0    2.46e+03    0    6.15e+02
2002 04 22  0800    52386   28800      0    2.63e+03    0    6.58e+02
2002 04 22  0805    52386   29100      0    2.72e+03    0    6.71e+02
2002 04 22  0810    52386   29400      0    2.64e+03    0    6.57e+02
2002 04 22  0815    52386   29700      0    2.62e+03    0    6.74e+02
2002 04 22  0820    52386   30000      0    2.44e+03    0    5.98e+02
2002 04 22  0825    52386   30300      0    2.28e+03    0    5.96e+02
2002 04 22  0830    52386   30600      0    2.14e+03    0    5.44e+02
2002 04 22  0835    52386   30900      0    2.18e+03    0    5.47e+02
2002 04 22  0840    52386   31200      0    2.09e+03    0    5.37e+02
2002 04 22  0845    52386   31500      0    2.01e+03    0    5.27e+02
2002 04 22  0850    52386   31800      0    1.89e+03    0    4.90e+02
2002 04 22  0855    52386   32100      0    1.87e+03    0    4.83e+02
2002 04 22  0900    52386   32400      0    1.84e+03    0    4.83e+02
2002 04 22  0905    52386   32700      0    1.84e+03    0    4.79e+02
2002 04 22  0910    52386   33000      0    1.85e+03    0    4.79e+02
2002 04 22  0915    52386   33300      0    1.83e+03    0    4.91e+02
2002 04 22  0920    52386   33600      0    1.81e+03    0    4.84e+02
2002 04 22  0925    52386   33900      0    1.79e+03    0    4.81e+02
2002 04 22  0930    52386   34200      0    1.79e+03    0    4.83e+02
2002 04 22  0935    52386   34500      0    1.83e+03    0    4.88e+02
2002 04 22  0940    52386   34800      0    1.81e+03    0    4.67e+02
2002 04 22  0945    52386   35100      0    1.81e+03    0    4.92e+02
2002 04 22  0950    52386   35400      0    1.81e+03    0    4.51e+02
2002 04 22  0955    52386   35700      0    1.78e+03    0    4.72e+02
2002 04 22  1000    52386   36000      0    1.75e+03    0    4.49e+02
2002 04 22  1005    52386   36300      0    1.76e+03    0    4.55e+02
2002 04 22  1010    52386   36600      0    1.77e+03    0    4.57e+02
2002 04 22  1015    52386   36900      0    1.76e+03    0    4.62e+02
2002 04 22  1020    52386   37200      0    1.70e+03    0    4.49e+02
2002 04 22  1025    52386   37500      0    1.66e+03    0    4.55e+02
2002 04 22  1030    52386   37800      0    1.65e+03    0    4.46e+02
2002 04 22  1035    52386   38100      0    1.58e+03    0    4.33e+02
2002 04 22  1040    52386   38400      0    1.62e+03    0    4.37e+02
2002 04 22  1045    52386   38700      0    1.60e+03    0    4.39e+02
2002 04 22  1050    52386   39000      0    1.61e+03    0    4.51e+02
2002 04 22  1055    52386   39300      0    1.55e+03    0    4.25e+02
2002 04 22  1100    52386   39600      0    1.54e+03    0    4.28e+02
2002 04 22  1105    52386   39900      0    1.52e+03    0    4.25e+02
2002 04 22  1110    52386   40200      0    1.41e+03    0    4.02e+02
2002 04 22  1115    52386   40500      0    1.38e+03    0    3.98e+02
2002 04 22  1120    52386   40800      0    1.34e+03    0    3.70e+02
2002 04 22  1125    52386   41100      0    1.38e+03    0    3.87e+02
2002 04 22  1130    52386   41400      0    1.39e+03    0    3.87e+02
2002 04 22  1135    52386   41700      0    1.30e+03    0    3.77e+02
2002 04 22  1140    52386   42000      0    1.27e+03    0    3.60e+02
2002 04 22  1145    52386   42300      0    1.31e+03    0    3.72e+02
2002 04 22  1150    52386   42600      0    1.34e+03    0    3.80e+02
2002 04 22  1155    52386   42900      0    1.28e+03    0    3.59e+02
2002 04 22  1200    52386   43200      0    1.30e+03    0    3.79e+02
2002 04 22  1205    52386   43500      0    1.27e+03    0    3.64e+02
2002 04 22  1210    52386   43800      0    1.29e+03    0    3.66e+02
2002 04 22  1215    52386   44100      0    1.30e+03    0    3.57e+02
2002 04 22  1220    52386   44400      0    1.24e+03    0    3.49e+02
2002 04 22  1225    52386   44700      0    1.24e+03    0    3.59e+02
2002 04 22  1230    52386   45000      0    1.22e+03    0    3.42e+02
2002 04 22  1235    52386   45300      0    1.19e+03    0    3.45e+02
2002 04 22  1240    52386   45600      0    1.18e+03    0    3.37e+02
2002 04 22  1245    52386   45900      0    1.15e+03    0    3.32e+02
2002 04 22  1250    52386   46200      0    1.09e+03    0    3.13e+02
2002 04 22  1255    52386   46500      0    1.13e+03    0    3.28e+02
2002 04 22  1300    52386   46800      0    1.13e+03    0    3.22e+02
2002 04 22  1305    52386   47100      0    1.12e+03    0    3.31e+02
2002 04 22  1310    52386   47400      0    1.10e+03    0    3.10e+02
2002 04 22  1315    52386   47700      0    1.08e+03    0    3.03e+02
2002 04 22  1320    52386   48000      0    1.02e+03    0    2.98e+02
2002 04 22  1325    52386   48300      0    1.02e+03    0    2.93e+02
2002 04 22  1330    52386   48600      0    1.01e+03    0    2.94e+02
2002 04 22  1335    52386   48900      0    9.83e+02    0    3.00e+02
2002 04 22  1340    52386   49200      0    9.76e+02    0    2.85e+02
2002 04 22  1345    52386   49500      0    9.22e+02    0    2.69e+02
2002 04 22  1350    52386   49800      0    8.28e+02    0    2.47e+02
2002 04 22  1355    52386   50100      0    7.97e+02    0    2.36e+02
2002 04 22  1400    52386   50400      0    8.11e+02    0    2.42e+02
2002 04 22  1405    52386   50700      0    8.09e+02    0    2.39e+02
2002 04 22  1410    52386   51000      0    7.92e+02    0    2.41e+02
2002 04 22  1415    52386   51300      0    7.77e+02    0    2.34e+02
2002 04 22  1420    52386   51600      0    8.18e+02    0    2.46e+02
2002 04 22  1425    52386   51900      0    8.10e+02    0    2.37e+02
2002 04 22  1430    52386   52200      0    8.12e+02    0    2.38e+02
2002 04 22  1435    52386   52500      0    7.57e+02    0    2.27e+02
2002 04 22  1440    52386   52800      0    7.13e+02    0    2.16e+02
2002 04 22  1445    52386   53100      0    6.88e+02    0    2.09e+02
2002 04 22  1450    52386   53400      0    6.78e+02    0    2.09e+02
2002 04 22  1455    52386   53700      0    6.76e+02    0    2.09e+02
2002 04 22  1500    52386   54000      0    6.69e+02    0    2.00e+02
2002 04 22  1505    52386   54300      0    6.41e+02    0    1.99e+02
2002 04 22  1510    52386   54600      0    6.65e+02    0    1.98e+02
2002 04 22  1515    52386   54900      0    6.50e+02    0    2.00e+02
2002 04 22  1520    52386   55200      0    6.47e+02    0    1.98e+02
2002 04 22  1525    52386   55500      0    6.41e+02    0    1.97e+02
2002 04 22  1530    52386   55800      0    6.36e+02    0    1.99e+02
2002 04 22  1535    52386   56100      0    6.36e+02    0    2.00e+02
2002 04 22  1540    52386   56400      0    6.26e+02    0    1.92e+02
2002 04 22  1545    52386   56700      0    6.20e+02    0    1.97e+02
2002 04 22  1550    52386   57000      0    6.09e+02    0    1.90e+02
2002 04 22  1555    52386   57300      0    6.05e+02    0    1.90e+02
2002 04 22  1600    52386   57600      0    6.10e+02    0    1.96e+02
2002 04 22  1605    52386   57900      0    6.02e+02    0    1.88e+02
2002 04 22  1610    52386   58200      0    6.06e+02    0    1.92e+02
2002 04 22  1615    52386   58500      0    5.88e+02    0    1.86e+02
2002 04 22  1620    52386   58800      0    5.91e+02    0    1.83e+02
2002 04 22  1625    52386   59100      0    5.90e+02    0    1.83e+02
2002 04 22  1630    52386   59400      0    5.96e+02    0    1.85e+02
2002 04 22  1635    52386   59700      0    5.92e+02    0    1.92e+02
2002 04 22  1640    52386   60000      0    5.79e+02    0    1.79e+02
2002 04 22  1645    52386   60300      0    5.91e+02    0    1.87e+02
2002 04 22  1650    52386   60600      0    5.83e+02    0    1.80e+02
2002 04 22  1655    52386   60900      0    5.84e+02    0    1.86e+02
2002 04 22  1700    52386   61200      0    5.75e+02    0    1.84e+02
2002 04 22  1705    52386   61500      0    5.72e+02    0    1.82e+02
2002 04 22  1710    52386   61800      0    5.65e+02    0    1.84e+02
2002 04 22  1715    52386   62100      0    5.68e+02    0    1.84e+02
2002 04 22  1720    52386   62400      0    5.61e+02    0    1.76e+02
2002 04 22  1725    52386   62700      0    5.58e+02    0    1.70e+02
2002 04 22  1730    52386   63000      0    5.61e+02    0    1.80e+02
2002 04 22  1735    52386   63300      0    5.36e+02    0    1.72e+02
2002 04 22  1740    52386   63600      0    5.21e+02    0    1.67e+02
2002 04 22  1745    52386   63900      0    5.17e+02    0    1.64e+02
2002 04 22  1750    52386   64200      0    5.26e+02    0    1.66e+02
2002 04 22  1755    52386   64500      0    5.22e+02    0    1.62e+02
2002 04 22  1800    52386   64800      0    5.19e+02    0    1.67e+02
2002 04 22  1805    52386   65100      0    5.05e+02    0    1.59e+02
2002 04 22  1810    52386   65400      0    5.16e+02    0    1.67e+02
2002 04 22  1815    52386   65700      0    5.15e+02    0    1.65e+02
2002 04 22  1820    52386   66000      0    5.11e+02    0    1.64e+02
2002 04 22  1825    52386   66300      9   -1.00e+05    9   -1.00e+05
2002 04 22  1830    52386   66600      0    3.88e+02    0    1.25e+02
2002 04 22  1835    52386   66900      0    5.04e+02    0    1.63e+02
2002 04 22  1840    52386   67200      0    4.95e+02    0    1.58e+02
2002 04 22  1845    52386   67500      0    5.01e+02    0    1.60e+02
2002 04 22  1850    52386   67800      0    4.91e+02    0    1.61e+02
2002 04 22  1855    52386   68100      0    4.71e+02    0    1.56e+02
2002 04 22  1900    52386   68400      0    4.65e+02    0    1.55e+02
2002 04 22  1905    52386   68700      0    4.59e+02    0    1.49e+02
2002 04 22  1910    52386   69000      0    4.48e+02    0    1.47e+02
2002 04 22  1915    52386   69300      0    4.52e+02    0    1.47e+02
2002 04 22  1920    52386   69600      0    4.50e+02    0    1.46e+02
2002 04 22  1925    52386   69900      0    4.49e+02    0    1.46e+02
2002 04 22  1930    52386   70200      0    4.45e+02    0    1.44e+02
2002 04 22  1935    52386   70500      0    4.30e+02    0    1.39e+02
2002 04 22  1940    52386   70800      0    4.20e+02    0    1.38e+02
2002 04 22  1945    52386   71100      0    3.90e+02    0    1.28e+02
2002 04 22  1950    52386   71400      0    3.83e+02    0    1.29e+02
2002 04 22  1955    52386   71700      0    3.75e+02    0    1.24e+02
2002 04 22  2000    52386   72000      0    3.63e+02    0    1.21e+02
2002 04 22  2005    52386   72300      0    3.54e+02    0    1.18e+02
2002 04 22  2010    52386   72600      0    3.56e+02    0    1.17e+02
2002 04 22  2015    52386   72900      0    3.54e+02    0    1.20e+02
2002 04 22  2020    52386   73200      0    3.51e+02    0    1.19e+02
2002 04 22  2025    52386   73500      0    3.42e+02    0    1.15e+02
2002 04 22  2030    52386   73800      0    3.35e+02    0    1.12e+02
2002 04 22  2035    52386   74100      0    3.30e+02    0    1.11e+02
2002 04 22  2040    52386   74400      0    3.32e+02    0    1.09e+02
2002 04 22  2045    52386   74700      0    3.30e+02    0    1.11e+02
2002 04 22  2050    52386   75000      0    3.35e+02    0    1.10e+02
2002 04 22  2055    52386   75300      0    3.34e+02    0    1.11e+02
2002 04 22  2100    52386   75600      0    3.31e+02    0    1.09e+02
2002 04 22  2105    52386   75900      0    3.29e+02    0    1.11e+02
2002 04 22  2110    52386   76200      0    3.20e+02    0    1.08e+02
2002 04 22  2115    52386   76500      0    3.16e+02    0    1.05e+02
2002 04 22  2120    52386   76800      0    3.14e+02    0    1.03e+02
2002 04 22  2125    52386   77100      0    3.19e+02    0    1.07e+02
2002 04 22  2130    52386   77400      0    3.17e+02    0    1.06e+02
2002 04 22  2135    52386   77700      0    3.18e+02    0    1.06e+02
2002 04 22  2140    52386   78000      0    3.17e+02    0    1.07e+02
2002 04 22  2145    52386   78300      0    3.19e+02    0    1.08e+02
2002 04 22  2150    52386   78600      0    3.18e+02    0    1.08e+02
2002 04 22  2155    52386   78900      0    3.13e+02    0    1.05e+02
2002 04 22  2200    52386   79200      0    3.07e+02    0    1.04e+02
2002 04 22  2205    52386   79500      0    3.06e+02    0    1.02e+02
2002 04 22  2210    52386   79800      0    3.02e+02    0    1.01e+02
2002 04 22  2215    52386   80100      0    3.02e+02    0    1.03e+02
2002 04 22  2220    52386   80400      0    2.96e+02    0    9.84e+01
2002 04 22  2225    52386   80700      0    2.94e+02    0    9.83e+01
2002 04 22  2230    52386   81000      0    2.91e+02    0    9.64e+01
2002 04 22  2235    52386   81300      0    2.95e+02    0    9.76e+01
2002 04 22  2240    52386   81600      0    2.96e+02    0    9.89e+01
2002 04 22  2245    52386   81900      0    2.97e+02    0    9.86e+01
2002 04 22  2250    52386   82200      0    2.93e+02    0    9.62e+01
2002 04 22  2255    52386   82500      0    2.91e+02    0    9.64e+01
2002 04 22  2300    52386   82800      0    2.91e+02    0    9.55e+01
2002 04 22  2305    52386   83100      0    2.87e+02    0    9.62e+01
2002 04 22  2310    52386   83400      0    2.66e+02    0    8.68e+01
2002 04 22  2315    52386   83700      0    2.63e+02    0    8.72e+01
2002 04 22  2320    52386   84000      0    2.69e+02    0    8.97e+01
2002 04 22  2325    52386   84300      0    2.66e+02    0    8.90e+01
2002 04 22  2330    52386   84600      0    2.66e+02    0    8.79e+01
2002 04 22  2335    52386   84900      0    2.69e+02    0    8.89e+01
2002 04 22  2340    52386   85200      0    2.72e+02    0    8.82e+01
2002 04 22  2345    52386   85500      0    2.72e+02    0    9.09e+01
2002 04 22  2350    52386   85800      0    2.74e+02    0    9.03e+01
2002 04 22  2355    52386   86100      0    2.78e+02    0    9.29e+01
