:Data_list: 20020115_ace_sis_5m.txt
:Created: 2002 Jan 16 0011 UT
# Prepared by the U.S. Dept. of Commerce, NOAA, Space Environment Center.
# Please send comments and suggestions to sec@sec.noaa.gov 
# 
# Units: proton flux p/cs2-sec-ster
# Status(S): 0 = nominal data, 1 to 8 = bad data record, 9 = no data
# Missing data values: -1.00e+05
# Source: ACE Satellite - Solar Isotope Spectrometer
#
# 5-minute averaged Real-time Integral Flux of High-energy Solar Protons
# 
#                 Modified Seconds
# UT Date   Time   Julian  of the      ---- Integral Proton Flux ----
# YR MO DA  HHMM     Day     Day       S    > 10 MeV    S    > 30 MeV
#--------------------------------------------------------------------
2002 01 15  0000    52289       0      0    6.90e+00    0    1.46e+00
2002 01 15  0005    52289     300      0    6.94e+00    0    1.48e+00
2002 01 15  0010    52289     600      0    6.85e+00    0    1.48e+00
2002 01 15  0015    52289     900      0    6.81e+00    0    1.44e+00
2002 01 15  0020    52289    1200      0    7.01e+00    0    1.50e+00
2002 01 15  0025    52289    1500      0    6.83e+00    0    1.44e+00
2002 01 15  0030    52289    1800      0    6.92e+00    0    1.51e+00
2002 01 15  0035    52289    2100      0    7.18e+00    0    1.54e+00
2002 01 15  0040    52289    2400      0    7.04e+00    0    1.55e+00
2002 01 15  0045    52289    2700      0    6.98e+00    0    1.51e+00
2002 01 15  0050    52289    3000      0    7.27e+00    0    1.58e+00
2002 01 15  0055    52289    3300      0    7.34e+00    0    1.53e+00
2002 01 15  0100    52289    3600      0    7.43e+00    0    1.65e+00
2002 01 15  0105    52289    3900      0    7.02e+00    0    1.57e+00
2002 01 15  0110    52289    4200      0    6.91e+00    0    1.54e+00
2002 01 15  0115    52289    4500      0    7.12e+00    0    1.51e+00
2002 01 15  0120    52289    4800      0    7.08e+00    0    1.50e+00
2002 01 15  0125    52289    5100      0    7.30e+00    0    1.63e+00
2002 01 15  0130    52289    5400      0    7.23e+00    0    1.53e+00
2002 01 15  0135    52289    5700      0    6.96e+00    0    1.48e+00
2002 01 15  0140    52289    6000      0    7.07e+00    0    1.55e+00
2002 01 15  0145    52289    6300      0    7.17e+00    0    1.58e+00
2002 01 15  0150    52289    6600      0    7.04e+00    0    1.50e+00
2002 01 15  0155    52289    6900      0    7.06e+00    0    1.53e+00
2002 01 15  0200    52289    7200      0    7.14e+00    0    1.51e+00
2002 01 15  0205    52289    7500      0    7.20e+00    0    1.62e+00
2002 01 15  0210    52289    7800      0    7.06e+00    0    1.54e+00
2002 01 15  0215    52289    8100      0    7.25e+00    0    1.59e+00
2002 01 15  0220    52289    8400      0    7.21e+00    0    1.52e+00
2002 01 15  0225    52289    8700      0    7.28e+00    0    1.56e+00
2002 01 15  0230    52289    9000      0    7.11e+00    0    1.47e+00
2002 01 15  0235    52289    9300      0    7.06e+00    0    1.57e+00
2002 01 15  0240    52289    9600      0    7.59e+00    0    1.67e+00
2002 01 15  0245    52289    9900      0    7.82e+00    0    1.74e+00
2002 01 15  0250    52289   10200      0    8.15e+00    0    1.71e+00
2002 01 15  0255    52289   10500      0    7.74e+00    0    1.67e+00
2002 01 15  0300    52289   10800      0    7.36e+00    0    1.58e+00
2002 01 15  0305    52289   11100      0    7.44e+00    0    1.62e+00
2002 01 15  0310    52289   11400      0    7.56e+00    0    1.67e+00
2002 01 15  0315    52289   11700      0    7.56e+00    0    1.68e+00
2002 01 15  0320    52289   12000      0    7.55e+00    0    1.62e+00
2002 01 15  0325    52289   12300      0    8.66e+00    0    1.85e+00
2002 01 15  0330    52289   12600      0    8.66e+00    0    1.92e+00
2002 01 15  0335    52289   12900      0    8.57e+00    0    1.86e+00
2002 01 15  0340    52289   13200      0    7.64e+00    0    1.72e+00
2002 01 15  0345    52289   13500      0    7.65e+00    0    1.60e+00
2002 01 15  0350    52289   13800      0    7.90e+00    0    1.75e+00
2002 01 15  0355    52289   14100      0    7.84e+00    0    1.70e+00
2002 01 15  0400    52289   14400      0    7.58e+00    0    1.57e+00
2002 01 15  0405    52289   14700      0    7.69e+00    0    1.71e+00
2002 01 15  0410    52289   15000      0    7.55e+00    0    1.60e+00
2002 01 15  0415    52289   15300      0    7.83e+00    0    1.71e+00
2002 01 15  0420    52289   15600      0    7.77e+00    0    1.66e+00
2002 01 15  0425    52289   15900      0    7.61e+00    0    1.67e+00
2002 01 15  0430    52289   16200      0    7.30e+00    0    1.55e+00
2002 01 15  0435    52289   16500      0    7.48e+00    0    1.61e+00
2002 01 15  0440    52289   16800      0    7.13e+00    0    1.53e+00
2002 01 15  0445    52289   17100      0    7.26e+00    0    1.58e+00
2002 01 15  0450    52289   17400      0    7.57e+00    0    1.71e+00
2002 01 15  0455    52289   17700      0    8.04e+00    0    1.78e+00
2002 01 15  0500    52289   18000      0    8.33e+00    0    1.81e+00
2002 01 15  0505    52289   18300      0    7.50e+00    0    1.67e+00
2002 01 15  0510    52289   18600      0    7.43e+00    0    1.58e+00
2002 01 15  0515    52289   18900      0    7.80e+00    0    1.69e+00
2002 01 15  0520    52289   19200      0    7.61e+00    0    1.65e+00
2002 01 15  0525    52289   19500      0    7.72e+00    0    1.69e+00
2002 01 15  0530    52289   19800      0    7.87e+00    0    1.66e+00
2002 01 15  0535    52289   20100      0    8.21e+00    0    1.75e+00
2002 01 15  0540    52289   20400      0    8.17e+00    0    1.75e+00
2002 01 15  0545    52289   20700      0    8.09e+00    0    1.75e+00
2002 01 15  0550    52289   21000      0    7.68e+00    0    1.65e+00
2002 01 15  0555    52289   21300      0    7.82e+00    0    1.62e+00
2002 01 15  0600    52289   21600      0    7.86e+00    0    1.70e+00
2002 01 15  0605    52289   21900      0    8.84e+00    0    1.99e+00
2002 01 15  0610    52289   22200      0    8.80e+00    0    1.89e+00
2002 01 15  0615    52289   22500      0    8.24e+00    0    1.77e+00
2002 01 15  0620    52289   22800      0    8.14e+00    0    1.69e+00
2002 01 15  0625    52289   23100      0    8.00e+00    0    1.74e+00
2002 01 15  0630    52289   23400      0    8.11e+00    0    1.71e+00
2002 01 15  0635    52289   23700      0    8.39e+00    0    1.81e+00
2002 01 15  0640    52289   24000      0    9.10e+00    0    1.90e+00
2002 01 15  0645    52289   24300      0    8.64e+00    0    1.85e+00
2002 01 15  0650    52289   24600      0    7.82e+00    0    1.68e+00
2002 01 15  0655    52289   24900      0    8.21e+00    0    1.72e+00
2002 01 15  0700    52289   25200      0    8.58e+00    0    1.86e+00
2002 01 15  0705    52289   25500      0    8.35e+00    0    1.79e+00
2002 01 15  0710    52289   25800      0    8.77e+00    0    1.82e+00
2002 01 15  0715    52289   26100      0    9.38e+00    0    1.91e+00
2002 01 15  0720    52289   26400      9   -1.00e+05    9   -1.00e+05
2002 01 15  0725    52289   26700      0    8.32e+00    0    1.76e+00
2002 01 15  0730    52289   27000      0    8.64e+00    0    1.79e+00
2002 01 15  0735    52289   27300      0    9.34e+00    0    1.95e+00
2002 01 15  0740    52289   27600      0    8.48e+00    0    1.76e+00
2002 01 15  0745    52289   27900      0    8.73e+00    0    1.78e+00
2002 01 15  0750    52289   28200      0    8.74e+00    0    1.85e+00
2002 01 15  0755    52289   28500      0    8.73e+00    0    1.88e+00
2002 01 15  0800    52289   28800      0    8.68e+00    0    1.93e+00
2002 01 15  0805    52289   29100      0    8.39e+00    0    1.79e+00
2002 01 15  0810    52289   29400      0    8.27e+00    0    1.76e+00
2002 01 15  0815    52289   29700      0    8.32e+00    0    1.78e+00
2002 01 15  0820    52289   30000      0    8.99e+00    0    1.88e+00
2002 01 15  0825    52289   30300      0    8.96e+00    0    2.02e+00
2002 01 15  0830    52289   30600      0    7.89e+00    0    1.69e+00
2002 01 15  0835    52289   30900      0    8.11e+00    0    1.72e+00
2002 01 15  0840    52289   31200      0    8.15e+00    0    1.73e+00
2002 01 15  0845    52289   31500      0    8.82e+00    0    1.88e+00
2002 01 15  0850    52289   31800      0    8.40e+00    0    1.70e+00
2002 01 15  0855    52289   32100      0    9.24e+00    0    2.00e+00
2002 01 15  0900    52289   32400      0    9.38e+00    0    1.95e+00
2002 01 15  0905    52289   32700      0    8.36e+00    0    1.79e+00
2002 01 15  0910    52289   33000      0    8.30e+00    0    1.79e+00
2002 01 15  0915    52289   33300      0    8.93e+00    0    1.88e+00
2002 01 15  0920    52289   33600      0    8.99e+00    0    1.90e+00
2002 01 15  0925    52289   33900      0    9.11e+00    0    1.94e+00
2002 01 15  0930    52289   34200      0    1.02e+01    0    2.02e+00
2002 01 15  0935    52289   34500      0    1.03e+01    0    2.15e+00
2002 01 15  0940    52289   34800      0    9.50e+00    0    1.95e+00
2002 01 15  0945    52289   35100      0    9.07e+00    0    1.92e+00
2002 01 15  0950    52289   35400      0    9.27e+00    0    2.01e+00
2002 01 15  0955    52289   35700      0    9.30e+00    0    2.02e+00
2002 01 15  1000    52289   36000      0    9.28e+00    0    1.94e+00
2002 01 15  1005    52289   36300      0    8.94e+00    0    1.85e+00
2002 01 15  1010    52289   36600      0    8.93e+00    0    1.85e+00
2002 01 15  1015    52289   36900      0    8.58e+00    0    1.84e+00
2002 01 15  1020    52289   37200      0    9.47e+00    0    1.97e+00
2002 01 15  1025    52289   37500      0    9.65e+00    0    2.06e+00
2002 01 15  1030    52289   37800      0    8.82e+00    0    1.82e+00
2002 01 15  1035    52289   38100      0    8.89e+00    0    1.87e+00
2002 01 15  1040    52289   38400      0    8.98e+00    0    1.84e+00
2002 01 15  1045    52289   38700      0    8.74e+00    0    1.80e+00
2002 01 15  1050    52289   39000      0    8.85e+00    0    1.78e+00
2002 01 15  1055    52289   39300      0    8.91e+00    0    1.82e+00
2002 01 15  1100    52289   39600      0    8.66e+00    0    1.75e+00
2002 01 15  1105    52289   39900      0    8.44e+00    0    1.70e+00
2002 01 15  1110    52289   40200      0    8.84e+00    0    1.90e+00
2002 01 15  1115    52289   40500      0    9.45e+00    0    1.99e+00
2002 01 15  1120    52289   40800      0    8.92e+00    0    1.83e+00
2002 01 15  1125    52289   41100      0    8.78e+00    0    1.82e+00
2002 01 15  1130    52289   41400      0    8.50e+00    0    1.79e+00
2002 01 15  1135    52289   41700      0    8.50e+00    0    1.73e+00
2002 01 15  1140    52289   42000      0    8.66e+00    0    1.79e+00
2002 01 15  1145    52289   42300      0    9.72e+00    0    2.01e+00
2002 01 15  1150    52289   42600      0    1.00e+01    0    2.03e+00
2002 01 15  1155    52289   42900      0    8.96e+00    0    1.82e+00
2002 01 15  1200    52289   43200      0    9.02e+00    0    1.84e+00
2002 01 15  1205    52289   43500      0    9.25e+00    0    1.91e+00
2002 01 15  1210    52289   43800      0    9.28e+00    0    1.94e+00
2002 01 15  1215    52289   44100      0    9.26e+00    0    1.96e+00
2002 01 15  1220    52289   44400      0    9.97e+00    0    2.00e+00
2002 01 15  1225    52289   44700      0    1.01e+01    0    1.97e+00
2002 01 15  1230    52289   45000      0    9.29e+00    0    1.82e+00
2002 01 15  1235    52289   45300      0    9.14e+00    0    1.84e+00
2002 01 15  1240    52289   45600      0    9.25e+00    0    1.86e+00
2002 01 15  1245    52289   45900      0    9.25e+00    0    1.73e+00
2002 01 15  1250    52289   46200      0    8.74e+00    0    1.76e+00
2002 01 15  1255    52289   46500      0    9.43e+00    0    1.81e+00
2002 01 15  1300    52289   46800      0    9.19e+00    0    1.78e+00
2002 01 15  1305    52289   47100      0    8.77e+00    0    1.73e+00
2002 01 15  1310    52289   47400      0    8.88e+00    0    1.76e+00
2002 01 15  1315    52289   47700      0    8.85e+00    0    1.70e+00
2002 01 15  1320    52289   48000      0    9.16e+00    0    1.77e+00
2002 01 15  1325    52289   48300      0    1.03e+01    0    1.93e+00
2002 01 15  1330    52289   48600      0    1.14e+01    0    2.01e+00
2002 01 15  1335    52289   48900      0    1.06e+01    0    1.92e+00
2002 01 15  1340    52289   49200      0    1.01e+01    0    1.82e+00
2002 01 15  1345    52289   49500      0    1.06e+01    0    1.99e+00
2002 01 15  1350    52289   49800      0    1.11e+01    0    2.10e+00
2002 01 15  1355    52289   50100      0    1.06e+01    0    1.96e+00
2002 01 15  1400    52289   50400      0    1.14e+01    0    2.01e+00
2002 01 15  1405    52289   50700      0    1.17e+01    0    2.03e+00
2002 01 15  1410    52289   51000      0    1.04e+01    0    1.94e+00
2002 01 15  1415    52289   51300      0    1.01e+01    0    1.86e+00
2002 01 15  1420    52289   51600      0    1.11e+01    0    1.99e+00
2002 01 15  1425    52289   51900      0    1.16e+01    0    2.04e+00
2002 01 15  1430    52289   52200      0    1.23e+01    0    2.07e+00
2002 01 15  1435    52289   52500      0    1.25e+01    0    2.10e+00
2002 01 15  1440    52289   52800      0    1.28e+01    0    2.17e+00
2002 01 15  1445    52289   53100      0    1.17e+01    0    2.05e+00
2002 01 15  1450    52289   53400      0    1.16e+01    0    1.98e+00
2002 01 15  1455    52289   53700      0    1.14e+01    0    2.02e+00
2002 01 15  1500    52289   54000      0    1.17e+01    0    1.96e+00
2002 01 15  1505    52289   54300      0    1.16e+01    0    1.97e+00
2002 01 15  1510    52289   54600      0    1.26e+01    0    2.18e+00
2002 01 15  1515    52289   54900      0    1.29e+01    0    2.13e+00
2002 01 15  1520    52289   55200      0    1.17e+01    0    2.02e+00
2002 01 15  1525    52289   55500      0    1.22e+01    0    2.08e+00
2002 01 15  1530    52289   55800      0    1.20e+01    0    1.97e+00
2002 01 15  1535    52289   56100      0    1.17e+01    0    2.01e+00
2002 01 15  1540    52289   56400      0    1.16e+01    0    2.00e+00
2002 01 15  1545    52289   56700      0    1.25e+01    0    2.13e+00
2002 01 15  1550    52289   57000      0    1.25e+01    0    2.21e+00
2002 01 15  1555    52289   57300      0    1.17e+01    0    2.00e+00
2002 01 15  1600    52289   57600      0    1.13e+01    0    1.87e+00
2002 01 15  1605    52289   57900      0    1.14e+01    0    2.03e+00
2002 01 15  1610    52289   58200      0    1.16e+01    0    1.97e+00
2002 01 15  1615    52289   58500      0    1.14e+01    0    1.96e+00
2002 01 15  1620    52289   58800      0    1.28e+01    0    2.23e+00
2002 01 15  1625    52289   59100      9   -1.00e+05    9   -1.00e+05
2002 01 15  1630    52289   59400      9   -1.00e+05    9   -1.00e+05
2002 01 15  1635    52289   59700      9   -1.00e+05    9   -1.00e+05
2002 01 15  1640    52289   60000      0    1.21e+01    0    1.98e+00
2002 01 15  1645    52289   60300      0    1.30e+01    0    1.83e+00
2002 01 15  1650    52289   60600      9   -1.00e+05    9   -1.00e+05
2002 01 15  1655    52289   60900      9   -1.00e+05    9   -1.00e+05
2002 01 15  1700    52289   61200      0    2.54e+00    0    6.10e-01
2002 01 15  1705    52289   61500      0    1.26e+01    0    2.04e+00
2002 01 15  1710    52289   61800      0    9.01e+00    0    3.01e+00
2002 01 15  1715    52289   62100      0    2.20e+03    9   -1.00e+05
2002 01 15  1720    52289   62400      0    9.04e+00    0    1.98e+00
2002 01 15  1725    52289   62700      0    1.42e+01    0    2.22e+00
2002 01 15  1730    52289   63000      9   -1.00e+05    9   -1.00e+05
2002 01 15  1735    52289   63300      9   -1.00e+05    9   -1.00e+05
2002 01 15  1740    52289   63600      0    1.32e+01    0    1.77e+00
2002 01 15  1745    52289   63900      9   -1.00e+05    9   -1.00e+05
2002 01 15  1750    52289   64200      0    3.85e+01    0    3.19e+01
2002 01 15  1755    52289   64500      0    2.70e+01    0    2.01e+01
2002 01 15  1800    52289   64800      0    1.38e+01    0    2.24e+00
2002 01 15  1805    52289   65100      9   -1.00e+05    9   -1.00e+05
2002 01 15  1810    52289   65400      0    1.90e-01    0    1.20e-01
2002 01 15  1815    52289   65700      9   -1.00e+05    9   -1.00e+05
2002 01 15  1820    52289   66000      0    1.29e+01    0    1.94e+00
2002 01 15  1825    52289   66300      9   -1.00e+05    9   -1.00e+05
2002 01 15  1830    52289   66600      0    8.70e+00    0    1.18e+00
2002 01 15  1835    52289   66900      9   -1.00e+05    0    1.00e+00
2002 01 15  1840    52289   67200      0    2.00e-01    0    1.51e+00
2002 01 15  1845    52289   67500      0    2.90e-01    9   -1.00e+05
2002 01 15  1850    52289   67800      0    7.25e+00    0    1.23e+00
2002 01 15  1855    52289   68100      0    9.80e-01    0    2.65e-01
2002 01 15  1900    52289   68400      0    6.73e+01    0    5.34e+00
2002 01 15  1905    52289   68700      0    1.13e+01    0    2.16e+00
2002 01 15  1910    52289   69000      9   -1.00e+05    9   -1.00e+05
2002 01 15  1915    52289   69300      9   -1.00e+05    9   -1.00e+05
2002 01 15  1920    52289   69600      0    1.25e+01    0    1.83e+00
2002 01 15  1925    52289   69900      0    2.45e-01    0    1.50e-01
2002 01 15  1930    52289   70200      0    4.80e+01    0    4.87e+00
2002 01 15  1935    52289   70500      0    3.90e-01    0    2.40e-01
2002 01 15  1940    52289   70800      9   -1.00e+05    9   -1.00e+05
2002 01 15  1945    52289   71100      0    4.73e+01    0    3.94e+01
2002 01 15  1950    52289   71400      9   -1.00e+05    9   -1.00e+05
2002 01 15  1955    52289   71700      9   -1.00e+05    9   -1.00e+05
2002 01 15  2000    52289   72000      0    1.40e+01    0    1.96e+00
2002 01 15  2005    52289   72300      0    1.44e+01    0    2.00e+00
2002 01 15  2010    52289   72600      0    1.52e+01    0    2.03e+00
2002 01 15  2015    52289   72900      0    1.60e+01    0    2.21e+00
2002 01 15  2020    52289   73200      0    1.58e+01    0    2.35e+00
2002 01 15  2025    52289   73500      0    1.49e+01    0    2.16e+00
2002 01 15  2030    52289   73800      0    1.38e+01    0    1.95e+00
2002 01 15  2035    52289   74100      0    1.39e+01    0    2.08e+00
2002 01 15  2040    52289   74400      0    1.37e+01    0    1.91e+00
2002 01 15  2045    52289   74700      0    1.38e+01    0    1.98e+00
2002 01 15  2050    52289   75000      0    1.45e+01    0    2.07e+00
2002 01 15  2055    52289   75300      0    1.50e+01    0    2.14e+00
2002 01 15  2100    52289   75600      0    1.33e+01    0    1.90e+00
2002 01 15  2105    52289   75900      0    1.29e+01    0    1.84e+00
2002 01 15  2110    52289   76200      0    1.30e+01    0    1.84e+00
2002 01 15  2115    52289   76500      0    1.37e+01    0    1.91e+00
2002 01 15  2120    52289   76800      0    1.34e+01    0    1.94e+00
2002 01 15  2125    52289   77100      0    1.47e+01    0    2.18e+00
2002 01 15  2130    52289   77400      0    1.53e+01    0    2.17e+00
2002 01 15  2135    52289   77700      0    1.43e+01    0    2.02e+00
2002 01 15  2140    52289   78000      0    1.49e+01    0    2.11e+00
2002 01 15  2145    52289   78300      0    1.39e+01    0    2.04e+00
2002 01 15  2150    52289   78600      0    1.43e+01    0    2.02e+00
2002 01 15  2155    52289   78900      0    1.41e+01    0    2.02e+00
2002 01 15  2200    52289   79200      0    1.58e+01    0    2.20e+00
2002 01 15  2205    52289   79500      0    1.62e+01    0    2.22e+00
2002 01 15  2210    52289   79800      0    1.41e+01    0    1.89e+00
2002 01 15  2215    52289   80100      0    1.40e+01    0    1.86e+00
2002 01 15  2220    52289   80400      0    1.38e+01    0    1.86e+00
2002 01 15  2225    52289   80700      0    1.40e+01    0    1.91e+00
2002 01 15  2230    52289   81000      0    1.34e+01    0    1.92e+00
2002 01 15  2235    52289   81300      0    1.48e+01    0    2.18e+00
2002 01 15  2240    52289   81600      0    1.46e+01    0    2.10e+00
2002 01 15  2245    52289   81900      0    1.48e+01    0    2.11e+00
2002 01 15  2250    52289   82200      0    1.46e+01    0    2.04e+00
2002 01 15  2255    52289   82500      0    1.36e+01    0    1.96e+00
2002 01 15  2300    52289   82800      0    1.35e+01    0    1.95e+00
2002 01 15  2305    52289   83100      0    1.47e+01    0    2.16e+00
2002 01 15  2310    52289   83400      0    1.42e+01    0    2.08e+00
2002 01 15  2315    52289   83700      0    1.32e+01    0    1.95e+00
2002 01 15  2320    52289   84000      0    1.26e+01    0    1.72e+00
2002 01 15  2325    52289   84300      0    1.26e+01    0    1.82e+00
2002 01 15  2330    52289   84600      0    1.30e+01    0    1.95e+00
2002 01 15  2335    52289   84900      0    1.25e+01    0    1.79e+00
2002 01 15  2340    52289   85200      0    1.30e+01    0    1.83e+00
2002 01 15  2345    52289   85500      0    1.41e+01    0    2.09e+00
2002 01 15  2350    52289   85800      0    1.34e+01    0    1.91e+00
2002 01 15  2355    52289   86100      0    1.34e+01    0    1.83e+00
