:Data_list: 20021103_ace_sis_5m.txt
:Created: 2002 Nov 04 0011 UT
# Prepared by the U.S. Dept. of Commerce, NOAA, Space Environment Center.
# Please send comments and suggestions to sec@sec.noaa.gov 
# 
# Units: proton flux p/cs2-sec-ster
# Status(S): 0 = nominal data, 1 to 8 = bad data record, 9 = no data
# Missing data values: -1.00e+05
# Source: ACE Satellite - Solar Isotope Spectrometer
#
# 5-minute averaged Real-time Integral Flux of High-energy Solar Protons
# 
#                 Modified Seconds
# UT Date   Time   Julian  of the      ---- Integral Proton Flux ----
# YR MO DA  HHMM     Day     Day       S    > 10 MeV    S    > 30 MeV
#--------------------------------------------------------------------
2002 11 03  0000    52581       0      0    1.56e+00    0    6.93e-01
2002 11 03  0005    52581     300      0    1.53e+00    0    6.97e-01
2002 11 03  0010    52581     600      0    1.58e+00    0    6.83e-01
2002 11 03  0015    52581     900      0    1.58e+00    0    6.93e-01
2002 11 03  0020    52581    1200      0    1.55e+00    0    6.89e-01
2002 11 03  0025    52581    1500      0    1.57e+00    0    7.06e-01
2002 11 03  0030    52581    1800      0    1.57e+00    0    7.14e-01
2002 11 03  0035    52581    2100      0    1.50e+00    0    6.77e-01
2002 11 03  0040    52581    2400      0    1.55e+00    0    7.05e-01
2002 11 03  0045    52581    2700      0    1.54e+00    0    7.00e-01
2002 11 03  0050    52581    3000      0    1.54e+00    0    6.92e-01
2002 11 03  0055    52581    3300      0    1.52e+00    0    6.91e-01
2002 11 03  0100    52581    3600      0    1.52e+00    0    6.87e-01
2002 11 03  0105    52581    3900      0    1.54e+00    0    7.07e-01
2002 11 03  0110    52581    4200      0    1.54e+00    0    7.05e-01
2002 11 03  0115    52581    4500      0    1.56e+00    0    6.89e-01
2002 11 03  0120    52581    4800      0    1.50e+00    0    7.04e-01
2002 11 03  0125    52581    5100      0    1.51e+00    0    6.80e-01
2002 11 03  0130    52581    5400      0    1.51e+00    0    6.98e-01
2002 11 03  0135    52581    5700      0    1.53e+00    0    6.93e-01
2002 11 03  0140    52581    6000      0    1.53e+00    0    7.11e-01
2002 11 03  0145    52581    6300      0    1.51e+00    0    6.96e-01
2002 11 03  0150    52581    6600      0    1.48e+00    0    6.87e-01
2002 11 03  0155    52581    6900      0    1.49e+00    0    7.01e-01
2002 11 03  0200    52581    7200      0    1.50e+00    0    6.89e-01
2002 11 03  0205    52581    7500      0    1.49e+00    0    6.68e-01
2002 11 03  0210    52581    7800      0    1.48e+00    0    6.90e-01
2002 11 03  0215    52581    8100      0    1.49e+00    0    6.85e-01
2002 11 03  0220    52581    8400      0    1.49e+00    0    6.96e-01
2002 11 03  0225    52581    8700      0    1.50e+00    0    6.92e-01
2002 11 03  0230    52581    9000      0    1.46e+00    0    6.72e-01
2002 11 03  0235    52581    9300      0    1.48e+00    0    6.90e-01
2002 11 03  0240    52581    9600      0    1.48e+00    0    6.87e-01
2002 11 03  0245    52581    9900      0    1.47e+00    0    6.88e-01
2002 11 03  0250    52581   10200      0    1.47e+00    0    6.79e-01
2002 11 03  0255    52581   10500      0    1.48e+00    0    6.98e-01
2002 11 03  0300    52581   10800      0    1.46e+00    0    6.89e-01
2002 11 03  0305    52581   11100      0    1.49e+00    0    7.06e-01
2002 11 03  0310    52581   11400      0    1.46e+00    0    6.70e-01
2002 11 03  0315    52581   11700      0    1.51e+00    0    6.90e-01
2002 11 03  0320    52581   12000      0    1.50e+00    0    6.84e-01
2002 11 03  0325    52581   12300      0    1.47e+00    0    6.93e-01
2002 11 03  0330    52581   12600      0    1.47e+00    0    6.86e-01
2002 11 03  0335    52581   12900      0    1.51e+00    0    7.02e-01
2002 11 03  0340    52581   13200      0    1.46e+00    0    6.80e-01
2002 11 03  0345    52581   13500      0    1.48e+00    0    7.07e-01
2002 11 03  0350    52581   13800      0    1.45e+00    0    6.85e-01
2002 11 03  0355    52581   14100      0    1.43e+00    0    6.87e-01
2002 11 03  0400    52581   14400      0    1.46e+00    0    6.93e-01
2002 11 03  0405    52581   14700      0    1.44e+00    0    6.73e-01
2002 11 03  0410    52581   15000      0    1.47e+00    0    6.87e-01
2002 11 03  0415    52581   15300      0    1.48e+00    0    6.96e-01
2002 11 03  0420    52581   15600      0    1.47e+00    0    6.97e-01
2002 11 03  0425    52581   15900      0    1.46e+00    0    7.03e-01
2002 11 03  0430    52581   16200      0    1.44e+00    0    6.81e-01
2002 11 03  0435    52581   16500      0    1.45e+00    0    6.77e-01
2002 11 03  0440    52581   16800      0    1.48e+00    0    6.94e-01
2002 11 03  0445    52581   17100      0    1.42e+00    0    6.74e-01
2002 11 03  0450    52581   17400      0    1.43e+00    0    6.64e-01
2002 11 03  0455    52581   17700      0    1.43e+00    0    6.95e-01
2002 11 03  0500    52581   18000      0    1.42e+00    0    6.73e-01
2002 11 03  0505    52581   18300      0    1.42e+00    0    6.72e-01
2002 11 03  0510    52581   18600      0    1.46e+00    0    6.86e-01
2002 11 03  0515    52581   18900      0    1.44e+00    0    6.61e-01
2002 11 03  0520    52581   19200      0    1.47e+00    0    6.78e-01
2002 11 03  0525    52581   19500      0    1.49e+00    0    7.02e-01
2002 11 03  0530    52581   19800      0    1.44e+00    0    6.79e-01
2002 11 03  0535    52581   20100      0    1.44e+00    0    6.83e-01
2002 11 03  0540    52581   20400      0    1.37e+00    0    6.57e-01
2002 11 03  0545    52581   20700      0    1.36e+00    0    6.53e-01
2002 11 03  0550    52581   21000      0    1.38e+00    0    6.56e-01
2002 11 03  0555    52581   21300      0    1.41e+00    0    6.59e-01
2002 11 03  0600    52581   21600      0    1.40e+00    0    6.70e-01
2002 11 03  0605    52581   21900      0    1.40e+00    0    6.66e-01
2002 11 03  0610    52581   22200      0    1.39e+00    0    6.37e-01
2002 11 03  0615    52581   22500      0    1.41e+00    0    6.67e-01
2002 11 03  0620    52581   22800      0    1.42e+00    0    6.81e-01
2002 11 03  0625    52581   23100      0    1.37e+00    0    6.59e-01
2002 11 03  0630    52581   23400      0    1.36e+00    0    6.63e-01
2002 11 03  0635    52581   23700      0    1.37e+00    0    6.71e-01
2002 11 03  0640    52581   24000      0    1.42e+00    0    6.79e-01
2002 11 03  0645    52581   24300      0    1.39e+00    0    6.79e-01
2002 11 03  0650    52581   24600      0    1.42e+00    0    6.86e-01
2002 11 03  0655    52581   24900      0    1.41e+00    0    6.84e-01
2002 11 03  0700    52581   25200      0    1.40e+00    0    6.84e-01
2002 11 03  0705    52581   25500      0    1.39e+00    0    6.61e-01
2002 11 03  0710    52581   25800      0    1.33e+00    0    6.33e-01
2002 11 03  0715    52581   26100      0    1.39e+00    0    6.63e-01
2002 11 03  0720    52581   26400      0    1.38e+00    0    6.59e-01
2002 11 03  0725    52581   26700      0    1.37e+00    0    6.50e-01
2002 11 03  0730    52581   27000      0    1.39e+00    0    6.86e-01
2002 11 03  0735    52581   27300      0    1.39e+00    0    6.78e-01
2002 11 03  0740    52581   27600      0    1.39e+00    0    6.86e-01
2002 11 03  0745    52581   27900      0    1.36e+00    0    6.62e-01
2002 11 03  0750    52581   28200      0    1.32e+00    0    6.34e-01
2002 11 03  0755    52581   28500      0    1.36e+00    0    6.47e-01
2002 11 03  0800    52581   28800      0    1.34e+00    0    6.36e-01
2002 11 03  0805    52581   29100      0    1.36e+00    0    6.63e-01
2002 11 03  0810    52581   29400      0    1.35e+00    0    6.69e-01
2002 11 03  0815    52581   29700      0    1.35e+00    0    6.62e-01
2002 11 03  0820    52581   30000      0    1.35e+00    0    6.52e-01
2002 11 03  0825    52581   30300      0    1.34e+00    0    6.68e-01
2002 11 03  0830    52581   30600      0    1.34e+00    0    6.67e-01
2002 11 03  0835    52581   30900      0    1.35e+00    0    6.54e-01
2002 11 03  0840    52581   31200      0    1.33e+00    0    6.52e-01
2002 11 03  0845    52581   31500      0    1.36e+00    0    6.68e-01
2002 11 03  0850    52581   31800      0    1.34e+00    0    6.50e-01
2002 11 03  0855    52581   32100      0    1.33e+00    0    6.45e-01
2002 11 03  0900    52581   32400      0    1.35e+00    0    6.70e-01
2002 11 03  0905    52581   32700      0    1.37e+00    0    6.85e-01
2002 11 03  0910    52581   33000      0    1.33e+00    0    6.43e-01
2002 11 03  0915    52581   33300      0    1.35e+00    0    6.61e-01
2002 11 03  0920    52581   33600      0    1.34e+00    0    6.62e-01
2002 11 03  0925    52581   33900      0    1.33e+00    0    6.66e-01
2002 11 03  0930    52581   34200      0    1.33e+00    0    6.68e-01
2002 11 03  0935    52581   34500      0    1.29e+00    0    6.43e-01
2002 11 03  0940    52581   34800      9   -1.00e+05    9   -1.00e+05
2002 11 03  0945    52581   35100      9   -1.00e+05    9   -1.00e+05
2002 11 03  0950    52581   35400      9   -1.00e+05    9   -1.00e+05
2002 11 03  0955    52581   35700      9   -1.00e+05    9   -1.00e+05
2002 11 03  1000    52581   36000      9   -1.00e+05    9   -1.00e+05
2002 11 03  1005    52581   36300      9   -1.00e+05    9   -1.00e+05
2002 11 03  1010    52581   36600      9   -1.00e+05    9   -1.00e+05
2002 11 03  1015    52581   36900      9   -1.00e+05    9   -1.00e+05
2002 11 03  1020    52581   37200      0    1.32e+00    0    6.54e-01
2002 11 03  1025    52581   37500      0    1.33e+00    0    6.54e-01
2002 11 03  1030    52581   37800      0    1.30e+00    0    6.40e-01
2002 11 03  1035    52581   38100      0    1.28e+00    0    6.28e-01
2002 11 03  1040    52581   38400      0    1.32e+00    0    6.54e-01
2002 11 03  1045    52581   38700      0    1.31e+00    0    6.57e-01
2002 11 03  1050    52581   39000      0    1.30e+00    0    6.44e-01
2002 11 03  1055    52581   39300      0    1.32e+00    0    6.66e-01
2002 11 03  1100    52581   39600      0    1.30e+00    0    6.43e-01
2002 11 03  1105    52581   39900      0    1.33e+00    0    6.77e-01
2002 11 03  1110    52581   40200      0    1.38e+00    0    6.70e-01
2002 11 03  1115    52581   40500      0    1.36e+00    0    6.80e-01
2002 11 03  1120    52581   40800      0    1.38e+00    0    6.86e-01
2002 11 03  1125    52581   41100      0    1.34e+00    0    6.64e-01
2002 11 03  1130    52581   41400      0    1.34e+00    0    6.49e-01
2002 11 03  1135    52581   41700      0    1.34e+00    0    6.66e-01
2002 11 03  1140    52581   42000      0    1.36e+00    0    6.79e-01
2002 11 03  1145    52581   42300      0    1.34e+00    0    6.62e-01
2002 11 03  1150    52581   42600      0    1.38e+00    0    6.86e-01
2002 11 03  1155    52581   42900      0    1.36e+00    0    6.80e-01
2002 11 03  1200    52581   43200      0    1.34e+00    0    6.61e-01
2002 11 03  1205    52581   43500      0    1.37e+00    0    6.72e-01
2002 11 03  1210    52581   43800      0    1.32e+00    0    6.62e-01
2002 11 03  1215    52581   44100      0    1.32e+00    0    6.65e-01
2002 11 03  1220    52581   44400      0    1.28e+00    0    6.34e-01
2002 11 03  1225    52581   44700      0    1.31e+00    0    6.62e-01
2002 11 03  1230    52581   45000      0    1.31e+00    0    6.59e-01
2002 11 03  1235    52581   45300      0    1.34e+00    0    6.72e-01
2002 11 03  1240    52581   45600      0    1.31e+00    0    6.60e-01
2002 11 03  1245    52581   45900      0    1.31e+00    0    6.59e-01
2002 11 03  1250    52581   46200      0    1.34e+00    0    6.71e-01
2002 11 03  1255    52581   46500      0    1.30e+00    0    6.49e-01
2002 11 03  1300    52581   46800      0    1.35e+00    0    6.99e-01
2002 11 03  1305    52581   47100      0    1.32e+00    0    6.55e-01
2002 11 03  1310    52581   47400      0    1.32e+00    0    6.73e-01
2002 11 03  1315    52581   47700      0    1.30e+00    0    6.60e-01
2002 11 03  1320    52581   48000      0    1.31e+00    0    6.73e-01
2002 11 03  1325    52581   48300      0    1.31e+00    0    6.72e-01
2002 11 03  1330    52581   48600      0    1.28e+00    0    6.50e-01
2002 11 03  1335    52581   48900      0    1.28e+00    0    6.47e-01
2002 11 03  1340    52581   49200      0    1.27e+00    0    6.49e-01
2002 11 03  1345    52581   49500      0    1.28e+00    0    6.56e-01
2002 11 03  1350    52581   49800      0    1.31e+00    0    6.60e-01
2002 11 03  1355    52581   50100      0    1.29e+00    0    6.58e-01
2002 11 03  1400    52581   50400      0    1.27e+00    0    6.54e-01
2002 11 03  1405    52581   50700      0    1.29e+00    0    6.61e-01
2002 11 03  1410    52581   51000      0    1.28e+00    0    6.42e-01
2002 11 03  1415    52581   51300      0    1.29e+00    0    6.48e-01
2002 11 03  1420    52581   51600      0    1.29e+00    0    6.47e-01
2002 11 03  1425    52581   51900      0    1.26e+00    0    6.27e-01
2002 11 03  1430    52581   52200      0    1.29e+00    0    6.48e-01
2002 11 03  1435    52581   52500      0    1.31e+00    0    6.72e-01
2002 11 03  1440    52581   52800      0    1.27e+00    0    6.53e-01
2002 11 03  1445    52581   53100      0    1.29e+00    0    6.49e-01
2002 11 03  1450    52581   53400      0    1.26e+00    0    6.37e-01
2002 11 03  1455    52581   53700      0    1.27e+00    0    6.49e-01
2002 11 03  1500    52581   54000      0    1.29e+00    0    6.51e-01
2002 11 03  1505    52581   54300      0    1.28e+00    0    6.57e-01
2002 11 03  1510    52581   54600      0    1.28e+00    0    6.39e-01
2002 11 03  1515    52581   54900      0    1.27e+00    0    6.46e-01
2002 11 03  1520    52581   55200      0    1.25e+00    0    6.50e-01
2002 11 03  1525    52581   55500      0    1.30e+00    0    6.62e-01
2002 11 03  1530    52581   55800      0    1.25e+00    0    6.31e-01
2002 11 03  1535    52581   56100      0    1.26e+00    0    6.37e-01
2002 11 03  1540    52581   56400      0    1.26e+00    0    6.42e-01
2002 11 03  1545    52581   56700      0    1.28e+00    0    6.56e-01
2002 11 03  1550    52581   57000      9   -1.00e+05    9   -1.00e+05
2002 11 03  1555    52581   57300      0    1.28e+00    0    6.54e-01
2002 11 03  1600    52581   57600      0    1.24e+00    0    6.45e-01
2002 11 03  1605    52581   57900      0    1.25e+00    0    6.50e-01
2002 11 03  1610    52581   58200      0    1.25e+00    0    6.43e-01
2002 11 03  1615    52581   58500      0    1.27e+00    0    6.58e-01
2002 11 03  1620    52581   58800      0    1.26e+00    0    6.37e-01
2002 11 03  1625    52581   59100      0    1.30e+00    0    6.66e-01
2002 11 03  1630    52581   59400      0    1.30e+00    0    6.83e-01
2002 11 03  1635    52581   59700      0    1.26e+00    0    6.47e-01
2002 11 03  1640    52581   60000      0    1.26e+00    0    6.70e-01
2002 11 03  1645    52581   60300      0    1.25e+00    0    6.38e-01
2002 11 03  1650    52581   60600      0    1.28e+00    0    6.66e-01
2002 11 03  1655    52581   60900      0    1.26e+00    0    6.55e-01
2002 11 03  1700    52581   61200      0    1.30e+00    0    6.82e-01
2002 11 03  1705    52581   61500      0    1.27e+00    0    6.56e-01
2002 11 03  1710    52581   61800      0    1.31e+00    0    6.85e-01
2002 11 03  1715    52581   62100      0    1.28e+00    0    6.68e-01
2002 11 03  1720    52581   62400      0    1.25e+00    0    6.50e-01
2002 11 03  1725    52581   62700      0    1.28e+00    0    6.70e-01
2002 11 03  1730    52581   63000      0    1.25e+00    0    6.56e-01
2002 11 03  1735    52581   63300      0    1.28e+00    0    6.63e-01
2002 11 03  1740    52581   63600      0    1.24e+00    0    6.50e-01
2002 11 03  1745    52581   63900      0    1.22e+00    0    6.41e-01
2002 11 03  1750    52581   64200      0    1.24e+00    0    6.46e-01
2002 11 03  1755    52581   64500      0    1.25e+00    0    6.53e-01
2002 11 03  1800    52581   64800      0    1.23e+00    0    6.30e-01
2002 11 03  1805    52581   65100      0    1.24e+00    0    6.52e-01
2002 11 03  1810    52581   65400      0    1.25e+00    0    6.51e-01
2002 11 03  1815    52581   65700      0    1.24e+00    0    6.42e-01
2002 11 03  1820    52581   66000      0    1.21e+00    0    6.44e-01
2002 11 03  1825    52581   66300      0    1.25e+00    0    6.61e-01
2002 11 03  1830    52581   66600      0    1.27e+00    0    6.44e-01
2002 11 03  1835    52581   66900      0    1.25e+00    0    6.61e-01
2002 11 03  1840    52581   67200      0    1.28e+00    0    6.81e-01
2002 11 03  1845    52581   67500      0    1.26e+00    0    6.53e-01
2002 11 03  1850    52581   67800      0    1.26e+00    0    6.63e-01
2002 11 03  1855    52581   68100      0    1.23e+00    0    6.29e-01
2002 11 03  1900    52581   68400      0    1.25e+00    0    6.54e-01
2002 11 03  1905    52581   68700      0    1.23e+00    0    6.50e-01
2002 11 03  1910    52581   69000      0    1.25e+00    0    6.52e-01
2002 11 03  1915    52581   69300      0    1.24e+00    0    6.43e-01
2002 11 03  1920    52581   69600      0    1.28e+00    0    6.63e-01
2002 11 03  1925    52581   69900      0    1.36e+00    0    6.90e-01
2002 11 03  1930    52581   70200      9   -1.00e+05    9   -1.00e+05
2002 11 03  1935    52581   70500      9   -1.00e+05    9   -1.00e+05
2002 11 03  1940    52581   70800      9   -1.00e+05    9   -1.00e+05
2002 11 03  1945    52581   71100      9   -1.00e+05    9   -1.00e+05
2002 11 03  1950    52581   71400      0    1.22e+00    0    6.30e-01
2002 11 03  1955    52581   71700      0    1.24e+00    0    6.49e-01
2002 11 03  2000    52581   72000      0    1.26e+00    0    6.55e-01
2002 11 03  2005    52581   72300      0    1.26e+00    0    6.62e-01
2002 11 03  2010    52581   72600      0    1.25e+00    0    6.51e-01
2002 11 03  2015    52581   72900      0    1.22e+00    0    6.46e-01
2002 11 03  2020    52581   73200      0    1.24e+00    0    6.37e-01
2002 11 03  2025    52581   73500      0    1.22e+00    0    6.36e-01
2002 11 03  2030    52581   73800      0    1.24e+00    0    6.58e-01
2002 11 03  2035    52581   74100      0    1.23e+00    0    6.43e-01
2002 11 03  2040    52581   74400      0    1.24e+00    0    6.40e-01
2002 11 03  2045    52581   74700      0    1.20e+00    0    6.32e-01
2002 11 03  2050    52581   75000      0    1.22e+00    0    6.39e-01
2002 11 03  2055    52581   75300      0    1.22e+00    0    6.42e-01
2002 11 03  2100    52581   75600      0    1.18e+00    0    6.07e-01
2002 11 03  2105    52581   75900      0    1.21e+00    0    6.50e-01
2002 11 03  2110    52581   76200      0    1.21e+00    0    6.42e-01
2002 11 03  2115    52581   76500      0    1.22e+00    0    6.51e-01
2002 11 03  2120    52581   76800      0    1.20e+00    0    6.25e-01
2002 11 03  2125    52581   77100      0    1.23e+00    0    6.39e-01
2002 11 03  2130    52581   77400      0    1.22e+00    0    6.36e-01
2002 11 03  2135    52581   77700      0    1.20e+00    0    6.24e-01
2002 11 03  2140    52581   78000      0    1.22e+00    0    6.51e-01
2002 11 03  2145    52581   78300      0    1.21e+00    0    6.55e-01
2002 11 03  2150    52581   78600      0    1.19e+00    0    6.33e-01
2002 11 03  2155    52581   78900      0    1.22e+00    0    6.65e-01
2002 11 03  2200    52581   79200      9   -1.00e+05    9   -1.00e+05
2002 11 03  2205    52581   79500      9   -1.00e+05    9   -1.00e+05
2002 11 03  2210    52581   79800      9   -1.00e+05    9   -1.00e+05
2002 11 03  2215    52581   80100      9   -1.00e+05    9   -1.00e+05
2002 11 03  2220    52581   80400      9   -1.00e+05    9   -1.00e+05
2002 11 03  2225    52581   80700      9   -1.00e+05    9   -1.00e+05
2002 11 03  2230    52581   81000      9   -1.00e+05    9   -1.00e+05
2002 11 03  2235    52581   81300      9   -1.00e+05    9   -1.00e+05
2002 11 03  2240    52581   81600      9   -1.00e+05    9   -1.00e+05
2002 11 03  2245    52581   81900      9   -1.00e+05    9   -1.00e+05
2002 11 03  2250    52581   82200      0    1.19e+00    0    6.47e-01
2002 11 03  2255    52581   82500      0    1.22e+00    0    6.64e-01
2002 11 03  2300    52581   82800      0    1.16e+00    0    6.14e-01
2002 11 03  2305    52581   83100      0    1.16e+00    0    6.19e-01
2002 11 03  2310    52581   83400      0    1.20e+00    0    6.37e-01
2002 11 03  2315    52581   83700      0    1.16e+00    0    6.17e-01
2002 11 03  2320    52581   84000      0    1.20e+00    0    6.40e-01
2002 11 03  2325    52581   84300      0    1.21e+00    0    6.62e-01
2002 11 03  2330    52581   84600      0    1.21e+00    0    6.53e-01
2002 11 03  2335    52581   84900      0    1.20e+00    0    6.45e-01
2002 11 03  2340    52581   85200      0    1.20e+00    0    6.58e-01
2002 11 03  2345    52581   85500      0    1.18e+00    0    6.43e-01
2002 11 03  2350    52581   85800      0    1.21e+00    0    6.60e-01
2002 11 03  2355    52581   86100      0    1.14e+00    0    6.09e-01
