:Data_list: 20020116_ace_sis_5m.txt
:Created: 2002 Jan 17 0011 UT
# Prepared by the U.S. Dept. of Commerce, NOAA, Space Environment Center.
# Please send comments and suggestions to sec@sec.noaa.gov 
# 
# Units: proton flux p/cs2-sec-ster
# Status(S): 0 = nominal data, 1 to 8 = bad data record, 9 = no data
# Missing data values: -1.00e+05
# Source: ACE Satellite - Solar Isotope Spectrometer
#
# 5-minute averaged Real-time Integral Flux of High-energy Solar Protons
# 
#                 Modified Seconds
# UT Date   Time   Julian  of the      ---- Integral Proton Flux ----
# YR MO DA  HHMM     Day     Day       S    > 10 MeV    S    > 30 MeV
#--------------------------------------------------------------------
2002 01 16  0000    52290       0      0    1.34e+01    0    1.97e+00
2002 01 16  0005    52290     300      0    1.37e+01    0    1.92e+00
2002 01 16  0010    52290     600      0    1.36e+01    0    1.89e+00
2002 01 16  0015    52290     900      0    1.45e+01    0    2.06e+00
2002 01 16  0020    52290    1200      0    1.52e+01    0    2.03e+00
2002 01 16  0025    52290    1500      0    1.39e+01    0    2.00e+00
2002 01 16  0030    52290    1800      0    1.32e+01    0    1.80e+00
2002 01 16  0035    52290    2100      0    1.34e+01    0    1.95e+00
2002 01 16  0040    52290    2400      0    1.36e+01    0    1.90e+00
2002 01 16  0045    52290    2700      0    1.32e+01    0    1.89e+00
2002 01 16  0050    52290    3000      0    1.44e+01    0    1.97e+00
2002 01 16  0055    52290    3300      0    1.53e+01    0    2.07e+00
2002 01 16  0100    52290    3600      0    1.32e+01    0    1.82e+00
2002 01 16  0105    52290    3900      0    1.32e+01    0    1.89e+00
2002 01 16  0110    52290    4200      0    1.37e+01    0    1.95e+00
2002 01 16  0115    52290    4500      0    1.37e+01    0    1.91e+00
2002 01 16  0120    52290    4800      0    1.42e+01    0    2.08e+00
2002 01 16  0125    52290    5100      0    1.35e+01    0    1.87e+00
2002 01 16  0130    52290    5400      0    1.34e+01    0    1.83e+00
2002 01 16  0135    52290    5700      0    1.52e+01    0    2.20e+00
2002 01 16  0140    52290    6000      0    1.44e+01    0    2.10e+00
2002 01 16  0145    52290    6300      0    1.32e+01    0    1.91e+00
2002 01 16  0150    52290    6600      0    1.31e+01    0    1.89e+00
2002 01 16  0155    52290    6900      0    1.39e+01    0    2.00e+00
2002 01 16  0200    52290    7200      0    1.31e+01    0    1.87e+00
2002 01 16  0205    52290    7500      0    1.39e+01    0    1.95e+00
2002 01 16  0210    52290    7800      0    1.47e+01    0    2.09e+00
2002 01 16  0215    52290    8100      0    1.40e+01    0    1.96e+00
2002 01 16  0220    52290    8400      0    1.42e+01    0    2.08e+00
2002 01 16  0225    52290    8700      0    1.39e+01    0    1.95e+00
2002 01 16  0230    52290    9000      0    1.42e+01    0    1.93e+00
2002 01 16  0235    52290    9300      0    1.48e+01    0    2.03e+00
2002 01 16  0240    52290    9600      0    1.56e+01    0    2.09e+00
2002 01 16  0245    52290    9900      0    1.54e+01    0    2.11e+00
2002 01 16  0250    52290   10200      0    1.42e+01    0    1.88e+00
2002 01 16  0255    52290   10500      0    1.39e+01    0    1.93e+00
2002 01 16  0300    52290   10800      0    1.40e+01    0    1.93e+00
2002 01 16  0305    52290   11100      0    1.39e+01    0    1.90e+00
2002 01 16  0310    52290   11400      0    1.35e+01    0    1.77e+00
2002 01 16  0315    52290   11700      0    1.48e+01    0    1.96e+00
2002 01 16  0320    52290   12000      0    1.56e+01    0    2.08e+00
2002 01 16  0325    52290   12300      0    1.38e+01    0    1.84e+00
2002 01 16  0330    52290   12600      0    1.37e+01    0    1.80e+00
2002 01 16  0335    52290   12900      0    1.21e+01    0    1.68e+00
2002 01 16  0340    52290   13200      0    1.18e+01    0    1.76e+00
2002 01 16  0345    52290   13500      0    1.19e+01    0    1.76e+00
2002 01 16  0350    52290   13800      0    1.24e+01    0    1.90e+00
2002 01 16  0355    52290   14100      0    1.22e+01    0    1.79e+00
2002 01 16  0400    52290   14400      0    1.15e+01    0    1.68e+00
2002 01 16  0405    52290   14700      0    1.18e+01    0    1.63e+00
2002 01 16  0410    52290   15000      0    1.16e+01    0    1.70e+00
2002 01 16  0415    52290   15300      0    1.13e+01    0    1.62e+00
2002 01 16  0420    52290   15600      0    1.11e+01    0    1.68e+00
2002 01 16  0425    52290   15900      0    1.09e+01    0    1.63e+00
2002 01 16  0430    52290   16200      0    1.18e+01    0    1.81e+00
2002 01 16  0435    52290   16500      0    1.30e+01    0    1.90e+00
2002 01 16  0440    52290   16800      0    1.21e+01    0    1.74e+00
2002 01 16  0445    52290   17100      0    1.14e+01    0    1.63e+00
2002 01 16  0450    52290   17400      0    1.09e+01    0    1.66e+00
2002 01 16  0455    52290   17700      0    1.10e+01    0    1.67e+00
2002 01 16  0500    52290   18000      0    1.09e+01    0    1.58e+00
2002 01 16  0505    52290   18300      0    1.13e+01    0    1.62e+00
2002 01 16  0510    52290   18600      0    1.18e+01    0    1.76e+00
2002 01 16  0515    52290   18900      0    1.06e+01    0    1.61e+00
2002 01 16  0520    52290   19200      0    1.01e+01    0    1.61e+00
2002 01 16  0525    52290   19500      0    1.01e+01    0    1.55e+00
2002 01 16  0530    52290   19800      0    1.02e+01    0    1.52e+00
2002 01 16  0535    52290   20100      0    1.03e+01    0    1.60e+00
2002 01 16  0540    52290   20400      0    1.09e+01    0    1.63e+00
2002 01 16  0545    52290   20700      0    1.14e+01    0    1.71e+00
2002 01 16  0550    52290   21000      0    1.06e+01    0    1.51e+00
2002 01 16  0555    52290   21300      0    1.05e+01    0    1.53e+00
2002 01 16  0600    52290   21600      0    1.04e+01    0    1.55e+00
2002 01 16  0605    52290   21900      0    1.05e+01    0    1.54e+00
2002 01 16  0610    52290   22200      0    1.02e+01    0    1.57e+00
2002 01 16  0615    52290   22500      0    1.10e+01    0    1.60e+00
2002 01 16  0620    52290   22800      0    1.09e+01    0    1.71e+00
2002 01 16  0625    52290   23100      0    1.01e+01    0    1.56e+00
2002 01 16  0630    52290   23400      0    1.06e+01    0    1.61e+00
2002 01 16  0635    52290   23700      0    9.84e+00    0    1.52e+00
2002 01 16  0640    52290   24000      0    9.99e+00    0    1.55e+00
2002 01 16  0645    52290   24300      0    9.84e+00    0    1.50e+00
2002 01 16  0650    52290   24600      0    1.07e+01    0    1.64e+00
2002 01 16  0655    52290   24900      0    1.03e+01    0    1.59e+00
2002 01 16  0700    52290   25200      0    9.91e+00    0    1.43e+00
2002 01 16  0705    52290   25500      0    9.84e+00    0    1.55e+00
2002 01 16  0710    52290   25800      0    9.61e+00    0    1.47e+00
2002 01 16  0715    52290   26100      0    9.73e+00    0    1.48e+00
2002 01 16  0720    52290   26400      0    9.71e+00    0    1.45e+00
2002 01 16  0725    52290   26700      0    1.04e+01    0    1.70e+00
2002 01 16  0730    52290   27000      0    9.72e+00    0    1.49e+00
2002 01 16  0735    52290   27300      0    9.47e+00    0    1.45e+00
2002 01 16  0740    52290   27600      0    9.42e+00    0    1.45e+00
2002 01 16  0745    52290   27900      0    9.78e+00    0    1.51e+00
2002 01 16  0750    52290   28200      0    9.43e+00    0    1.41e+00
2002 01 16  0755    52290   28500      0    9.56e+00    0    1.46e+00
2002 01 16  0800    52290   28800      0    9.99e+00    0    1.52e+00
2002 01 16  0805    52290   29100      0    9.33e+00    0    1.50e+00
2002 01 16  0810    52290   29400      0    8.92e+00    0    1.35e+00
2002 01 16  0815    52290   29700      0    9.06e+00    0    1.43e+00
2002 01 16  0820    52290   30000      0    8.74e+00    0    1.32e+00
2002 01 16  0825    52290   30300      0    8.98e+00    0    1.44e+00
2002 01 16  0830    52290   30600      0    9.38e+00    0    1.44e+00
2002 01 16  0835    52290   30900      0    9.47e+00    0    1.51e+00
2002 01 16  0840    52290   31200      0    8.88e+00    0    1.41e+00
2002 01 16  0845    52290   31500      0    9.54e+00    0    1.48e+00
2002 01 16  0850    52290   31800      0    8.78e+00    0    1.39e+00
2002 01 16  0855    52290   32100      0    8.81e+00    0    1.36e+00
2002 01 16  0900    52290   32400      0    9.00e+00    0    1.41e+00
2002 01 16  0905    52290   32700      0    9.45e+00    0    1.45e+00
2002 01 16  0910    52290   33000      0    9.96e+00    0    1.57e+00
2002 01 16  0915    52290   33300      0    8.96e+00    0    1.40e+00
2002 01 16  0920    52290   33600      0    9.06e+00    0    1.38e+00
2002 01 16  0925    52290   33900      0    9.27e+00    0    1.45e+00
2002 01 16  0930    52290   34200      0    8.94e+00    0    1.40e+00
2002 01 16  0935    52290   34500      0    8.95e+00    0    1.39e+00
2002 01 16  0940    52290   34800      0    9.44e+00    0    1.48e+00
2002 01 16  0945    52290   35100      0    9.43e+00    0    1.46e+00
2002 01 16  0950    52290   35400      0    8.97e+00    0    1.34e+00
2002 01 16  0955    52290   35700      0    8.76e+00    0    1.36e+00
2002 01 16  1000    52290   36000      0    8.86e+00    0    1.35e+00
2002 01 16  1005    52290   36300      0    8.75e+00    0    1.39e+00
2002 01 16  1010    52290   36600      0    8.75e+00    0    1.35e+00
2002 01 16  1015    52290   36900      0    9.50e+00    0    1.46e+00
2002 01 16  1020    52290   37200      0    9.16e+00    0    1.44e+00
2002 01 16  1025    52290   37500      0    8.79e+00    0    1.42e+00
2002 01 16  1030    52290   37800      0    8.72e+00    0    1.34e+00
2002 01 16  1035    52290   38100      0    9.00e+00    0    1.33e+00
2002 01 16  1040    52290   38400      0    8.69e+00    0    1.36e+00
2002 01 16  1045    52290   38700      0    8.79e+00    0    1.30e+00
2002 01 16  1050    52290   39000      0    9.30e+00    0    1.39e+00
2002 01 16  1055    52290   39300      0    9.10e+00    0    1.45e+00
2002 01 16  1100    52290   39600      0    9.05e+00    0    1.37e+00
2002 01 16  1105    52290   39900      0    9.20e+00    0    1.41e+00
2002 01 16  1110    52290   40200      0    9.12e+00    0    1.42e+00
2002 01 16  1115    52290   40500      0    8.70e+00    0    1.36e+00
2002 01 16  1120    52290   40800      0    9.21e+00    0    1.44e+00
2002 01 16  1125    52290   41100      0    9.69e+00    0    1.49e+00
2002 01 16  1130    52290   41400      0    9.27e+00    0    1.40e+00
2002 01 16  1135    52290   41700      0    9.33e+00    0    1.39e+00
2002 01 16  1140    52290   42000      0    9.40e+00    0    1.38e+00
2002 01 16  1145    52290   42300      0    1.01e+01    0    1.51e+00
2002 01 16  1150    52290   42600      0    9.01e+00    0    1.35e+00
2002 01 16  1155    52290   42900      0    9.76e+00    0    1.51e+00
2002 01 16  1200    52290   43200      0    9.92e+00    0    1.51e+00
2002 01 16  1205    52290   43500      0    9.30e+00    0    1.40e+00
2002 01 16  1210    52290   43800      0    9.08e+00    0    1.21e+00
2002 01 16  1215    52290   44100      0    9.19e+00    0    1.37e+00
2002 01 16  1220    52290   44400      0    9.08e+00    0    1.36e+00
2002 01 16  1225    52290   44700      0    9.14e+00    0    1.37e+00
2002 01 16  1230    52290   45000      0    9.24e+00    0    1.41e+00
2002 01 16  1235    52290   45300      0    9.35e+00    0    1.34e+00
2002 01 16  1240    52290   45600      0    1.01e+01    0    1.47e+00
2002 01 16  1245    52290   45900      0    9.59e+00    0    1.50e+00
2002 01 16  1250    52290   46200      0    8.66e+00    0    1.31e+00
2002 01 16  1255    52290   46500      0    8.58e+00    0    1.34e+00
2002 01 16  1300    52290   46800      0    8.57e+00    0    1.29e+00
2002 01 16  1305    52290   47100      0    8.43e+00    0    1.28e+00
2002 01 16  1310    52290   47400      0    8.60e+00    0    1.27e+00
2002 01 16  1315    52290   47700      0    9.37e+00    0    1.41e+00
2002 01 16  1320    52290   48000      0    9.03e+00    0    1.35e+00
2002 01 16  1325    52290   48300      0    8.66e+00    0    1.29e+00
2002 01 16  1330    52290   48600      0    8.42e+00    0    1.22e+00
2002 01 16  1335    52290   48900      0    8.58e+00    0    1.31e+00
2002 01 16  1340    52290   49200      0    8.76e+00    0    1.31e+00
2002 01 16  1345    52290   49500      0    8.85e+00    0    1.36e+00
2002 01 16  1350    52290   49800      0    9.46e+00    0    1.46e+00
2002 01 16  1355    52290   50100      0    8.91e+00    0    1.31e+00
2002 01 16  1400    52290   50400      0    8.63e+00    0    1.27e+00
2002 01 16  1405    52290   50700      0    8.56e+00    0    1.31e+00
2002 01 16  1410    52290   51000      0    8.55e+00    0    1.29e+00
2002 01 16  1415    52290   51300      0    8.76e+00    0    1.38e+00
2002 01 16  1420    52290   51600      0    8.71e+00    0    1.29e+00
2002 01 16  1425    52290   51900      0    8.75e+00    0    1.35e+00
2002 01 16  1430    52290   52200      0    8.46e+00    0    1.31e+00
2002 01 16  1435    52290   52500      0    8.14e+00    0    1.24e+00
2002 01 16  1440    52290   52800      0    8.50e+00    0    1.28e+00
2002 01 16  1445    52290   53100      0    8.70e+00    0    1.31e+00
2002 01 16  1450    52290   53400      0    8.78e+00    0    1.22e+00
2002 01 16  1455    52290   53700      0    9.22e+00    0    1.35e+00
2002 01 16  1500    52290   54000      9   -1.00e+05    9   -1.00e+05
2002 01 16  1505    52290   54300      9   -1.00e+05    9   -1.00e+05
2002 01 16  1510    52290   54600      9   -1.00e+05    9   -1.00e+05
2002 01 16  1515    52290   54900      9   -1.00e+05    9   -1.00e+05
2002 01 16  1520    52290   55200      9   -1.00e+05    9   -1.00e+05
2002 01 16  1525    52290   55500      9   -1.00e+05    9   -1.00e+05
2002 01 16  1530    52290   55800      9   -1.00e+05    9   -1.00e+05
2002 01 16  1535    52290   56100      9   -1.00e+05    9   -1.00e+05
2002 01 16  1540    52290   56400      9   -1.00e+05    9   -1.00e+05
2002 01 16  1545    52290   56700      9   -1.00e+05    9   -1.00e+05
2002 01 16  1550    52290   57000      0    8.23e+00    0    9.70e-01
2002 01 16  1555    52290   57300      0    4.36e+00    0    7.60e-01
2002 01 16  1600    52290   57600      0    2.44e+01    0    2.02e+01
2002 01 16  1605    52290   57900      0    8.54e+00    0    1.30e+00
2002 01 16  1610    52290   58200      9   -1.00e+05    9   -1.00e+05
2002 01 16  1615    52290   58500      9   -1.00e+05    9   -1.00e+05
2002 01 16  1620    52290   58800      0    7.93e+00    0    1.06e+00
2002 01 16  1625    52290   59100      9   -1.00e+05    9   -1.00e+05
2002 01 16  1630    52290   59400      0    8.42e+00    0    1.26e+00
2002 01 16  1635    52290   59700      0    8.15e+00    0    1.24e+00
2002 01 16  1640    52290   60000      0    8.68e+00    0    1.33e+00
2002 01 16  1645    52290   60300      0    8.24e+00    0    1.26e+00
2002 01 16  1650    52290   60600      0    7.82e+00    0    1.21e+00
2002 01 16  1655    52290   60900      0    7.85e+00    0    1.21e+00
2002 01 16  1700    52290   61200      0    7.86e+00    0    1.21e+00
2002 01 16  1705    52290   61500      0    7.82e+00    0    1.25e+00
2002 01 16  1710    52290   61800      0    8.08e+00    0    1.30e+00
2002 01 16  1715    52290   62100      0    8.70e+00    0    1.41e+00
2002 01 16  1720    52290   62400      0    8.29e+00    0    1.28e+00
2002 01 16  1725    52290   62700      0    7.72e+00    0    1.18e+00
2002 01 16  1730    52290   63000      0    8.27e+00    0    1.22e+00
2002 01 16  1735    52290   63300      0    8.42e+00    0    1.30e+00
2002 01 16  1740    52290   63600      0    8.07e+00    0    1.21e+00
2002 01 16  1745    52290   63900      0    8.16e+00    0    1.26e+00
2002 01 16  1750    52290   64200      0    8.53e+00    0    1.34e+00
2002 01 16  1755    52290   64500      0    7.89e+00    0    1.24e+00
2002 01 16  1800    52290   64800      0    8.07e+00    0    1.22e+00
2002 01 16  1805    52290   65100      0    7.82e+00    0    1.24e+00
2002 01 16  1810    52290   65400      0    7.71e+00    0    1.23e+00
2002 01 16  1815    52290   65700      0    7.72e+00    0    1.17e+00
2002 01 16  1820    52290   66000      0    8.27e+00    0    1.24e+00
2002 01 16  1825    52290   66300      0    8.52e+00    0    1.30e+00
2002 01 16  1830    52290   66600      0    7.65e+00    0    1.15e+00
2002 01 16  1835    52290   66900      0    7.59e+00    0    1.19e+00
2002 01 16  1840    52290   67200      0    7.68e+00    0    1.21e+00
2002 01 16  1845    52290   67500      0    7.66e+00    0    1.21e+00
2002 01 16  1850    52290   67800      0    7.74e+00    0    1.19e+00
2002 01 16  1855    52290   68100      0    8.06e+00    0    1.25e+00
2002 01 16  1900    52290   68400      0    8.12e+00    0    1.26e+00
2002 01 16  1905    52290   68700      0    7.87e+00    0    1.25e+00
2002 01 16  1910    52290   69000      0    7.95e+00    0    1.18e+00
2002 01 16  1915    52290   69300      0    7.68e+00    0    1.16e+00
2002 01 16  1920    52290   69600      0    8.25e+00    0    1.31e+00
2002 01 16  1925    52290   69900      0    8.64e+00    0    1.32e+00
2002 01 16  1930    52290   70200      0    8.51e+00    0    1.32e+00
2002 01 16  1935    52290   70500      0    8.43e+00    0    1.28e+00
2002 01 16  1940    52290   70800      0    7.59e+00    0    1.17e+00
2002 01 16  1945    52290   71100      0    7.68e+00    0    1.18e+00
2002 01 16  1950    52290   71400      0    7.72e+00    0    1.19e+00
2002 01 16  1955    52290   71700      0    7.84e+00    0    1.18e+00
2002 01 16  2000    52290   72000      0    8.20e+00    0    1.24e+00
2002 01 16  2005    52290   72300      0    8.79e+00    0    1.32e+00
2002 01 16  2010    52290   72600      0    8.46e+00    0    1.21e+00
2002 01 16  2015    52290   72900      0    8.56e+00    0    1.25e+00
2002 01 16  2020    52290   73200      0    7.90e+00    0    1.16e+00
2002 01 16  2025    52290   73500      0    7.79e+00    0    1.17e+00
2002 01 16  2030    52290   73800      0    8.25e+00    0    1.23e+00
2002 01 16  2035    52290   74100      0    8.13e+00    0    1.24e+00
2002 01 16  2040    52290   74400      0    8.00e+00    0    1.22e+00
2002 01 16  2045    52290   74700      0    7.29e+00    0    1.14e+00
2002 01 16  2050    52290   75000      0    7.29e+00    0    1.09e+00
2002 01 16  2055    52290   75300      0    7.46e+00    0    1.14e+00
2002 01 16  2100    52290   75600      0    7.40e+00    0    1.13e+00
2002 01 16  2105    52290   75900      0    7.46e+00    0    1.13e+00
2002 01 16  2110    52290   76200      0    7.80e+00    0    1.24e+00
2002 01 16  2115    52290   76500      0    8.01e+00    0    1.24e+00
2002 01 16  2120    52290   76800      0    7.62e+00    0    1.14e+00
2002 01 16  2125    52290   77100      0    7.44e+00    0    1.16e+00
2002 01 16  2130    52290   77400      0    7.32e+00    0    1.12e+00
2002 01 16  2135    52290   77700      0    7.55e+00    0    1.16e+00
2002 01 16  2140    52290   78000      0    7.73e+00    0    1.15e+00
2002 01 16  2145    52290   78300      0    8.23e+00    0    1.28e+00
2002 01 16  2150    52290   78600      0    8.03e+00    0    1.26e+00
2002 01 16  2155    52290   78900      0    7.25e+00    0    1.09e+00
2002 01 16  2200    52290   79200      0    7.35e+00    0    1.12e+00
2002 01 16  2205    52290   79500      0    7.49e+00    0    1.06e+00
2002 01 16  2210    52290   79800      0    7.55e+00    0    1.19e+00
2002 01 16  2215    52290   80100      0    7.55e+00    0    1.17e+00
2002 01 16  2220    52290   80400      0    8.24e+00    0    1.25e+00
2002 01 16  2225    52290   80700      0    7.91e+00    0    1.21e+00
2002 01 16  2230    52290   81000      0    7.66e+00    0    1.18e+00
2002 01 16  2235    52290   81300      0    7.91e+00    0    1.21e+00
2002 01 16  2240    52290   81600      0    7.71e+00    0    1.22e+00
2002 01 16  2245    52290   81900      0    7.47e+00    0    1.19e+00
2002 01 16  2250    52290   82200      0    7.57e+00    0    1.14e+00
2002 01 16  2255    52290   82500      0    8.01e+00    0    1.21e+00
2002 01 16  2300    52290   82800      0    7.64e+00    0    1.18e+00
2002 01 16  2305    52290   83100      0    7.15e+00    0    1.09e+00
2002 01 16  2310    52290   83400      0    7.01e+00    0    1.12e+00
2002 01 16  2315    52290   83700      0    6.90e+00    0    1.09e+00
2002 01 16  2320    52290   84000      0    7.11e+00    0    1.11e+00
2002 01 16  2325    52290   84300      0    7.13e+00    0    1.18e+00
2002 01 16  2330    52290   84600      0    7.53e+00    0    1.17e+00
2002 01 16  2335    52290   84900      0    7.20e+00    0    1.09e+00
2002 01 16  2340    52290   85200      0    7.12e+00    0    1.14e+00
2002 01 16  2345    52290   85500      0    6.98e+00    0    1.12e+00
2002 01 16  2350    52290   85800      0    6.93e+00    0    1.11e+00
2002 01 16  2355    52290   86100      0    6.93e+00    0    1.10e+00
