:Data_list: 20020429_ace_sis_5m.txt
:Created: 2002 Apr 30 0011 UT
# Prepared by the U.S. Dept. of Commerce, NOAA, Space Environment Center.
# Please send comments and suggestions to sec@sec.noaa.gov 
# 
# Units: proton flux p/cs2-sec-ster
# Status(S): 0 = nominal data, 1 to 8 = bad data record, 9 = no data
# Missing data values: -1.00e+05
# Source: ACE Satellite - Solar Isotope Spectrometer
#
# 5-minute averaged Real-time Integral Flux of High-energy Solar Protons
# 
#                 Modified Seconds
# UT Date   Time   Julian  of the      ---- Integral Proton Flux ----
# YR MO DA  HHMM     Day     Day       S    > 10 MeV    S    > 30 MeV
#--------------------------------------------------------------------
2002 04 29  0000    52393       0      0    1.73e+00    0    7.41e-01
2002 04 29  0005    52393     300      0    1.74e+00    0    7.67e-01
2002 04 29  0010    52393     600      0    1.72e+00    0    7.44e-01
2002 04 29  0015    52393     900      0    1.70e+00    0    7.36e-01
2002 04 29  0020    52393    1200      0    1.73e+00    0    7.60e-01
2002 04 29  0025    52393    1500      0    1.72e+00    0    7.50e-01
2002 04 29  0030    52393    1800      0    1.68e+00    0    7.24e-01
2002 04 29  0035    52393    2100      0    1.69e+00    0    7.40e-01
2002 04 29  0040    52393    2400      0    1.66e+00    0    7.43e-01
2002 04 29  0045    52393    2700      0    1.66e+00    0    7.24e-01
2002 04 29  0050    52393    3000      0    1.63e+00    0    7.30e-01
2002 04 29  0055    52393    3300      0    1.61e+00    0    7.40e-01
2002 04 29  0100    52393    3600      0    1.58e+00    0    7.31e-01
2002 04 29  0105    52393    3900      0    1.56e+00    0    7.37e-01
2002 04 29  0110    52393    4200      0    1.51e+00    0    7.17e-01
2002 04 29  0115    52393    4500      0    1.50e+00    0    7.13e-01
2002 04 29  0120    52393    4800      0    1.51e+00    0    7.23e-01
2002 04 29  0125    52393    5100      0    1.52e+00    0    7.08e-01
2002 04 29  0130    52393    5400      0    1.47e+00    0    6.91e-01
2002 04 29  0135    52393    5700      0    1.49e+00    0    7.12e-01
2002 04 29  0140    52393    6000      0    1.48e+00    0    7.11e-01
2002 04 29  0145    52393    6300      0    1.51e+00    0    7.20e-01
2002 04 29  0150    52393    6600      0    1.49e+00    0    7.00e-01
2002 04 29  0155    52393    6900      0    1.50e+00    0    7.20e-01
2002 04 29  0200    52393    7200      0    1.50e+00    0    7.19e-01
2002 04 29  0205    52393    7500      0    1.49e+00    0    7.03e-01
2002 04 29  0210    52393    7800      0    1.46e+00    0    6.87e-01
2002 04 29  0215    52393    8100      0    1.52e+00    0    7.32e-01
2002 04 29  0220    52393    8400      0    1.48e+00    0    6.93e-01
2002 04 29  0225    52393    8700      0    1.51e+00    0    7.15e-01
2002 04 29  0230    52393    9000      0    1.49e+00    0    7.02e-01
2002 04 29  0235    52393    9300      0    1.50e+00    0    7.10e-01
2002 04 29  0240    52393    9600      0    1.48e+00    0    7.17e-01
2002 04 29  0245    52393    9900      0    1.50e+00    0    7.20e-01
2002 04 29  0250    52393   10200      0    1.46e+00    0    6.93e-01
2002 04 29  0255    52393   10500      0    1.48e+00    0    7.19e-01
2002 04 29  0300    52393   10800      0    1.47e+00    0    7.03e-01
2002 04 29  0305    52393   11100      0    1.49e+00    0    7.07e-01
2002 04 29  0310    52393   11400      0    1.48e+00    0    7.04e-01
2002 04 29  0315    52393   11700      0    1.50e+00    0    7.11e-01
2002 04 29  0320    52393   12000      0    1.47e+00    0    6.97e-01
2002 04 29  0325    52393   12300      0    1.48e+00    0    7.06e-01
2002 04 29  0330    52393   12600      0    1.50e+00    0    7.19e-01
2002 04 29  0335    52393   12900      0    1.49e+00    0    7.28e-01
2002 04 29  0340    52393   13200      0    1.49e+00    0    7.09e-01
2002 04 29  0345    52393   13500      0    1.47e+00    0    6.95e-01
2002 04 29  0350    52393   13800      0    1.47e+00    0    7.19e-01
2002 04 29  0355    52393   14100      0    1.50e+00    0    7.06e-01
2002 04 29  0400    52393   14400      0    1.50e+00    0    6.99e-01
2002 04 29  0405    52393   14700      0    1.50e+00    0    7.08e-01
2002 04 29  0410    52393   15000      0    1.48e+00    0    6.94e-01
2002 04 29  0415    52393   15300      0    1.46e+00    0    6.84e-01
2002 04 29  0420    52393   15600      0    1.48e+00    0    7.07e-01
2002 04 29  0425    52393   15900      0    1.46e+00    0    6.99e-01
2002 04 29  0430    52393   16200      0    1.48e+00    0    7.07e-01
2002 04 29  0435    52393   16500      0    1.49e+00    0    7.06e-01
2002 04 29  0440    52393   16800      0    1.50e+00    0    7.09e-01
2002 04 29  0445    52393   17100      0    1.49e+00    0    7.06e-01
2002 04 29  0450    52393   17400      0    1.49e+00    0    7.12e-01
2002 04 29  0455    52393   17700      0    1.50e+00    0    7.06e-01
2002 04 29  0500    52393   18000      0    1.49e+00    0    7.14e-01
2002 04 29  0505    52393   18300      0    1.47e+00    0    7.02e-01
2002 04 29  0510    52393   18600      0    1.46e+00    0    6.96e-01
2002 04 29  0515    52393   18900      0    1.46e+00    0    6.94e-01
2002 04 29  0520    52393   19200      0    1.48e+00    0    7.23e-01
2002 04 29  0525    52393   19500      0    1.46e+00    0    7.10e-01
2002 04 29  0530    52393   19800      0    1.43e+00    0    7.09e-01
2002 04 29  0535    52393   20100      0    1.45e+00    0    7.07e-01
2002 04 29  0540    52393   20400      0    1.43e+00    0    6.91e-01
2002 04 29  0545    52393   20700      0    1.44e+00    0    7.02e-01
2002 04 29  0550    52393   21000      0    1.45e+00    0    6.94e-01
2002 04 29  0555    52393   21300      0    1.44e+00    0    6.93e-01
2002 04 29  0600    52393   21600      0    1.43e+00    0    6.84e-01
2002 04 29  0605    52393   21900      0    1.45e+00    0    7.03e-01
2002 04 29  0610    52393   22200      0    1.44e+00    0    6.97e-01
2002 04 29  0615    52393   22500      0    1.43e+00    0    6.88e-01
2002 04 29  0620    52393   22800      0    1.47e+00    0    7.21e-01
2002 04 29  0625    52393   23100      0    1.44e+00    0    7.11e-01
2002 04 29  0630    52393   23400      0    1.47e+00    0    7.17e-01
2002 04 29  0635    52393   23700      0    1.45e+00    0    7.06e-01
2002 04 29  0640    52393   24000      0    1.45e+00    0    6.99e-01
2002 04 29  0645    52393   24300      0    1.44e+00    0    6.98e-01
2002 04 29  0650    52393   24600      0    1.46e+00    0    7.15e-01
2002 04 29  0655    52393   24900      0    1.43e+00    0    6.86e-01
2002 04 29  0700    52393   25200      0    1.43e+00    0    6.91e-01
2002 04 29  0705    52393   25500      0    1.46e+00    0    7.02e-01
2002 04 29  0710    52393   25800      0    1.43e+00    0    6.99e-01
2002 04 29  0715    52393   26100      0    1.42e+00    0    6.81e-01
2002 04 29  0720    52393   26400      0    1.46e+00    0    7.03e-01
2002 04 29  0725    52393   26700      0    1.41e+00    0    6.72e-01
2002 04 29  0730    52393   27000      0    1.45e+00    0    7.00e-01
2002 04 29  0735    52393   27300      0    1.46e+00    0    7.00e-01
2002 04 29  0740    52393   27600      0    1.42e+00    0    6.77e-01
2002 04 29  0745    52393   27900      0    1.44e+00    0    6.90e-01
2002 04 29  0750    52393   28200      0    1.44e+00    0    6.96e-01
2002 04 29  0755    52393   28500      0    1.45e+00    0    7.03e-01
2002 04 29  0800    52393   28800      0    1.40e+00    0    6.84e-01
2002 04 29  0805    52393   29100      0    1.44e+00    0    6.89e-01
2002 04 29  0810    52393   29400      0    1.44e+00    0    6.96e-01
2002 04 29  0815    52393   29700      0    1.41e+00    0    6.86e-01
2002 04 29  0820    52393   30000      0    1.41e+00    0    6.86e-01
2002 04 29  0825    52393   30300      0    1.44e+00    0    7.04e-01
2002 04 29  0830    52393   30600      0    1.42e+00    0    6.70e-01
2002 04 29  0835    52393   30900      0    1.43e+00    0    6.82e-01
2002 04 29  0840    52393   31200      0    1.43e+00    0    7.06e-01
2002 04 29  0845    52393   31500      0    1.41e+00    0    6.87e-01
2002 04 29  0850    52393   31800      0    1.44e+00    0    6.96e-01
2002 04 29  0855    52393   32100      0    1.42e+00    0    6.89e-01
2002 04 29  0900    52393   32400      0    1.41e+00    0    6.80e-01
2002 04 29  0905    52393   32700      0    1.43e+00    0    6.98e-01
2002 04 29  0910    52393   33000      0    1.43e+00    0    7.00e-01
2002 04 29  0915    52393   33300      0    1.42e+00    0    6.89e-01
2002 04 29  0920    52393   33600      0    1.42e+00    0    6.92e-01
2002 04 29  0925    52393   33900      0    1.41e+00    0    6.81e-01
2002 04 29  0930    52393   34200      0    1.41e+00    0    6.87e-01
2002 04 29  0935    52393   34500      0    1.39e+00    0    6.73e-01
2002 04 29  0940    52393   34800      0    1.38e+00    0    6.75e-01
2002 04 29  0945    52393   35100      0    1.37e+00    0    6.79e-01
2002 04 29  0950    52393   35400      0    1.38e+00    0    6.82e-01
2002 04 29  0955    52393   35700      0    1.38e+00    0    6.76e-01
2002 04 29  1000    52393   36000      0    1.40e+00    0    6.86e-01
2002 04 29  1005    52393   36300      0    1.40e+00    0    7.04e-01
2002 04 29  1010    52393   36600      0    1.42e+00    0    7.01e-01
2002 04 29  1015    52393   36900      0    1.42e+00    0    6.97e-01
2002 04 29  1020    52393   37200      0    1.38e+00    0    6.85e-01
2002 04 29  1025    52393   37500      0    1.38e+00    0    6.81e-01
2002 04 29  1030    52393   37800      0    1.38e+00    0    6.78e-01
2002 04 29  1035    52393   38100      0    1.39e+00    0    6.74e-01
2002 04 29  1040    52393   38400      0    1.38e+00    0    6.78e-01
2002 04 29  1045    52393   38700      0    1.38e+00    0    6.88e-01
2002 04 29  1050    52393   39000      0    1.39e+00    0    6.73e-01
2002 04 29  1055    52393   39300      0    1.38e+00    0    6.72e-01
2002 04 29  1100    52393   39600      0    1.41e+00    0    6.87e-01
2002 04 29  1105    52393   39900      0    1.41e+00    0    6.86e-01
2002 04 29  1110    52393   40200      0    1.36e+00    0    6.66e-01
2002 04 29  1115    52393   40500      0    1.42e+00    0    6.94e-01
2002 04 29  1120    52393   40800      0    1.40e+00    0    6.99e-01
2002 04 29  1125    52393   41100      0    1.41e+00    0    6.92e-01
2002 04 29  1130    52393   41400      0    1.44e+00    0    7.04e-01
2002 04 29  1135    52393   41700      0    1.41e+00    0    6.79e-01
2002 04 29  1140    52393   42000      0    1.46e+00    0    7.10e-01
2002 04 29  1145    52393   42300      0    1.45e+00    0    6.90e-01
2002 04 29  1150    52393   42600      0    1.45e+00    0    7.04e-01
2002 04 29  1155    52393   42900      0    1.41e+00    0    6.91e-01
2002 04 29  1200    52393   43200      0    1.42e+00    0    6.82e-01
2002 04 29  1205    52393   43500      0    1.44e+00    0    6.93e-01
2002 04 29  1210    52393   43800      0    1.39e+00    0    6.61e-01
2002 04 29  1215    52393   44100      0    1.41e+00    0    6.81e-01
2002 04 29  1220    52393   44400      0    1.38e+00    0    6.74e-01
2002 04 29  1225    52393   44700      0    1.38e+00    0    6.75e-01
2002 04 29  1230    52393   45000      0    1.37e+00    0    6.61e-01
2002 04 29  1235    52393   45300      0    1.38e+00    0    6.53e-01
2002 04 29  1240    52393   45600      0    1.42e+00    0    6.79e-01
2002 04 29  1245    52393   45900      0    1.43e+00    0    7.07e-01
2002 04 29  1250    52393   46200      0    1.39e+00    0    6.76e-01
2002 04 29  1255    52393   46500      0    1.42e+00    0    6.90e-01
2002 04 29  1300    52393   46800      0    1.38e+00    0    6.78e-01
2002 04 29  1305    52393   47100      0    1.40e+00    0    6.90e-01
2002 04 29  1310    52393   47400      0    1.37e+00    0    6.71e-01
2002 04 29  1315    52393   47700      0    1.36e+00    0    6.79e-01
2002 04 29  1320    52393   48000      0    1.39e+00    0    6.79e-01
2002 04 29  1325    52393   48300      0    1.36e+00    0    6.73e-01
2002 04 29  1330    52393   48600      0    1.38e+00    0    6.72e-01
2002 04 29  1335    52393   48900      0    1.37e+00    0    6.79e-01
2002 04 29  1340    52393   49200      0    1.37e+00    0    6.70e-01
2002 04 29  1345    52393   49500      0    1.37e+00    0    6.86e-01
2002 04 29  1350    52393   49800      0    1.39e+00    0    6.88e-01
2002 04 29  1355    52393   50100      0    1.37e+00    0    6.77e-01
2002 04 29  1400    52393   50400      0    1.38e+00    0    6.77e-01
2002 04 29  1405    52393   50700      0    1.34e+00    0    6.53e-01
2002 04 29  1410    52393   51000      0    1.36e+00    0    6.85e-01
2002 04 29  1415    52393   51300      0    1.35e+00    0    6.60e-01
2002 04 29  1420    52393   51600      0    1.40e+00    0    6.89e-01
2002 04 29  1425    52393   51900      0    1.40e+00    0    6.95e-01
2002 04 29  1430    52393   52200      0    1.36e+00    0    6.77e-01
2002 04 29  1435    52393   52500      0    1.38e+00    0    6.79e-01
2002 04 29  1440    52393   52800      0    1.40e+00    0    6.91e-01
2002 04 29  1445    52393   53100      0    1.38e+00    0    6.90e-01
2002 04 29  1450    52393   53400      0    1.37e+00    0    6.79e-01
2002 04 29  1455    52393   53700      0    1.37e+00    0    6.76e-01
2002 04 29  1500    52393   54000      0    1.37e+00    0    6.76e-01
2002 04 29  1505    52393   54300      0    1.34e+00    0    6.63e-01
2002 04 29  1510    52393   54600      0    1.34e+00    0    6.59e-01
2002 04 29  1515    52393   54900      0    1.38e+00    0    6.79e-01
2002 04 29  1520    52393   55200      0    1.37e+00    0    6.83e-01
2002 04 29  1525    52393   55500      0    1.36e+00    0    6.72e-01
2002 04 29  1530    52393   55800      0    1.37e+00    0    6.91e-01
2002 04 29  1535    52393   56100      0    1.35e+00    0    6.63e-01
2002 04 29  1540    52393   56400      0    1.34e+00    0    6.56e-01
2002 04 29  1545    52393   56700      0    1.35e+00    0    6.69e-01
2002 04 29  1550    52393   57000      0    1.37e+00    0    6.87e-01
2002 04 29  1555    52393   57300      0    1.37e+00    0    6.85e-01
2002 04 29  1600    52393   57600      0    1.36e+00    0    6.75e-01
2002 04 29  1605    52393   57900      0    1.35e+00    0    6.64e-01
2002 04 29  1610    52393   58200      0    1.38e+00    0    6.79e-01
2002 04 29  1615    52393   58500      0    1.20e+00    0    6.01e-01
2002 04 29  1620    52393   58800      0    1.67e+00    0    8.64e-01
2002 04 29  1625    52393   59100      0    1.36e+00    0    6.72e-01
2002 04 29  1630    52393   59400      0    1.37e+00    0    6.87e-01
2002 04 29  1635    52393   59700      0    1.36e+00    0    6.77e-01
2002 04 29  1640    52393   60000      0    1.36e+00    0    6.58e-01
2002 04 29  1645    52393   60300      0    1.38e+00    0    6.69e-01
2002 04 29  1650    52393   60600      0    1.36e+00    0    6.68e-01
2002 04 29  1655    52393   60900      0    1.36e+00    0    6.47e-01
2002 04 29  1700    52393   61200      0    1.37e+00    0    6.71e-01
2002 04 29  1705    52393   61500      0    1.41e+00    0    6.86e-01
2002 04 29  1710    52393   61800      0    1.40e+00    0    6.89e-01
2002 04 29  1715    52393   62100      0    1.35e+00    0    6.59e-01
2002 04 29  1720    52393   62400      0    1.39e+00    0    6.86e-01
2002 04 29  1725    52393   62700      0    1.38e+00    0    6.77e-01
2002 04 29  1730    52393   63000      0    1.37e+00    0    6.61e-01
2002 04 29  1735    52393   63300      0    1.39e+00    0    6.86e-01
2002 04 29  1740    52393   63600      0    1.37e+00    0    6.70e-01
2002 04 29  1745    52393   63900      0    1.38e+00    0    6.71e-01
2002 04 29  1750    52393   64200      0    1.36e+00    0    6.71e-01
2002 04 29  1755    52393   64500      0    1.37e+00    0    6.77e-01
2002 04 29  1800    52393   64800      0    1.37e+00    0    6.82e-01
2002 04 29  1805    52393   65100      9   -1.00e+05    0    7.90e-01
2002 04 29  1810    52393   65400      0    1.36e+00    0    6.71e-01
2002 04 29  1815    52393   65700      0    1.34e+00    0    6.53e-01
2002 04 29  1820    52393   66000      0    1.39e+00    0    6.91e-01
2002 04 29  1825    52393   66300      0    1.38e+00    0    6.75e-01
2002 04 29  1830    52393   66600      0    1.36e+00    0    6.77e-01
2002 04 29  1835    52393   66900      0    1.35e+00    0    6.68e-01
2002 04 29  1840    52393   67200      0    1.36e+00    0    6.73e-01
2002 04 29  1845    52393   67500      0    1.33e+00    0    6.62e-01
2002 04 29  1850    52393   67800      0    1.34e+00    0    6.65e-01
2002 04 29  1855    52393   68100      0    1.33e+00    0    6.67e-01
2002 04 29  1900    52393   68400      0    1.32e+00    0    6.60e-01
2002 04 29  1905    52393   68700      0    1.35e+00    0    6.71e-01
2002 04 29  1910    52393   69000      0    1.36e+00    0    6.68e-01
2002 04 29  1915    52393   69300      0    1.34e+00    0    6.67e-01
2002 04 29  1920    52393   69600      0    1.33e+00    0    6.67e-01
2002 04 29  1925    52393   69900      0    1.32e+00    0    6.43e-01
2002 04 29  1930    52393   70200      0    1.32e+00    0    6.62e-01
2002 04 29  1935    52393   70500      0    1.34e+00    0    6.73e-01
2002 04 29  1940    52393   70800      0    1.34e+00    0    6.73e-01
2002 04 29  1945    52393   71100      0    1.33e+00    0    6.71e-01
2002 04 29  1950    52393   71400      0    1.31e+00    0    6.43e-01
2002 04 29  1955    52393   71700      0    1.35e+00    0    6.62e-01
2002 04 29  2000    52393   72000      0    1.32e+00    0    6.53e-01
2002 04 29  2005    52393   72300      0    1.34e+00    0    6.71e-01
2002 04 29  2010    52393   72600      0    1.34e+00    0    6.66e-01
2002 04 29  2015    52393   72900      0    1.34e+00    0    6.66e-01
2002 04 29  2020    52393   73200      0    1.37e+00    0    6.77e-01
2002 04 29  2025    52393   73500      0    1.35e+00    0    6.61e-01
2002 04 29  2030    52393   73800      0    1.35e+00    0    6.66e-01
2002 04 29  2035    52393   74100      0    1.33e+00    0    6.58e-01
2002 04 29  2040    52393   74400      0    1.34e+00    0    6.62e-01
2002 04 29  2045    52393   74700      0    1.34e+00    0    6.54e-01
2002 04 29  2050    52393   75000      0    1.33e+00    0    6.62e-01
2002 04 29  2055    52393   75300      0    1.33e+00    0    6.62e-01
2002 04 29  2100    52393   75600      0    1.36e+00    0    6.67e-01
2002 04 29  2105    52393   75900      0    1.33e+00    0    6.68e-01
2002 04 29  2110    52393   76200      0    1.32e+00    0    6.54e-01
2002 04 29  2115    52393   76500      0    1.34e+00    0    6.65e-01
2002 04 29  2120    52393   76800      0    1.33e+00    0    6.53e-01
2002 04 29  2125    52393   77100      0    1.35e+00    0    6.57e-01
2002 04 29  2130    52393   77400      0    1.38e+00    0    6.86e-01
2002 04 29  2135    52393   77700      0    1.34e+00    0    6.62e-01
2002 04 29  2140    52393   78000      0    1.32e+00    0    6.48e-01
2002 04 29  2145    52393   78300      0    1.36e+00    0    6.74e-01
2002 04 29  2150    52393   78600      0    1.34e+00    0    6.59e-01
2002 04 29  2155    52393   78900      0    1.35e+00    0    6.63e-01
2002 04 29  2200    52393   79200      0    1.33e+00    0    6.59e-01
2002 04 29  2205    52393   79500      0    1.31e+00    0    6.49e-01
2002 04 29  2210    52393   79800      0    1.32e+00    0    6.59e-01
2002 04 29  2215    52393   80100      0    1.33e+00    0    6.69e-01
2002 04 29  2220    52393   80400      0    1.37e+00    0    6.83e-01
2002 04 29  2225    52393   80700      0    1.33e+00    0    6.64e-01
2002 04 29  2230    52393   81000      0    1.33e+00    0    6.51e-01
2002 04 29  2235    52393   81300      0    1.34e+00    0    6.69e-01
2002 04 29  2240    52393   81600      0    1.29e+00    0    6.37e-01
2002 04 29  2245    52393   81900      0    1.35e+00    0    6.80e-01
2002 04 29  2250    52393   82200      0    1.34e+00    0    6.58e-01
2002 04 29  2255    52393   82500      0    1.36e+00    0    6.80e-01
2002 04 29  2300    52393   82800      0    1.36e+00    0    6.65e-01
2002 04 29  2305    52393   83100      0    1.36e+00    0    6.66e-01
2002 04 29  2310    52393   83400      0    1.37e+00    0    6.67e-01
2002 04 29  2315    52393   83700      0    1.35e+00    0    6.70e-01
2002 04 29  2320    52393   84000      0    1.32e+00    0    6.37e-01
2002 04 29  2325    52393   84300      0    1.36e+00    0    6.76e-01
2002 04 29  2330    52393   84600      0    1.31e+00    0    6.51e-01
2002 04 29  2335    52393   84900      0    1.32e+00    0    6.53e-01
2002 04 29  2340    52393   85200      0    1.36e+00    0    6.72e-01
2002 04 29  2345    52393   85500      0    1.35e+00    0    6.76e-01
2002 04 29  2350    52393   85800      0    1.30e+00    0    6.50e-01
2002 04 29  2355    52393   86100      0    1.31e+00    0    6.70e-01
