:Data_list: 20020220_ace_sis_5m.txt
:Created: 2002 Feb 21 0011 UT
# Prepared by the U.S. Dept. of Commerce, NOAA, Space Environment Center.
# Please send comments and suggestions to sec@sec.noaa.gov 
# 
# Units: proton flux p/cs2-sec-ster
# Status(S): 0 = nominal data, 1 to 8 = bad data record, 9 = no data
# Missing data values: -1.00e+05
# Source: ACE Satellite - Solar Isotope Spectrometer
#
# 5-minute averaged Real-time Integral Flux of High-energy Solar Protons
# 
#                 Modified Seconds
# UT Date   Time   Julian  of the      ---- Integral Proton Flux ----
# YR MO DA  HHMM     Day     Day       S    > 10 MeV    S    > 30 MeV
#--------------------------------------------------------------------
2002 02 20  0000    52325       0      0    8.69e-01    0    6.09e-01
2002 02 20  0005    52325     300      0    8.54e-01    0    5.93e-01
2002 02 20  0010    52325     600      0    8.73e-01    0    6.07e-01
2002 02 20  0015    52325     900      0    8.76e-01    0    6.14e-01
2002 02 20  0020    52325    1200      0    8.53e-01    0    5.98e-01
2002 02 20  0025    52325    1500      0    8.82e-01    0    6.18e-01
2002 02 20  0030    52325    1800      0    8.63e-01    0    5.99e-01
2002 02 20  0035    52325    2100      0    8.94e-01    0    6.30e-01
2002 02 20  0040    52325    2400      0    8.74e-01    0    6.15e-01
2002 02 20  0045    52325    2700      0    8.76e-01    0    6.13e-01
2002 02 20  0050    52325    3000      0    8.76e-01    0    6.14e-01
2002 02 20  0055    52325    3300      0    8.58e-01    0    6.06e-01
2002 02 20  0100    52325    3600      0    8.71e-01    0    6.09e-01
2002 02 20  0105    52325    3900      0    8.72e-01    0    6.10e-01
2002 02 20  0110    52325    4200      0    9.03e-01    0    6.41e-01
2002 02 20  0115    52325    4500      0    8.80e-01    0    6.13e-01
2002 02 20  0120    52325    4800      0    8.64e-01    0    6.09e-01
2002 02 20  0125    52325    5100      0    8.59e-01    0    6.00e-01
2002 02 20  0130    52325    5400      0    8.89e-01    0    6.29e-01
2002 02 20  0135    52325    5700      0    8.77e-01    0    6.12e-01
2002 02 20  0140    52325    6000      0    8.61e-01    0    6.07e-01
2002 02 20  0145    52325    6300      0    8.73e-01    0    6.13e-01
2002 02 20  0150    52325    6600      0    8.60e-01    0    6.03e-01
2002 02 20  0155    52325    6900      0    8.66e-01    0    6.03e-01
2002 02 20  0200    52325    7200      0    8.77e-01    0    6.10e-01
2002 02 20  0205    52325    7500      0    8.68e-01    0    6.07e-01
2002 02 20  0210    52325    7800      0    8.74e-01    0    6.14e-01
2002 02 20  0215    52325    8100      0    8.76e-01    0    6.14e-01
2002 02 20  0220    52325    8400      0    8.61e-01    0    6.10e-01
2002 02 20  0225    52325    8700      0    8.74e-01    0    6.05e-01
2002 02 20  0230    52325    9000      0    8.69e-01    0    6.08e-01
2002 02 20  0235    52325    9300      0    8.66e-01    0    6.07e-01
2002 02 20  0240    52325    9600      0    8.79e-01    0    6.16e-01
2002 02 20  0245    52325    9900      0    8.81e-01    0    6.17e-01
2002 02 20  0250    52325   10200      0    9.00e-01    0    6.35e-01
2002 02 20  0255    52325   10500      0    8.70e-01    0    6.11e-01
2002 02 20  0300    52325   10800      0    8.74e-01    0    6.07e-01
2002 02 20  0305    52325   11100      0    8.75e-01    0    6.12e-01
2002 02 20  0310    52325   11400      0    8.69e-01    0    6.07e-01
2002 02 20  0315    52325   11700      0    8.66e-01    0    6.04e-01
2002 02 20  0320    52325   12000      0    8.35e-01    0    5.84e-01
2002 02 20  0325    52325   12300      0    8.79e-01    0    6.13e-01
2002 02 20  0330    52325   12600      0    8.85e-01    0    6.19e-01
2002 02 20  0335    52325   12900      0    8.64e-01    0    5.97e-01
2002 02 20  0340    52325   13200      0    8.82e-01    0    6.22e-01
2002 02 20  0345    52325   13500      0    8.73e-01    0    6.10e-01
2002 02 20  0350    52325   13800      0    9.02e-01    0    6.31e-01
2002 02 20  0355    52325   14100      0    8.79e-01    0    6.17e-01
2002 02 20  0400    52325   14400      0    8.33e-01    0    5.85e-01
2002 02 20  0405    52325   14700      0    8.60e-01    0    6.03e-01
2002 02 20  0410    52325   15000      0    8.68e-01    0    6.09e-01
2002 02 20  0415    52325   15300      0    8.97e-01    0    6.29e-01
2002 02 20  0420    52325   15600      0    8.71e-01    0    6.17e-01
2002 02 20  0425    52325   15900      0    8.77e-01    0    6.19e-01
2002 02 20  0430    52325   16200      0    8.77e-01    0    6.16e-01
2002 02 20  0435    52325   16500      0    8.51e-01    0    6.02e-01
2002 02 20  0440    52325   16800      0    8.84e-01    0    6.19e-01
2002 02 20  0445    52325   17100      0    8.83e-01    0    6.12e-01
2002 02 20  0450    52325   17400      0    8.55e-01    0    5.98e-01
2002 02 20  0455    52325   17700      0    8.78e-01    0    6.18e-01
2002 02 20  0500    52325   18000      0    8.91e-01    0    6.22e-01
2002 02 20  0505    52325   18300      0    8.76e-01    0    6.18e-01
2002 02 20  0510    52325   18600      0    8.48e-01    0    5.97e-01
2002 02 20  0515    52325   18900      0    8.48e-01    0    5.91e-01
2002 02 20  0520    52325   19200      0    8.71e-01    0    6.18e-01
2002 02 20  0525    52325   19500      0    8.50e-01    0    5.96e-01
2002 02 20  0530    52325   19800      0    8.72e-01    0    6.11e-01
2002 02 20  0535    52325   20100      0    8.77e-01    0    6.19e-01
2002 02 20  0540    52325   20400      0    8.61e-01    0    5.96e-01
2002 02 20  0545    52325   20700      0    8.54e-01    0    5.99e-01
2002 02 20  0550    52325   21000      0    8.58e-01    0    5.99e-01
2002 02 20  0555    52325   21300      0    8.73e-01    0    6.09e-01
2002 02 20  0600    52325   21600      0    8.73e-01    0    6.16e-01
2002 02 20  0605    52325   21900      0    8.72e-01    0    6.07e-01
2002 02 20  0610    52325   22200      0    8.23e-01    0    5.81e-01
2002 02 20  0615    52325   22500      0    8.83e-01    0    6.19e-01
2002 02 20  0620    52325   22800      0    8.83e-01    0    6.12e-01
2002 02 20  0625    52325   23100      0    8.59e-01    0    6.04e-01
2002 02 20  0630    52325   23400      0    8.47e-01    0    5.99e-01
2002 02 20  0635    52325   23700      0    8.99e-01    0    6.26e-01
2002 02 20  0640    52325   24000      0    9.88e-01    0    6.93e-01
2002 02 20  0645    52325   24300      0    1.28e+00    0    9.09e-01
2002 02 20  0650    52325   24600      0    2.33e+00    0    1.60e+00
2002 02 20  0655    52325   24900      0    3.19e+00    0    2.28e+00
2002 02 20  0700    52325   25200      0    4.84e+00    0    3.42e+00
2002 02 20  0705    52325   25500      0    6.02e+00    0    3.65e+00
2002 02 20  0710    52325   25800      0    5.64e+00    0    2.56e+00
2002 02 20  0715    52325   26100      0    8.64e+00    0    2.54e+00
2002 02 20  0720    52325   26400      0    9.89e+00    0    2.07e+00
2002 02 20  0725    52325   26700      0    8.63e+00    0    1.66e+00
2002 02 20  0730    52325   27000      0    9.14e+00    0    1.58e+00
2002 02 20  0735    52325   27300      0    1.00e+01    0    1.54e+00
2002 02 20  0740    52325   27600      0    1.08e+01    0    1.47e+00
2002 02 20  0745    52325   27900      0    9.21e+00    0    1.39e+00
2002 02 20  0750    52325   28200      0    9.92e+00    0    1.49e+00
2002 02 20  0755    52325   28500      0    1.11e+01    0    1.57e+00
2002 02 20  0800    52325   28800      0    1.12e+01    0    1.65e+00
2002 02 20  0805    52325   29100      0    1.03e+01    0    1.56e+00
2002 02 20  0810    52325   29400      0    8.91e+00    0    1.47e+00
2002 02 20  0815    52325   29700      0    7.08e+00    0    1.40e+00
2002 02 20  0820    52325   30000      0    6.58e+00    0    1.37e+00
2002 02 20  0825    52325   30300      0    6.15e+00    0    1.36e+00
2002 02 20  0830    52325   30600      0    5.32e+00    0    1.34e+00
2002 02 20  0835    52325   30900      0    6.19e+00    0    1.50e+00
2002 02 20  0840    52325   31200      0    6.00e+00    0    1.39e+00
2002 02 20  0845    52325   31500      0    5.85e+00    0    1.35e+00
2002 02 20  0850    52325   31800      0    4.65e+00    0    1.30e+00
2002 02 20  0855    52325   32100      0    4.82e+00    0    1.31e+00
2002 02 20  0900    52325   32400      0    4.60e+00    0    1.28e+00
2002 02 20  0905    52325   32700      0    4.31e+00    0    1.26e+00
2002 02 20  0910    52325   33000      0    4.35e+00    0    1.23e+00
2002 02 20  0915    52325   33300      0    4.26e+00    0    1.28e+00
2002 02 20  0920    52325   33600      0    3.99e+00    0    1.23e+00
2002 02 20  0925    52325   33900      0    3.88e+00    0    1.24e+00
2002 02 20  0930    52325   34200      0    3.92e+00    0    1.21e+00
2002 02 20  0935    52325   34500      0    4.07e+00    0    1.15e+00
2002 02 20  0940    52325   34800      0    3.97e+00    0    1.12e+00
2002 02 20  0945    52325   35100      0    3.66e+00    0    1.11e+00
2002 02 20  0950    52325   35400      0    3.81e+00    0    1.17e+00
2002 02 20  0955    52325   35700      0    3.71e+00    0    1.07e+00
2002 02 20  1000    52325   36000      0    4.27e+00    0    1.13e+00
2002 02 20  1005    52325   36300      0    4.51e+00    0    1.16e+00
2002 02 20  1010    52325   36600      0    4.26e+00    0    1.10e+00
2002 02 20  1015    52325   36900      0    4.36e+00    0    1.13e+00
2002 02 20  1020    52325   37200      0    4.66e+00    0    1.20e+00
2002 02 20  1025    52325   37500      0    4.57e+00    0    1.14e+00
2002 02 20  1030    52325   37800      0    4.22e+00    0    1.09e+00
2002 02 20  1035    52325   38100      0    4.02e+00    0    1.08e+00
2002 02 20  1040    52325   38400      0    4.06e+00    0    1.10e+00
2002 02 20  1045    52325   38700      0    3.73e+00    0    1.05e+00
2002 02 20  1050    52325   39000      0    3.64e+00    0    1.05e+00
2002 02 20  1055    52325   39300      0    3.20e+00    0    9.82e-01
2002 02 20  1100    52325   39600      0    3.15e+00    0    9.44e-01
2002 02 20  1105    52325   39900      0    3.23e+00    0    9.99e-01
2002 02 20  1110    52325   40200      0    3.57e+00    0    1.03e+00
2002 02 20  1115    52325   40500      0    3.45e+00    0    9.97e-01
2002 02 20  1120    52325   40800      0    2.71e+00    0    9.29e-01
2002 02 20  1125    52325   41100      0    2.75e+00    0    9.28e-01
2002 02 20  1130    52325   41400      0    2.85e+00    0    9.46e-01
2002 02 20  1135    52325   41700      0    2.93e+00    0    9.30e-01
2002 02 20  1140    52325   42000      0    2.97e+00    0    9.12e-01
2002 02 20  1145    52325   42300      0    2.47e+00    0    8.84e-01
2002 02 20  1150    52325   42600      0    2.47e+00    0    8.82e-01
2002 02 20  1155    52325   42900      0    2.38e+00    0    8.79e-01
2002 02 20  1200    52325   43200      0    2.11e+00    0    8.42e-01
2002 02 20  1205    52325   43500      0    2.31e+00    0    8.92e-01
2002 02 20  1210    52325   43800      0    2.51e+00    0    9.12e-01
2002 02 20  1215    52325   44100      0    2.70e+00    0    9.06e-01
2002 02 20  1220    52325   44400      0    2.55e+00    0    8.61e-01
2002 02 20  1225    52325   44700      0    2.44e+00    0    8.85e-01
2002 02 20  1230    52325   45000      0    2.43e+00    0    9.01e-01
2002 02 20  1235    52325   45300      0    2.35e+00    0    8.73e-01
2002 02 20  1240    52325   45600      0    2.35e+00    0    8.63e-01
2002 02 20  1245    52325   45900      0    2.65e+00    0    9.40e-01
2002 02 20  1250    52325   46200      0    2.96e+00    0    9.20e-01
2002 02 20  1255    52325   46500      0    2.78e+00    0    9.09e-01
2002 02 20  1300    52325   46800      0    2.47e+00    0    8.68e-01
2002 02 20  1305    52325   47100      0    2.10e+00    0    8.41e-01
2002 02 20  1310    52325   47400      0    2.44e+00    0    8.74e-01
2002 02 20  1315    52325   47700      0    2.35e+00    0    8.57e-01
2002 02 20  1320    52325   48000      0    2.21e+00    0    8.33e-01
2002 02 20  1325    52325   48300      0    2.16e+00    0    8.63e-01
2002 02 20  1330    52325   48600      0    2.09e+00    0    8.23e-01
2002 02 20  1335    52325   48900      0    2.14e+00    0    8.33e-01
2002 02 20  1340    52325   49200      0    2.22e+00    0    8.43e-01
2002 02 20  1345    52325   49500      0    2.28e+00    0    8.67e-01
2002 02 20  1350    52325   49800      0    2.32e+00    0    8.73e-01
2002 02 20  1355    52325   50100      0    2.24e+00    0    8.32e-01
2002 02 20  1400    52325   50400      0    2.33e+00    0    8.56e-01
2002 02 20  1405    52325   50700      0    2.32e+00    0    8.31e-01
2002 02 20  1410    52325   51000      0    2.31e+00    0    8.63e-01
2002 02 20  1415    52325   51300      0    2.34e+00    0    8.53e-01
2002 02 20  1420    52325   51600      0    2.19e+00    0    8.31e-01
2002 02 20  1425    52325   51900      0    2.30e+00    0    8.68e-01
2002 02 20  1430    52325   52200      0    2.27e+00    0    8.30e-01
2002 02 20  1435    52325   52500      0    2.56e+00    0    8.91e-01
2002 02 20  1440    52325   52800      0    2.68e+00    0    8.99e-01
2002 02 20  1445    52325   53100      0    2.67e+00    0    8.56e-01
2002 02 20  1450    52325   53400      0    2.65e+00    0    8.72e-01
2002 02 20  1455    52325   53700      0    2.68e+00    0    8.59e-01
2002 02 20  1500    52325   54000      0    2.88e+00    0    9.08e-01
2002 02 20  1505    52325   54300      0    2.96e+00    0    8.80e-01
2002 02 20  1510    52325   54600      0    2.95e+00    0    8.93e-01
2002 02 20  1515    52325   54900      0    2.86e+00    0    8.82e-01
2002 02 20  1520    52325   55200      0    2.82e+00    0    8.28e-01
2002 02 20  1525    52325   55500      0    2.89e+00    0    8.96e-01
2002 02 20  1530    52325   55800      0    2.87e+00    0    9.24e-01
2002 02 20  1535    52325   56100      0    2.71e+00    0    8.58e-01
2002 02 20  1540    52325   56400      0    2.65e+00    0    8.46e-01
2002 02 20  1545    52325   56700      0    2.68e+00    0    8.63e-01
2002 02 20  1550    52325   57000      0    2.67e+00    0    8.84e-01
2002 02 20  1555    52325   57300      0    2.68e+00    0    8.82e-01
2002 02 20  1600    52325   57600      0    2.61e+00    0    8.48e-01
2002 02 20  1605    52325   57900      0    2.59e+00    0    8.53e-01
2002 02 20  1610    52325   58200      0    2.58e+00    0    8.62e-01
2002 02 20  1615    52325   58500      0    2.65e+00    0    8.41e-01
2002 02 20  1620    52325   58800      0    2.76e+00    0    9.13e-01
2002 02 20  1625    52325   59100      0    2.65e+00    0    8.74e-01
2002 02 20  1630    52325   59400      0    2.60e+00    0    8.52e-01
2002 02 20  1635    52325   59700      0    2.54e+00    0    8.42e-01
2002 02 20  1640    52325   60000      0    2.54e+00    0    8.48e-01
2002 02 20  1645    52325   60300      0    2.40e+00    0    8.12e-01
2002 02 20  1650    52325   60600      0    2.57e+00    0    8.46e-01
2002 02 20  1655    52325   60900      0    2.46e+00    0    8.40e-01
2002 02 20  1700    52325   61200      0    2.53e+00    0    8.06e-01
2002 02 20  1705    52325   61500      0    2.73e+00    0    8.48e-01
2002 02 20  1710    52325   61800      0    2.82e+00    0    8.57e-01
2002 02 20  1715    52325   62100      0    2.67e+00    0    8.39e-01
2002 02 20  1720    52325   62400      0    2.79e+00    0    8.79e-01
2002 02 20  1725    52325   62700      0    2.65e+00    0    8.64e-01
2002 02 20  1730    52325   63000      0    2.64e+00    0    8.71e-01
2002 02 20  1735    52325   63300      0    2.59e+00    0    8.47e-01
2002 02 20  1740    52325   63600      0    2.62e+00    0    8.67e-01
2002 02 20  1745    52325   63900      0    2.68e+00    0    8.89e-01
2002 02 20  1750    52325   64200      0    2.64e+00    0    8.47e-01
2002 02 20  1755    52325   64500      0    2.54e+00    0    8.22e-01
2002 02 20  1800    52325   64800      0    2.51e+00    0    8.29e-01
2002 02 20  1805    52325   65100      0    2.62e+00    0    8.29e-01
2002 02 20  1810    52325   65400      0    2.60e+00    0    8.33e-01
2002 02 20  1815    52325   65700      0    2.64e+00    0    8.67e-01
2002 02 20  1820    52325   66000      0    2.45e+00    0    8.08e-01
2002 02 20  1825    52325   66300      0    2.48e+00    0    8.18e-01
2002 02 20  1830    52325   66600      0    2.54e+00    0    8.53e-01
2002 02 20  1835    52325   66900      0    2.45e+00    0    8.14e-01
2002 02 20  1840    52325   67200      0    2.46e+00    0    8.20e-01
2002 02 20  1845    52325   67500      0    2.44e+00    0    8.29e-01
2002 02 20  1850    52325   67800      0    2.39e+00    0    8.39e-01
2002 02 20  1855    52325   68100      0    2.29e+00    0    7.74e-01
2002 02 20  1900    52325   68400      0    2.49e+00    0    8.59e-01
2002 02 20  1905    52325   68700      0    2.43e+00    0    8.19e-01
2002 02 20  1910    52325   69000      0    2.39e+00    0    8.53e-01
2002 02 20  1915    52325   69300      0    2.34e+00    0    8.22e-01
2002 02 20  1920    52325   69600      0    2.25e+00    0    7.94e-01
2002 02 20  1925    52325   69900      0    2.23e+00    0    8.51e-01
2002 02 20  1930    52325   70200      0    2.21e+00    0    8.32e-01
2002 02 20  1935    52325   70500      0    2.20e+00    0    8.19e-01
2002 02 20  1940    52325   70800      0    2.19e+00    0    8.21e-01
2002 02 20  1945    52325   71100      0    2.17e+00    0    8.00e-01
2002 02 20  1950    52325   71400      0    2.17e+00    0    8.18e-01
2002 02 20  1955    52325   71700      0    2.13e+00    0    7.86e-01
2002 02 20  2000    52325   72000      0    2.17e+00    0    8.09e-01
2002 02 20  2005    52325   72300      0    2.09e+00    0    8.03e-01
2002 02 20  2010    52325   72600      0    2.02e+00    0    7.79e-01
2002 02 20  2015    52325   72900      0    2.11e+00    0    8.03e-01
2002 02 20  2020    52325   73200      0    2.11e+00    0    7.82e-01
2002 02 20  2025    52325   73500      0    2.14e+00    0    8.02e-01
2002 02 20  2030    52325   73800      0    2.13e+00    0    7.91e-01
2002 02 20  2035    52325   74100      0    2.12e+00    0    7.70e-01
2002 02 20  2040    52325   74400      0    2.20e+00    0    8.23e-01
2002 02 20  2045    52325   74700      0    2.13e+00    0    8.08e-01
2002 02 20  2050    52325   75000      0    2.18e+00    0    8.11e-01
2002 02 20  2055    52325   75300      0    2.20e+00    0    8.07e-01
2002 02 20  2100    52325   75600      0    2.15e+00    0    7.89e-01
2002 02 20  2105    52325   75900      0    2.17e+00    0    7.98e-01
2002 02 20  2110    52325   76200      0    2.08e+00    0    7.63e-01
2002 02 20  2115    52325   76500      0    2.03e+00    0    7.50e-01
2002 02 20  2120    52325   76800      0    2.05e+00    0    7.72e-01
2002 02 20  2125    52325   77100      0    2.05e+00    0    7.51e-01
2002 02 20  2130    52325   77400      0    2.06e+00    0    7.74e-01
2002 02 20  2135    52325   77700      0    2.00e+00    0    7.77e-01
2002 02 20  2140    52325   78000      0    2.05e+00    0    8.07e-01
2002 02 20  2145    52325   78300      0    2.04e+00    0    7.67e-01
2002 02 20  2150    52325   78600      0    2.01e+00    0    7.52e-01
2002 02 20  2155    52325   78900      0    1.97e+00    0    7.52e-01
2002 02 20  2200    52325   79200      0    1.92e+00    0    7.46e-01
2002 02 20  2205    52325   79500      0    2.03e+00    0    7.99e-01
2002 02 20  2210    52325   79800      0    1.99e+00    0    7.73e-01
2002 02 20  2215    52325   80100      0    1.96e+00    0    7.72e-01
2002 02 20  2220    52325   80400      0    1.95e+00    0    7.64e-01
2002 02 20  2225    52325   80700      0    1.91e+00    0    7.38e-01
2002 02 20  2230    52325   81000      0    1.88e+00    0    7.41e-01
2002 02 20  2235    52325   81300      0    1.87e+00    0    7.22e-01
2002 02 20  2240    52325   81600      0    1.88e+00    0    7.51e-01
2002 02 20  2245    52325   81900      0    1.88e+00    0    7.41e-01
2002 02 20  2250    52325   82200      0    1.93e+00    0    7.88e-01
2002 02 20  2255    52325   82500      0    1.92e+00    0    7.58e-01
2002 02 20  2300    52325   82800      0    1.90e+00    0    7.42e-01
2002 02 20  2305    52325   83100      0    1.86e+00    0    7.30e-01
2002 02 20  2310    52325   83400      0    1.88e+00    0    7.43e-01
2002 02 20  2315    52325   83700      0    1.95e+00    0    7.90e-01
2002 02 20  2320    52325   84000      0    1.95e+00    0    7.77e-01
2002 02 20  2325    52325   84300      0    1.87e+00    0    7.51e-01
2002 02 20  2330    52325   84600      0    1.89e+00    0    7.78e-01
2002 02 20  2335    52325   84900      0    1.91e+00    0    7.61e-01
2002 02 20  2340    52325   85200      0    1.87e+00    0    7.54e-01
2002 02 20  2345    52325   85500      0    1.86e+00    0    7.62e-01
2002 02 20  2350    52325   85800      0    1.84e+00    0    7.38e-01
2002 02 20  2355    52325   86100      0    1.86e+00    0    7.79e-01
