:Data_list: 20021126_ace_sis_5m.txt
:Created: 2002 Nov 27 0011 UT
# Prepared by the U.S. Dept. of Commerce, NOAA, Space Environment Center.
# Please send comments and suggestions to sec@sec.noaa.gov 
# 
# Units: proton flux p/cs2-sec-ster
# Status(S): 0 = nominal data, 1 to 8 = bad data record, 9 = no data
# Missing data values: -1.00e+05
# Source: ACE Satellite - Solar Isotope Spectrometer
#
# 5-minute averaged Real-time Integral Flux of High-energy Solar Protons
# 
#                 Modified Seconds
# UT Date   Time   Julian  of the      ---- Integral Proton Flux ----
# YR MO DA  HHMM     Day     Day       S    > 10 MeV    S    > 30 MeV
#--------------------------------------------------------------------
2002 11 26  0000    52604       0      0    1.18e+00    0    6.50e-01
2002 11 26  0005    52604     300      0    1.23e+00    0    6.71e-01
2002 11 26  0010    52604     600      0    1.21e+00    0    6.67e-01
2002 11 26  0015    52604     900      0    1.25e+00    0    6.87e-01
2002 11 26  0020    52604    1200      0    1.21e+00    0    6.76e-01
2002 11 26  0025    52604    1500      0    1.26e+00    0    6.78e-01
2002 11 26  0030    52604    1800      0    1.33e+00    0    6.83e-01
2002 11 26  0035    52604    2100      0    1.29e+00    0    6.66e-01
2002 11 26  0040    52604    2400      0    1.27e+00    0    6.79e-01
2002 11 26  0045    52604    2700      0    1.20e+00    0    6.60e-01
2002 11 26  0050    52604    3000      0    1.19e+00    0    6.51e-01
2002 11 26  0055    52604    3300      0    1.17e+00    0    6.42e-01
2002 11 26  0100    52604    3600      0    1.19e+00    0    6.54e-01
2002 11 26  0105    52604    3900      0    1.29e+00    0    6.75e-01
2002 11 26  0110    52604    4200      0    1.40e+00    0    7.00e-01
2002 11 26  0115    52604    4500      0    1.38e+00    0    6.96e-01
2002 11 26  0120    52604    4800      0    1.39e+00    0    6.95e-01
2002 11 26  0125    52604    5100      0    1.39e+00    0    6.91e-01
2002 11 26  0130    52604    5400      0    1.45e+00    0    6.63e-01
2002 11 26  0135    52604    5700      0    1.38e+00    0    6.66e-01
2002 11 26  0140    52604    6000      0    1.45e+00    0    7.03e-01
2002 11 26  0145    52604    6300      0    1.41e+00    0    6.57e-01
2002 11 26  0150    52604    6600      0    1.42e+00    0    6.58e-01
2002 11 26  0155    52604    6900      0    1.38e+00    0    6.81e-01
2002 11 26  0200    52604    7200      0    1.39e+00    0    6.94e-01
2002 11 26  0205    52604    7500      0    1.36e+00    0    6.88e-01
2002 11 26  0210    52604    7800      0    1.39e+00    0    6.49e-01
2002 11 26  0215    52604    8100      0    1.63e+00    0    6.98e-01
2002 11 26  0220    52604    8400      0    1.60e+00    0    6.91e-01
2002 11 26  0225    52604    8700      0    1.70e+00    0    6.87e-01
2002 11 26  0230    52604    9000      0    1.65e+00    0    7.00e-01
2002 11 26  0235    52604    9300      0    1.74e+00    0    7.20e-01
2002 11 26  0240    52604    9600      0    1.80e+00    0    7.14e-01
2002 11 26  0245    52604    9900      0    1.77e+00    0    7.10e-01
2002 11 26  0250    52604   10200      0    1.78e+00    0    7.40e-01
2002 11 26  0255    52604   10500      0    1.77e+00    0    6.85e-01
2002 11 26  0300    52604   10800      0    1.74e+00    0    7.23e-01
2002 11 26  0305    52604   11100      0    1.82e+00    0    7.51e-01
2002 11 26  0310    52604   11400      0    1.80e+00    0    7.11e-01
2002 11 26  0315    52604   11700      0    1.90e+00    0    6.98e-01
2002 11 26  0320    52604   12000      0    1.95e+00    0    6.92e-01
2002 11 26  0325    52604   12300      0    1.97e+00    0    7.12e-01
2002 11 26  0330    52604   12600      0    1.96e+00    0    7.34e-01
2002 11 26  0335    52604   12900      0    1.91e+00    0    7.32e-01
2002 11 26  0340    52604   13200      0    2.01e+00    0    7.38e-01
2002 11 26  0345    52604   13500      0    1.79e+00    0    7.08e-01
2002 11 26  0350    52604   13800      0    1.56e+00    0    6.76e-01
2002 11 26  0355    52604   14100      0    1.55e+00    0    7.19e-01
2002 11 26  0400    52604   14400      0    1.51e+00    0    6.84e-01
2002 11 26  0405    52604   14700      0    1.52e+00    0    7.11e-01
2002 11 26  0410    52604   15000      0    1.48e+00    0    6.78e-01
2002 11 26  0415    52604   15300      0    1.56e+00    0    7.20e-01
2002 11 26  0420    52604   15600      0    1.57e+00    0    7.12e-01
2002 11 26  0425    52604   15900      0    1.63e+00    0    7.06e-01
2002 11 26  0430    52604   16200      0    1.69e+00    0    7.18e-01
2002 11 26  0435    52604   16500      0    1.66e+00    0    6.60e-01
2002 11 26  0440    52604   16800      0    1.71e+00    0    6.85e-01
2002 11 26  0445    52604   17100      0    1.78e+00    0    7.24e-01
2002 11 26  0450    52604   17400      0    1.71e+00    0    6.92e-01
2002 11 26  0455    52604   17700      0    1.75e+00    0    7.28e-01
2002 11 26  0500    52604   18000      0    1.70e+00    0    6.77e-01
2002 11 26  0505    52604   18300      0    1.60e+00    0    6.96e-01
2002 11 26  0510    52604   18600      0    1.47e+00    0    6.58e-01
2002 11 26  0515    52604   18900      0    1.57e+00    0    6.83e-01
2002 11 26  0520    52604   19200      0    1.59e+00    0    6.54e-01
2002 11 26  0525    52604   19500      0    1.77e+00    0    7.19e-01
2002 11 26  0530    52604   19800      0    1.78e+00    0    7.12e-01
2002 11 26  0535    52604   20100      0    1.72e+00    0    7.07e-01
2002 11 26  0540    52604   20400      0    1.65e+00    0    6.57e-01
2002 11 26  0545    52604   20700      0    1.66e+00    0    6.61e-01
2002 11 26  0550    52604   21000      0    1.59e+00    0    6.89e-01
2002 11 26  0555    52604   21300      0    1.57e+00    0    6.97e-01
2002 11 26  0600    52604   21600      0    1.53e+00    0    6.83e-01
2002 11 26  0605    52604   21900      0    1.63e+00    0    6.81e-01
2002 11 26  0610    52604   22200      0    1.61e+00    0    6.96e-01
2002 11 26  0615    52604   22500      0    1.70e+00    0    6.80e-01
2002 11 26  0620    52604   22800      0    1.63e+00    0    6.92e-01
2002 11 26  0625    52604   23100      0    1.66e+00    0    7.28e-01
2002 11 26  0630    52604   23400      0    1.50e+00    0    6.52e-01
2002 11 26  0635    52604   23700      0    1.56e+00    0    6.86e-01
2002 11 26  0640    52604   24000      0    1.54e+00    0    6.74e-01
2002 11 26  0645    52604   24300      0    1.52e+00    0    6.73e-01
2002 11 26  0650    52604   24600      0    1.53e+00    0    6.86e-01
2002 11 26  0655    52604   24900      0    1.53e+00    0    7.00e-01
2002 11 26  0700    52604   25200      0    1.53e+00    0    6.82e-01
2002 11 26  0705    52604   25500      0    1.53e+00    0    6.90e-01
2002 11 26  0710    52604   25800      0    1.63e+00    0    7.29e-01
2002 11 26  0715    52604   26100      0    1.57e+00    0    7.00e-01
2002 11 26  0720    52604   26400      0    1.51e+00    0    7.09e-01
2002 11 26  0725    52604   26700      0    1.51e+00    0    7.14e-01
2002 11 26  0730    52604   27000      0    1.52e+00    0    6.86e-01
2002 11 26  0735    52604   27300      0    1.65e+00    0    6.81e-01
2002 11 26  0740    52604   27600      0    1.72e+00    0    6.78e-01
2002 11 26  0745    52604   27900      0    1.73e+00    0    7.22e-01
2002 11 26  0750    52604   28200      9   -1.00e+05    9   -1.00e+05
2002 11 26  0755    52604   28500      9   -1.00e+05    9   -1.00e+05
2002 11 26  0800    52604   28800      9   -1.00e+05    9   -1.00e+05
2002 11 26  0805    52604   29100      9   -1.00e+05    9   -1.00e+05
2002 11 26  0810    52604   29400      9   -1.00e+05    9   -1.00e+05
2002 11 26  0815    52604   29700      9   -1.00e+05    9   -1.00e+05
2002 11 26  0820    52604   30000      9   -1.00e+05    9   -1.00e+05
2002 11 26  0825    52604   30300      9   -1.00e+05    9   -1.00e+05
2002 11 26  0830    52604   30600      0    1.50e+00    0    7.25e-01
2002 11 26  0835    52604   30900      0    1.48e+00    0    7.17e-01
2002 11 26  0840    52604   31200      0    1.43e+00    0    6.83e-01
2002 11 26  0845    52604   31500      0    1.58e+00    0    7.34e-01
2002 11 26  0850    52604   31800      0    1.52e+00    0    7.01e-01
2002 11 26  0855    52604   32100      0    1.50e+00    0    6.84e-01
2002 11 26  0900    52604   32400      0    1.47e+00    0    6.94e-01
2002 11 26  0905    52604   32700      0    1.38e+00    0    6.73e-01
2002 11 26  0910    52604   33000      0    1.40e+00    0    6.82e-01
2002 11 26  0915    52604   33300      0    1.43e+00    0    6.81e-01
2002 11 26  0920    52604   33600      0    1.41e+00    0    6.84e-01
2002 11 26  0925    52604   33900      0    1.45e+00    0    7.18e-01
2002 11 26  0930    52604   34200      0    1.41e+00    0    6.70e-01
2002 11 26  0935    52604   34500      0    1.36e+00    0    6.75e-01
2002 11 26  0940    52604   34800      0    1.37e+00    0    6.68e-01
2002 11 26  0945    52604   35100      0    1.46e+00    0    6.94e-01
2002 11 26  0950    52604   35400      0    1.45e+00    0    6.86e-01
2002 11 26  0955    52604   35700      0    1.41e+00    0    6.84e-01
2002 11 26  1000    52604   36000      0    1.41e+00    0    6.99e-01
2002 11 26  1005    52604   36300      0    1.34e+00    0    6.81e-01
2002 11 26  1010    52604   36600      0    1.32e+00    0    6.59e-01
2002 11 26  1015    52604   36900      0    1.38e+00    0    6.98e-01
2002 11 26  1020    52604   37200      0    1.37e+00    0    7.22e-01
2002 11 26  1025    52604   37500      0    1.31e+00    0    6.57e-01
2002 11 26  1030    52604   37800      0    1.36e+00    0    6.83e-01
2002 11 26  1035    52604   38100      0    1.39e+00    0    6.93e-01
2002 11 26  1040    52604   38400      0    1.37e+00    0    7.03e-01
2002 11 26  1045    52604   38700      0    1.34e+00    0    6.58e-01
2002 11 26  1050    52604   39000      0    1.36e+00    0    6.99e-01
2002 11 26  1055    52604   39300      0    1.36e+00    0    6.90e-01
2002 11 26  1100    52604   39600      0    1.37e+00    0    7.07e-01
2002 11 26  1105    52604   39900      0    1.32e+00    0    6.99e-01
2002 11 26  1110    52604   40200      0    1.26e+00    0    6.68e-01
2002 11 26  1115    52604   40500      0    1.26e+00    0    6.91e-01
2002 11 26  1120    52604   40800      0    1.28e+00    0    7.03e-01
2002 11 26  1125    52604   41100      0    1.26e+00    0    7.07e-01
2002 11 26  1130    52604   41400      0    1.27e+00    0    7.00e-01
2002 11 26  1135    52604   41700      0    1.30e+00    0    7.02e-01
2002 11 26  1140    52604   42000      0    1.34e+00    0    7.42e-01
2002 11 26  1145    52604   42300      0    1.29e+00    0    6.88e-01
2002 11 26  1150    52604   42600      0    1.26e+00    0    6.68e-01
2002 11 26  1155    52604   42900      0    1.31e+00    0    7.00e-01
2002 11 26  1200    52604   43200      0    1.31e+00    0    6.97e-01
2002 11 26  1205    52604   43500      0    1.31e+00    0    6.79e-01
2002 11 26  1210    52604   43800      0    1.34e+00    0    7.06e-01
2002 11 26  1215    52604   44100      0    1.23e+00    0    6.82e-01
2002 11 26  1220    52604   44400      0    1.25e+00    0    6.76e-01
2002 11 26  1225    52604   44700      0    1.27e+00    0    6.79e-01
2002 11 26  1230    52604   45000      0    1.29e+00    0    6.69e-01
2002 11 26  1235    52604   45300      0    1.26e+00    0    6.63e-01
2002 11 26  1240    52604   45600      0    1.30e+00    0    7.05e-01
2002 11 26  1245    52604   45900      0    1.30e+00    0    6.77e-01
2002 11 26  1250    52604   46200      0    1.31e+00    0    6.97e-01
2002 11 26  1255    52604   46500      0    1.26e+00    0    6.69e-01
2002 11 26  1300    52604   46800      0    1.26e+00    0    6.88e-01
2002 11 26  1305    52604   47100      0    1.27e+00    0    7.03e-01
2002 11 26  1310    52604   47400      0    1.30e+00    0    7.20e-01
2002 11 26  1315    52604   47700      0    1.28e+00    0    6.98e-01
2002 11 26  1320    52604   48000      0    1.23e+00    0    6.69e-01
2002 11 26  1325    52604   48300      0    1.26e+00    0    6.89e-01
2002 11 26  1330    52604   48600      0    1.32e+00    0    7.20e-01
2002 11 26  1335    52604   48900      0    1.31e+00    0    7.17e-01
2002 11 26  1340    52604   49200      0    1.30e+00    0    7.29e-01
2002 11 26  1345    52604   49500      0    1.26e+00    0    6.89e-01
2002 11 26  1350    52604   49800      0    1.17e+00    0    6.53e-01
2002 11 26  1355    52604   50100      0    1.20e+00    0    6.73e-01
2002 11 26  1400    52604   50400      0    1.21e+00    0    6.89e-01
2002 11 26  1405    52604   50700      0    1.21e+00    0    6.88e-01
2002 11 26  1410    52604   51000      0    1.18e+00    0    6.69e-01
2002 11 26  1415    52604   51300      0    1.14e+00    0    6.36e-01
2002 11 26  1420    52604   51600      0    1.30e+00    0    7.12e-01
2002 11 26  1425    52604   51900      0    1.18e+00    0    6.51e-01
2002 11 26  1430    52604   52200      0    1.19e+00    0    6.59e-01
2002 11 26  1435    52604   52500      0    1.21e+00    0    7.13e-01
2002 11 26  1440    52604   52800      0    1.17e+00    0    6.79e-01
2002 11 26  1445    52604   53100      0    1.25e+00    0    6.81e-01
2002 11 26  1450    52604   53400      0    1.33e+00    0    6.86e-01
2002 11 26  1455    52604   53700      0    1.43e+00    0    7.18e-01
2002 11 26  1500    52604   54000      0    1.41e+00    0    7.10e-01
2002 11 26  1505    52604   54300      0    1.37e+00    0    7.22e-01
2002 11 26  1510    52604   54600      0    1.34e+00    0    7.28e-01
2002 11 26  1515    52604   54900      0    1.25e+00    0    6.87e-01
2002 11 26  1520    52604   55200      0    1.28e+00    0    6.88e-01
2002 11 26  1525    52604   55500      0    1.29e+00    0    6.92e-01
2002 11 26  1530    52604   55800      0    1.31e+00    0    6.86e-01
2002 11 26  1535    52604   56100      0    1.31e+00    0    6.81e-01
2002 11 26  1540    52604   56400      0    1.20e+00    0    6.69e-01
2002 11 26  1545    52604   56700      0    1.13e+00    0    6.33e-01
2002 11 26  1550    52604   57000      0    1.20e+00    0    6.77e-01
2002 11 26  1555    52604   57300      0    1.13e+00    0    6.67e-01
2002 11 26  1600    52604   57600      0    1.05e+00    0    6.42e-01
2002 11 26  1605    52604   57900      0    1.10e+00    0    6.60e-01
2002 11 26  1610    52604   58200      0    1.31e+00    0    7.10e-01
2002 11 26  1615    52604   58500      0    1.27e+00    0    7.39e-01
2002 11 26  1620    52604   58800      0    1.33e+00    0    7.18e-01
2002 11 26  1625    52604   59100      0    1.37e+00    0    7.46e-01
2002 11 26  1630    52604   59400      0    1.55e+00    0    7.27e-01
2002 11 26  1635    52604   59700      0    1.55e+00    0    7.63e-01
2002 11 26  1640    52604   60000      0    1.36e+00    0    6.69e-01
2002 11 26  1645    52604   60300      0    1.31e+00    0    7.19e-01
2002 11 26  1650    52604   60600      0    1.21e+00    0    6.56e-01
2002 11 26  1655    52604   60900      0    1.12e+00    0    6.55e-01
2002 11 26  1700    52604   61200      0    9.94e-01    0    6.27e-01
2002 11 26  1705    52604   61500      0    9.67e-01    0    6.14e-01
2002 11 26  1710    52604   61800      0    1.01e+00    0    6.47e-01
2002 11 26  1715    52604   62100      0    9.88e-01    0    6.30e-01
2002 11 26  1720    52604   62400      0    9.46e-01    0    6.03e-01
2002 11 26  1725    52604   62700      0    9.67e-01    0    6.18e-01
2002 11 26  1730    52604   63000      0    9.90e-01    0    6.37e-01
2002 11 26  1735    52604   63300      0    9.81e-01    0    6.19e-01
2002 11 26  1740    52604   63600      0    9.90e-01    0    6.28e-01
2002 11 26  1745    52604   63900      0    1.07e+00    0    6.58e-01
2002 11 26  1750    52604   64200      0    9.90e-01    0    6.21e-01
2002 11 26  1755    52604   64500      0    1.00e+00    0    6.20e-01
2002 11 26  1800    52604   64800      0    1.04e+00    0    6.49e-01
2002 11 26  1805    52604   65100      0    1.02e+00    0    6.38e-01
2002 11 26  1810    52604   65400      0    9.91e-01    0    6.23e-01
2002 11 26  1815    52604   65700      0    9.61e-01    0    6.04e-01
2002 11 26  1820    52604   66000      0    1.01e+00    0    6.44e-01
2002 11 26  1825    52604   66300      0    9.90e-01    0    6.20e-01
2002 11 26  1830    52604   66600      0    1.03e+00    0    6.41e-01
2002 11 26  1835    52604   66900      0    9.77e-01    0    6.02e-01
2002 11 26  1840    52604   67200      0    9.96e-01    0    6.32e-01
2002 11 26  1845    52604   67500      0    9.77e-01    0    6.24e-01
2002 11 26  1850    52604   67800      0    9.89e-01    0    6.36e-01
2002 11 26  1855    52604   68100      0    9.75e-01    0    6.18e-01
2002 11 26  1900    52604   68400      0    9.99e-01    0    6.37e-01
2002 11 26  1905    52604   68700      0    9.76e-01    0    6.16e-01
2002 11 26  1910    52604   69000      0    9.90e-01    0    6.08e-01
2002 11 26  1915    52604   69300      0    1.03e+00    0    6.52e-01
2002 11 26  1920    52604   69600      0    9.84e-01    0    6.18e-01
2002 11 26  1925    52604   69900      0    1.01e+00    0    6.42e-01
2002 11 26  1930    52604   70200      0    1.01e+00    0    6.37e-01
2002 11 26  1935    52604   70500      0    9.92e-01    0    6.31e-01
2002 11 26  1940    52604   70800      0    9.80e-01    0    6.20e-01
2002 11 26  1945    52604   71100      0    1.02e+00    0    6.34e-01
2002 11 26  1950    52604   71400      0    1.01e+00    0    6.43e-01
2002 11 26  1955    52604   71700      0    9.69e-01    0    6.13e-01
2002 11 26  2000    52604   72000      0    9.59e-01    0    6.07e-01
2002 11 26  2005    52604   72300      0    9.77e-01    0    6.14e-01
2002 11 26  2010    52604   72600      0    1.02e+00    0    6.36e-01
2002 11 26  2015    52604   72900      0    9.88e-01    0    6.11e-01
2002 11 26  2020    52604   73200      0    1.03e+00    0    6.38e-01
2002 11 26  2025    52604   73500      0    1.04e+00    0    6.41e-01
2002 11 26  2030    52604   73800      0    1.06e+00    0    6.31e-01
2002 11 26  2035    52604   74100      0    1.10e+00    0    6.51e-01
2002 11 26  2040    52604   74400      0    1.16e+00    0    6.64e-01
2002 11 26  2045    52604   74700      0    1.49e+00    0    7.07e-01
2002 11 26  2050    52604   75000      0    1.67e+00    0    6.98e-01
2002 11 26  2055    52604   75300      0    1.65e+00    0    7.06e-01
2002 11 26  2100    52604   75600      0    1.40e+00    0    7.13e-01
2002 11 26  2105    52604   75900      0    1.31e+00    0    7.17e-01
2002 11 26  2110    52604   76200      0    1.38e+00    0    7.05e-01
2002 11 26  2115    52604   76500      0    1.42e+00    0    6.54e-01
2002 11 26  2120    52604   76800      0    1.52e+00    0    7.20e-01
2002 11 26  2125    52604   77100      0    1.45e+00    0    6.98e-01
2002 11 26  2130    52604   77400      0    1.49e+00    0    7.43e-01
2002 11 26  2135    52604   77700      0    1.43e+00    0    6.82e-01
2002 11 26  2140    52604   78000      0    1.47e+00    0    7.09e-01
2002 11 26  2145    52604   78300      0    1.45e+00    0    7.15e-01
2002 11 26  2150    52604   78600      0    1.33e+00    0    6.70e-01
2002 11 26  2155    52604   78900      0    1.48e+00    0    7.57e-01
2002 11 26  2200    52604   79200      0    1.39e+00    0    6.90e-01
2002 11 26  2205    52604   79500      0    1.30e+00    0    6.60e-01
2002 11 26  2210    52604   79800      0    1.31e+00    0    6.72e-01
2002 11 26  2215    52604   80100      0    1.35e+00    0    7.11e-01
2002 11 26  2220    52604   80400      0    1.27e+00    0    6.54e-01
2002 11 26  2225    52604   80700      0    1.34e+00    0    6.91e-01
2002 11 26  2230    52604   81000      0    1.31e+00    0    7.02e-01
2002 11 26  2235    52604   81300      0    1.21e+00    0    6.67e-01
2002 11 26  2240    52604   81600      0    1.30e+00    0    7.21e-01
2002 11 26  2245    52604   81900      0    1.25e+00    0    6.86e-01
2002 11 26  2250    52604   82200      0    1.20e+00    0    6.82e-01
2002 11 26  2255    52604   82500      0    1.20e+00    0    6.81e-01
2002 11 26  2300    52604   82800      0    1.18e+00    0    6.73e-01
2002 11 26  2305    52604   83100      0    1.15e+00    0    6.64e-01
2002 11 26  2310    52604   83400      0    1.17e+00    0    6.80e-01
2002 11 26  2315    52604   83700      0    1.17e+00    0    6.36e-01
2002 11 26  2320    52604   84000      0    1.23e+00    0    6.92e-01
2002 11 26  2325    52604   84300      0    1.18e+00    0    6.61e-01
2002 11 26  2330    52604   84600      0    1.19e+00    0    6.66e-01
2002 11 26  2335    52604   84900      0    1.16e+00    0    6.51e-01
2002 11 26  2340    52604   85200      0    1.18e+00    0    6.54e-01
2002 11 26  2345    52604   85500      0    1.21e+00    0    6.77e-01
2002 11 26  2350    52604   85800      0    1.34e+00    0    6.96e-01
2002 11 26  2355    52604   86100      0    1.33e+00    0    6.80e-01
