:Data_list: 20020825_ace_sis_5m.txt
:Created: 2002 Aug 26 0011 UT
# Prepared by the U.S. Dept. of Commerce, NOAA, Space Environment Center.
# Please send comments and suggestions to sec@sec.noaa.gov 
# 
# Units: proton flux p/cs2-sec-ster
# Status(S): 0 = nominal data, 1 to 8 = bad data record, 9 = no data
# Missing data values: -1.00e+05
# Source: ACE Satellite - Solar Isotope Spectrometer
#
# 5-minute averaged Real-time Integral Flux of High-energy Solar Protons
# 
#                 Modified Seconds
# UT Date   Time   Julian  of the      ---- Integral Proton Flux ----
# YR MO DA  HHMM     Day     Day       S    > 10 MeV    S    > 30 MeV
#--------------------------------------------------------------------
2002 08 25  0000    52511       0      0    1.04e+02    0    1.17e+01
2002 08 25  0005    52511     300      0    1.00e+02    0    1.21e+01
2002 08 25  0010    52511     600      0    9.98e+01    0    1.18e+01
2002 08 25  0015    52511     900      0    9.96e+01    0    1.21e+01
2002 08 25  0020    52511    1200      0    9.41e+01    0    1.08e+01
2002 08 25  0025    52511    1500      0    9.25e+01    0    1.08e+01
2002 08 25  0030    52511    1800      0    9.44e+01    0    1.13e+01
2002 08 25  0035    52511    2100      0    9.49e+01    0    1.15e+01
2002 08 25  0040    52511    2400      0    9.29e+01    0    1.06e+01
2002 08 25  0045    52511    2700      0    9.15e+01    0    1.05e+01
2002 08 25  0050    52511    3000      0    9.05e+01    0    1.10e+01
2002 08 25  0055    52511    3300      0    9.00e+01    0    1.08e+01
2002 08 25  0100    52511    3600      0    9.20e+01    0    1.10e+01
2002 08 25  0105    52511    3900      0    9.02e+01    0    9.83e+00
2002 08 25  0110    52511    4200      0    9.16e+01    0    1.07e+01
2002 08 25  0115    52511    4500      0    9.29e+01    0    1.07e+01
2002 08 25  0120    52511    4800      0    9.31e+01    0    1.05e+01
2002 08 25  0125    52511    5100      0    9.17e+01    0    1.01e+01
2002 08 25  0130    52511    5400      0    9.47e+01    0    1.08e+01
2002 08 25  0135    52511    5700      0    1.07e+02    0    1.15e+01
2002 08 25  0140    52511    6000      0    1.07e+02    0    1.09e+01
2002 08 25  0145    52511    6300      0    1.03e+02    0    1.04e+01
2002 08 25  0150    52511    6600      0    9.17e+01    0    1.07e+01
2002 08 25  0155    52511    6900      0    9.18e+01    0    1.05e+01
2002 08 25  0200    52511    7200      0    1.03e+02    0    1.05e+01
2002 08 25  0205    52511    7500      0    1.01e+02    0    1.05e+01
2002 08 25  0210    52511    7800      0    9.24e+01    0    9.99e+00
2002 08 25  0215    52511    8100      0    8.48e+01    0    9.99e+00
2002 08 25  0220    52511    8400      0    8.24e+01    0    1.00e+01
2002 08 25  0225    52511    8700      0    7.80e+01    0    8.91e+00
2002 08 25  0230    52511    9000      0    7.50e+01    0    9.14e+00
2002 08 25  0235    52511    9300      0    7.43e+01    0    8.81e+00
2002 08 25  0240    52511    9600      0    7.32e+01    0    8.80e+00
2002 08 25  0245    52511    9900      0    7.23e+01    0    8.52e+00
2002 08 25  0250    52511   10200      0    7.14e+01    0    8.79e+00
2002 08 25  0255    52511   10500      0    7.04e+01    0    8.51e+00
2002 08 25  0300    52511   10800      0    7.24e+01    0    8.54e+00
2002 08 25  0305    52511   11100      0    7.38e+01    0    8.92e+00
2002 08 25  0310    52511   11400      0    7.57e+01    0    8.75e+00
2002 08 25  0315    52511   11700      0    7.89e+01    0    8.54e+00
2002 08 25  0320    52511   12000      0    8.15e+01    0    8.78e+00
2002 08 25  0325    52511   12300      0    8.16e+01    0    8.92e+00
2002 08 25  0330    52511   12600      0    8.17e+01    0    8.36e+00
2002 08 25  0335    52511   12900      0    8.30e+01    0    8.75e+00
2002 08 25  0340    52511   13200      0    8.47e+01    0    8.48e+00
2002 08 25  0345    52511   13500      0    8.46e+01    0    8.95e+00
2002 08 25  0350    52511   13800      0    8.09e+01    0    8.44e+00
2002 08 25  0355    52511   14100      0    8.32e+01    0    8.25e+00
2002 08 25  0400    52511   14400      0    8.27e+01    0    8.60e+00
2002 08 25  0405    52511   14700      0    7.66e+01    0    8.11e+00
2002 08 25  0410    52511   15000      0    7.63e+01    0    7.99e+00
2002 08 25  0415    52511   15300      0    7.64e+01    0    7.95e+00
2002 08 25  0420    52511   15600      0    7.82e+01    0    7.97e+00
2002 08 25  0425    52511   15900      0    7.89e+01    0    7.57e+00
2002 08 25  0430    52511   16200      0    8.13e+01    0    8.10e+00
2002 08 25  0435    52511   16500      0    8.24e+01    0    7.81e+00
2002 08 25  0440    52511   16800      0    8.25e+01    0    8.13e+00
2002 08 25  0445    52511   17100      0    7.61e+01    0    7.25e+00
2002 08 25  0450    52511   17400      0    7.20e+01    0    8.04e+00
2002 08 25  0455    52511   17700      0    7.09e+01    0    7.46e+00
2002 08 25  0500    52511   18000      0    7.02e+01    0    7.42e+00
2002 08 25  0505    52511   18300      0    6.93e+01    0    7.59e+00
2002 08 25  0510    52511   18600      0    6.93e+01    0    7.15e+00
2002 08 25  0515    52511   18900      0    7.08e+01    0    7.68e+00
2002 08 25  0520    52511   19200      0    7.17e+01    0    8.10e+00
2002 08 25  0525    52511   19500      0    7.30e+01    0    7.42e+00
2002 08 25  0530    52511   19800      0    7.21e+01    0    7.90e+00
2002 08 25  0535    52511   20100      0    7.07e+01    0    7.67e+00
2002 08 25  0540    52511   20400      0    6.87e+01    0    6.92e+00
2002 08 25  0545    52511   20700      0    6.92e+01    0    7.05e+00
2002 08 25  0550    52511   21000      0    6.86e+01    0    6.93e+00
2002 08 25  0555    52511   21300      0    6.75e+01    0    6.82e+00
2002 08 25  0600    52511   21600      0    7.36e+01    0    7.12e+00
2002 08 25  0605    52511   21900      0    7.89e+01    0    7.33e+00
2002 08 25  0610    52511   22200      0    7.81e+01    0    6.75e+00
2002 08 25  0615    52511   22500      0    7.60e+01    0    7.11e+00
2002 08 25  0620    52511   22800      0    7.62e+01    0    6.95e+00
2002 08 25  0625    52511   23100      0    7.93e+01    0    7.44e+00
2002 08 25  0630    52511   23400      0    7.91e+01    0    7.45e+00
2002 08 25  0635    52511   23700      0    8.83e+01    0    7.53e+00
2002 08 25  0640    52511   24000      0    1.10e+02    0    7.43e+00
2002 08 25  0645    52511   24300      0    1.00e+02    0    7.44e+00
2002 08 25  0650    52511   24600      0    6.57e+01    0    6.83e+00
2002 08 25  0655    52511   24900      0    6.24e+01    0    6.19e+00
2002 08 25  0700    52511   25200      0    6.69e+01    0    6.54e+00
2002 08 25  0705    52511   25500      0    7.31e+01    0    6.62e+00
2002 08 25  0710    52511   25800      0    7.11e+01    0    6.49e+00
2002 08 25  0715    52511   26100      0    7.53e+01    0    6.38e+00
2002 08 25  0720    52511   26400      0    7.97e+01    0    6.64e+00
2002 08 25  0725    52511   26700      0    8.88e+01    0    6.70e+00
2002 08 25  0730    52511   27000      0    1.11e+02    0    6.52e+00
2002 08 25  0735    52511   27300      0    1.22e+02    0    8.01e+00
2002 08 25  0740    52511   27600      0    1.31e+02    0    7.53e+00
2002 08 25  0745    52511   27900      0    1.29e+02    0    7.65e+00
2002 08 25  0750    52511   28200      0    1.26e+02    0    7.16e+00
2002 08 25  0755    52511   28500      0    1.20e+02    0    7.06e+00
2002 08 25  0800    52511   28800      0    1.22e+02    0    7.82e+00
2002 08 25  0805    52511   29100      0    1.43e+02    0    7.58e+00
2002 08 25  0810    52511   29400      0    1.57e+02    0    7.68e+00
2002 08 25  0815    52511   29700      0    1.53e+02    0    7.23e+00
2002 08 25  0820    52511   30000      0    1.54e+02    0    8.18e+00
2002 08 25  0825    52511   30300      0    1.45e+02    0    7.08e+00
2002 08 25  0830    52511   30600      0    1.43e+02    0    7.39e+00
2002 08 25  0835    52511   30900      0    1.48e+02    0    7.33e+00
2002 08 25  0840    52511   31200      0    1.53e+02    0    7.28e+00
2002 08 25  0845    52511   31500      0    1.54e+02    0    7.38e+00
2002 08 25  0850    52511   31800      0    1.51e+02    0    7.69e+00
2002 08 25  0855    52511   32100      0    1.55e+02    0    7.29e+00
2002 08 25  0900    52511   32400      0    1.58e+02    0    7.26e+00
2002 08 25  0905    52511   32700      0    1.50e+02    0    6.96e+00
2002 08 25  0910    52511   33000      0    1.41e+02    0    7.38e+00
2002 08 25  0915    52511   33300      0    1.43e+02    0    7.01e+00
2002 08 25  0920    52511   33600      0    1.48e+02    0    6.70e+00
2002 08 25  0925    52511   33900      0    1.41e+02    0    7.08e+00
2002 08 25  0930    52511   34200      0    1.36e+02    0    6.95e+00
2002 08 25  0935    52511   34500      0    1.37e+02    0    6.87e+00
2002 08 25  0940    52511   34800      0    1.35e+02    0    6.74e+00
2002 08 25  0945    52511   35100      0    1.31e+02    0    6.23e+00
2002 08 25  0950    52511   35400      0    1.21e+02    0    6.24e+00
2002 08 25  0955    52511   35700      0    1.20e+02    0    6.16e+00
2002 08 25  1000    52511   36000      0    1.26e+02    0    6.89e+00
2002 08 25  1005    52511   36300      0    1.20e+02    0    6.16e+00
2002 08 25  1010    52511   36600      0    1.17e+02    0    5.50e+00
2002 08 25  1015    52511   36900      0    1.11e+02    0    6.00e+00
2002 08 25  1020    52511   37200      0    1.08e+02    0    5.40e+00
2002 08 25  1025    52511   37500      0    1.02e+02    0    5.33e+00
2002 08 25  1030    52511   37800      0    8.89e+01    0    5.23e+00
2002 08 25  1035    52511   38100      0    8.35e+01    0    5.42e+00
2002 08 25  1040    52511   38400      0    8.21e+01    0    5.63e+00
2002 08 25  1045    52511   38700      0    8.61e+01    0    5.10e+00
2002 08 25  1050    52511   39000      0    9.93e+01    0    5.48e+00
2002 08 25  1055    52511   39300      0    1.02e+02    0    5.53e+00
2002 08 25  1100    52511   39600      0    9.36e+01    0    4.70e+00
2002 08 25  1105    52511   39900      0    8.93e+01    0    5.06e+00
2002 08 25  1110    52511   40200      0    9.04e+01    0    5.78e+00
2002 08 25  1115    52511   40500      0    9.02e+01    0    5.56e+00
2002 08 25  1120    52511   40800      0    8.82e+01    0    5.14e+00
2002 08 25  1125    52511   41100      0    8.85e+01    0    4.95e+00
2002 08 25  1130    52511   41400      0    8.71e+01    0    5.10e+00
2002 08 25  1135    52511   41700      0    8.62e+01    0    5.17e+00
2002 08 25  1140    52511   42000      0    8.31e+01    0    5.24e+00
2002 08 25  1145    52511   42300      0    8.14e+01    0    4.87e+00
2002 08 25  1150    52511   42600      0    8.28e+01    0    4.82e+00
2002 08 25  1155    52511   42900      0    8.29e+01    0    5.50e+00
2002 08 25  1200    52511   43200      0    8.39e+01    0    5.30e+00
2002 08 25  1205    52511   43500      0    7.93e+01    0    4.70e+00
2002 08 25  1210    52511   43800      0    7.57e+01    0    5.05e+00
2002 08 25  1215    52511   44100      0    7.53e+01    0    3.87e+00
2002 08 25  1220    52511   44400      0    7.52e+01    0    5.36e+00
2002 08 25  1225    52511   44700      0    7.24e+01    0    4.34e+00
2002 08 25  1230    52511   45000      0    7.06e+01    0    4.54e+00
2002 08 25  1235    52511   45300      0    6.82e+01    0    4.21e+00
2002 08 25  1240    52511   45600      0    6.59e+01    0    3.87e+00
2002 08 25  1245    52511   45900      0    6.69e+01    0    4.47e+00
2002 08 25  1250    52511   46200      0    6.62e+01    0    4.32e+00
2002 08 25  1255    52511   46500      0    6.41e+01    0    4.30e+00
2002 08 25  1300    52511   46800      0    6.14e+01    0    4.12e+00
2002 08 25  1305    52511   47100      0    6.11e+01    0    4.07e+00
2002 08 25  1310    52511   47400      0    6.18e+01    0    4.41e+00
2002 08 25  1315    52511   47700      0    6.25e+01    0    3.76e+00
2002 08 25  1320    52511   48000      0    6.23e+01    0    3.92e+00
2002 08 25  1325    52511   48300      0    3.11e+01    0    2.46e+00
2002 08 25  1330    52511   48600      0    5.90e+01    0    4.10e+00
2002 08 25  1335    52511   48900      0    5.75e+01    0    3.83e+00
2002 08 25  1340    52511   49200      0    5.63e+01    0    3.65e+00
2002 08 25  1345    52511   49500      0    5.52e+01    0    4.04e+00
2002 08 25  1350    52511   49800      0    5.44e+01    0    4.04e+00
2002 08 25  1355    52511   50100      0    5.71e+01    0    3.90e+00
2002 08 25  1400    52511   50400      0    5.47e+01    0    3.97e+00
2002 08 25  1405    52511   50700      0    5.27e+01    0    3.60e+00
2002 08 25  1410    52511   51000      0    5.31e+01    0    4.01e+00
2002 08 25  1415    52511   51300      0    5.33e+01    0    3.78e+00
2002 08 25  1420    52511   51600      0    5.22e+01    0    3.62e+00
2002 08 25  1425    52511   51900      0    5.16e+01    0    3.44e+00
2002 08 25  1430    52511   52200      0    5.15e+01    0    3.62e+00
2002 08 25  1435    52511   52500      0    4.86e+01    0    3.60e+00
2002 08 25  1440    52511   52800      0    4.92e+01    0    3.87e+00
2002 08 25  1445    52511   53100      0    4.78e+01    0    3.72e+00
2002 08 25  1450    52511   53400      0    4.72e+01    0    3.55e+00
2002 08 25  1455    52511   53700      0    4.67e+01    0    3.05e+00
2002 08 25  1500    52511   54000      0    4.69e+01    0    3.32e+00
2002 08 25  1505    52511   54300      0    4.61e+01    0    3.45e+00
2002 08 25  1510    52511   54600      0    4.60e+01    0    3.72e+00
2002 08 25  1515    52511   54900      0    4.70e+01    0    3.56e+00
2002 08 25  1520    52511   55200      0    4.62e+01    0    3.50e+00
2002 08 25  1525    52511   55500      0    4.42e+01    0    3.46e+00
2002 08 25  1530    52511   55800      0    4.36e+01    0    3.54e+00
2002 08 25  1535    52511   56100      0    4.28e+01    0    3.44e+00
2002 08 25  1540    52511   56400      0    4.10e+01    0    3.58e+00
2002 08 25  1545    52511   56700      0    4.35e+01    0    3.83e+00
2002 08 25  1550    52511   57000      0    4.14e+01    0    3.37e+00
2002 08 25  1555    52511   57300      0    4.12e+01    0    3.45e+00
2002 08 25  1600    52511   57600      0    4.02e+01    0    2.98e+00
2002 08 25  1605    52511   57900      0    4.04e+01    0    3.26e+00
2002 08 25  1610    52511   58200      0    3.86e+01    0    3.08e+00
2002 08 25  1615    52511   58500      0    3.82e+01    0    3.22e+00
2002 08 25  1620    52511   58800      0    3.85e+01    0    3.09e+00
2002 08 25  1625    52511   59100      0    3.78e+01    0    3.51e+00
2002 08 25  1630    52511   59400      0    3.76e+01    0    2.76e+00
2002 08 25  1635    52511   59700      0    3.81e+01    0    3.08e+00
2002 08 25  1640    52511   60000      0    3.82e+01    0    3.04e+00
2002 08 25  1645    52511   60300      0    3.79e+01    0    3.39e+00
2002 08 25  1650    52511   60600      0    3.65e+01    0    2.98e+00
2002 08 25  1655    52511   60900      0    3.56e+01    0    2.95e+00
2002 08 25  1700    52511   61200      0    3.53e+01    0    3.15e+00
2002 08 25  1705    52511   61500      0    3.37e+01    0    2.95e+00
2002 08 25  1710    52511   61800      0    3.41e+01    0    3.14e+00
2002 08 25  1715    52511   62100      0    3.33e+01    0    3.00e+00
2002 08 25  1720    52511   62400      0    3.17e+01    0    2.88e+00
2002 08 25  1725    52511   62700      0    3.25e+01    0    2.82e+00
2002 08 25  1730    52511   63000      0    3.29e+01    0    3.02e+00
2002 08 25  1735    52511   63300      0    3.16e+01    0    2.85e+00
2002 08 25  1740    52511   63600      0    3.16e+01    0    2.82e+00
2002 08 25  1745    52511   63900      0    2.92e+01    0    2.82e+00
2002 08 25  1750    52511   64200      0    2.59e+01    0    2.77e+00
2002 08 25  1755    52511   64500      0    2.49e+01    0    2.69e+00
2002 08 25  1800    52511   64800      0    2.59e+01    0    2.87e+00
2002 08 25  1805    52511   65100      0    2.58e+01    0    2.81e+00
2002 08 25  1810    52511   65400      0    2.49e+01    0    2.73e+00
2002 08 25  1815    52511   65700      0    2.59e+01    0    2.82e+00
2002 08 25  1820    52511   66000      0    2.61e+01    0    2.68e+00
2002 08 25  1825    52511   66300      0    2.64e+01    0    2.73e+00
2002 08 25  1830    52511   66600      0    2.52e+01    0    2.74e+00
2002 08 25  1835    52511   66900      0    2.30e+01    0    2.49e+00
2002 08 25  1840    52511   67200      0    2.27e+01    0    2.43e+00
2002 08 25  1845    52511   67500      0    2.26e+01    0    2.57e+00
2002 08 25  1850    52511   67800      0    2.18e+01    0    2.43e+00
2002 08 25  1855    52511   68100      0    2.14e+01    0    2.64e+00
2002 08 25  1900    52511   68400      0    2.09e+01    0    2.44e+00
2002 08 25  1905    52511   68700      0    2.08e+01    0    2.57e+00
2002 08 25  1910    52511   69000      0    2.08e+01    0    2.61e+00
2002 08 25  1915    52511   69300      0    2.02e+01    0    2.50e+00
2002 08 25  1920    52511   69600      0    2.02e+01    0    2.38e+00
2002 08 25  1925    52511   69900      0    2.00e+01    0    2.31e+00
2002 08 25  1930    52511   70200      0    2.06e+01    0    2.23e+00
2002 08 25  1935    52511   70500      0    2.25e+01    0    2.40e+00
2002 08 25  1940    52511   70800      0    2.28e+01    0    2.48e+00
2002 08 25  1945    52511   71100      0    2.27e+01    0    2.32e+00
2002 08 25  1950    52511   71400      0    2.25e+01    0    2.51e+00
2002 08 25  1955    52511   71700      0    2.25e+01    0    2.25e+00
2002 08 25  2000    52511   72000      0    2.36e+01    0    2.44e+00
2002 08 25  2005    52511   72300      0    2.23e+01    0    2.31e+00
2002 08 25  2010    52511   72600      0    2.19e+01    0    2.30e+00
2002 08 25  2015    52511   72900      0    2.18e+01    0    2.27e+00
2002 08 25  2020    52511   73200      0    2.11e+01    0    2.33e+00
2002 08 25  2025    52511   73500      0    2.12e+01    0    2.36e+00
2002 08 25  2030    52511   73800      0    2.19e+01    0    2.26e+00
2002 08 25  2035    52511   74100      0    2.12e+01    0    2.30e+00
2002 08 25  2040    52511   74400      0    2.12e+01    0    2.14e+00
2002 08 25  2045    52511   74700      0    2.15e+01    0    2.32e+00
2002 08 25  2050    52511   75000      0    2.08e+01    0    2.35e+00
2002 08 25  2055    52511   75300      0    2.11e+01    0    2.24e+00
2002 08 25  2100    52511   75600      0    1.97e+01    0    2.29e+00
2002 08 25  2105    52511   75900      0    1.83e+01    0    2.12e+00
2002 08 25  2110    52511   76200      0    1.78e+01    0    2.24e+00
2002 08 25  2115    52511   76500      0    1.74e+01    0    2.21e+00
2002 08 25  2120    52511   76800      0    1.72e+01    0    2.09e+00
2002 08 25  2125    52511   77100      0    1.76e+01    0    2.06e+00
2002 08 25  2130    52511   77400      0    1.80e+01    0    2.10e+00
2002 08 25  2135    52511   77700      0    1.80e+01    0    2.11e+00
2002 08 25  2140    52511   78000      0    1.77e+01    0    2.26e+00
2002 08 25  2145    52511   78300      0    1.82e+01    0    2.30e+00
2002 08 25  2150    52511   78600      0    1.84e+01    0    2.05e+00
2002 08 25  2155    52511   78900      0    1.86e+01    0    2.19e+00
2002 08 25  2200    52511   79200      0    1.78e+01    0    2.14e+00
2002 08 25  2205    52511   79500      0    1.81e+01    0    2.08e+00
2002 08 25  2210    52511   79800      0    1.79e+01    0    2.20e+00
2002 08 25  2215    52511   80100      0    1.71e+01    0    2.13e+00
2002 08 25  2220    52511   80400      0    1.71e+01    0    2.16e+00
2002 08 25  2225    52511   80700      0    1.72e+01    0    2.16e+00
2002 08 25  2230    52511   81000      0    1.76e+01    0    2.19e+00
2002 08 25  2235    52511   81300      0    1.67e+01    0    2.08e+00
2002 08 25  2240    52511   81600      0    1.70e+01    0    2.06e+00
2002 08 25  2245    52511   81900      0    1.66e+01    0    2.15e+00
2002 08 25  2250    52511   82200      0    1.61e+01    0    2.05e+00
2002 08 25  2255    52511   82500      0    1.62e+01    0    2.13e+00
2002 08 25  2300    52511   82800      0    1.62e+01    0    1.82e+00
2002 08 25  2305    52511   83100      0    1.72e+01    0    2.15e+00
2002 08 25  2310    52511   83400      0    1.71e+01    0    2.23e+00
2002 08 25  2315    52511   83700      0    1.69e+01    0    2.08e+00
2002 08 25  2320    52511   84000      0    1.70e+01    0    2.05e+00
2002 08 25  2325    52511   84300      0    1.71e+01    0    2.04e+00
2002 08 25  2330    52511   84600      0    1.77e+01    0    1.96e+00
2002 08 25  2335    52511   84900      0    1.74e+01    0    1.90e+00
2002 08 25  2340    52511   85200      0    1.73e+01    0    2.12e+00
2002 08 25  2345    52511   85500      0    1.71e+01    0    2.09e+00
2002 08 25  2350    52511   85800      0    1.72e+01    0    1.99e+00
2002 08 25  2355    52511   86100      0    1.82e+01    0    2.10e+00
