:Data_list: 20021104_ace_sis_5m.txt
:Created: 2002 Nov 05 0011 UT
# Prepared by the U.S. Dept. of Commerce, NOAA, Space Environment Center.
# Please send comments and suggestions to sec@sec.noaa.gov 
# 
# Units: proton flux p/cs2-sec-ster
# Status(S): 0 = nominal data, 1 to 8 = bad data record, 9 = no data
# Missing data values: -1.00e+05
# Source: ACE Satellite - Solar Isotope Spectrometer
#
# 5-minute averaged Real-time Integral Flux of High-energy Solar Protons
# 
#                 Modified Seconds
# UT Date   Time   Julian  of the      ---- Integral Proton Flux ----
# YR MO DA  HHMM     Day     Day       S    > 10 MeV    S    > 30 MeV
#--------------------------------------------------------------------
2002 11 04  0000    52582       0      0    1.20e+00    0    6.60e-01
2002 11 04  0005    52582     300      0    1.17e+00    0    6.38e-01
2002 11 04  0010    52582     600      0    1.17e+00    0    6.39e-01
2002 11 04  0015    52582     900      0    1.19e+00    0    6.34e-01
2002 11 04  0020    52582    1200      0    1.18e+00    0    6.31e-01
2002 11 04  0025    52582    1500      0    1.20e+00    0    6.49e-01
2002 11 04  0030    52582    1800      0    1.19e+00    0    6.43e-01
2002 11 04  0035    52582    2100      0    1.20e+00    0    6.53e-01
2002 11 04  0040    52582    2400      0    1.15e+00    0    6.16e-01
2002 11 04  0045    52582    2700      0    1.20e+00    0    6.57e-01
2002 11 04  0050    52582    3000      0    1.18e+00    0    6.37e-01
2002 11 04  0055    52582    3300      0    1.18e+00    0    6.44e-01
2002 11 04  0100    52582    3600      0    1.19e+00    0    6.38e-01
2002 11 04  0105    52582    3900      0    1.18e+00    0    6.33e-01
2002 11 04  0110    52582    4200      0    1.19e+00    0    6.46e-01
2002 11 04  0115    52582    4500      0    1.19e+00    0    6.47e-01
2002 11 04  0120    52582    4800      0    1.16e+00    0    6.31e-01
2002 11 04  0125    52582    5100      0    1.17e+00    0    6.39e-01
2002 11 04  0130    52582    5400      0    1.19e+00    0    6.48e-01
2002 11 04  0135    52582    5700      0    1.18e+00    0    6.36e-01
2002 11 04  0140    52582    6000      0    1.20e+00    0    6.74e-01
2002 11 04  0145    52582    6300      0    1.18e+00    0    6.42e-01
2002 11 04  0150    52582    6600      0    1.15e+00    0    6.14e-01
2002 11 04  0155    52582    6900      0    1.18e+00    0    6.48e-01
2002 11 04  0200    52582    7200      0    1.16e+00    0    6.39e-01
2002 11 04  0205    52582    7500      0    1.21e+00    0    6.57e-01
2002 11 04  0210    52582    7800      0    1.17e+00    0    6.41e-01
2002 11 04  0215    52582    8100      0    1.17e+00    0    6.35e-01
2002 11 04  0220    52582    8400      0    1.16e+00    0    6.39e-01
2002 11 04  0225    52582    8700      0    1.16e+00    0    6.40e-01
2002 11 04  0230    52582    9000      0    1.18e+00    0    6.36e-01
2002 11 04  0235    52582    9300      0    1.17e+00    0    6.38e-01
2002 11 04  0240    52582    9600      0    1.20e+00    0    6.52e-01
2002 11 04  0245    52582    9900      0    1.18e+00    0    6.39e-01
2002 11 04  0250    52582   10200      0    1.16e+00    0    6.33e-01
2002 11 04  0255    52582   10500      0    1.15e+00    0    6.16e-01
2002 11 04  0300    52582   10800      0    1.16e+00    0    6.13e-01
2002 11 04  0305    52582   11100      0    1.15e+00    0    6.13e-01
2002 11 04  0310    52582   11400      0    1.16e+00    0    6.29e-01
2002 11 04  0315    52582   11700      0    1.17e+00    0    6.30e-01
2002 11 04  0320    52582   12000      0    1.16e+00    0    6.35e-01
2002 11 04  0325    52582   12300      0    1.16e+00    0    6.32e-01
2002 11 04  0330    52582   12600      0    1.15e+00    0    6.24e-01
2002 11 04  0335    52582   12900      0    1.14e+00    0    6.22e-01
2002 11 04  0340    52582   13200      0    1.16e+00    0    6.43e-01
2002 11 04  0345    52582   13500      0    1.17e+00    0    6.34e-01
2002 11 04  0350    52582   13800      0    1.14e+00    0    6.38e-01
2002 11 04  0355    52582   14100      0    1.17e+00    0    6.47e-01
2002 11 04  0400    52582   14400      0    1.12e+00    0    6.28e-01
2002 11 04  0405    52582   14700      0    1.16e+00    0    6.47e-01
2002 11 04  0410    52582   15000      0    1.14e+00    0    6.18e-01
2002 11 04  0415    52582   15300      0    1.19e+00    0    6.61e-01
2002 11 04  0420    52582   15600      0    1.15e+00    0    6.29e-01
2002 11 04  0425    52582   15900      0    1.13e+00    0    6.19e-01
2002 11 04  0430    52582   16200      0    1.14e+00    0    6.24e-01
2002 11 04  0435    52582   16500      0    1.15e+00    0    6.38e-01
2002 11 04  0440    52582   16800      0    1.11e+00    0    6.18e-01
2002 11 04  0445    52582   17100      0    1.12e+00    0    6.24e-01
2002 11 04  0450    52582   17400      0    1.14e+00    0    6.33e-01
2002 11 04  0455    52582   17700      0    1.15e+00    0    6.44e-01
2002 11 04  0500    52582   18000      0    1.13e+00    0    6.33e-01
2002 11 04  0505    52582   18300      0    1.15e+00    0    6.40e-01
2002 11 04  0510    52582   18600      0    1.14e+00    0    6.23e-01
2002 11 04  0515    52582   18900      0    1.15e+00    0    6.29e-01
2002 11 04  0520    52582   19200      0    1.16e+00    0    6.49e-01
2002 11 04  0525    52582   19500      0    1.13e+00    0    6.27e-01
2002 11 04  0530    52582   19800      0    1.17e+00    0    6.53e-01
2002 11 04  0535    52582   20100      0    1.15e+00    0    6.44e-01
2002 11 04  0540    52582   20400      0    1.15e+00    0    6.38e-01
2002 11 04  0545    52582   20700      0    1.12e+00    0    6.33e-01
2002 11 04  0550    52582   21000      0    1.10e+00    0    6.03e-01
2002 11 04  0555    52582   21300      0    1.14e+00    0    6.39e-01
2002 11 04  0600    52582   21600      0    1.14e+00    0    6.39e-01
2002 11 04  0605    52582   21900      0    1.12e+00    0    6.27e-01
2002 11 04  0610    52582   22200      0    1.15e+00    0    6.46e-01
2002 11 04  0615    52582   22500      0    1.15e+00    0    6.39e-01
2002 11 04  0620    52582   22800      0    1.12e+00    0    6.26e-01
2002 11 04  0625    52582   23100      0    1.13e+00    0    6.31e-01
2002 11 04  0630    52582   23400      0    1.13e+00    0    6.27e-01
2002 11 04  0635    52582   23700      0    1.13e+00    0    6.38e-01
2002 11 04  0640    52582   24000      0    1.15e+00    0    6.44e-01
2002 11 04  0645    52582   24300      0    1.12e+00    0    6.44e-01
2002 11 04  0650    52582   24600      0    1.10e+00    0    6.20e-01
2002 11 04  0655    52582   24900      0    1.11e+00    0    6.11e-01
2002 11 04  0700    52582   25200      0    1.10e+00    0    6.21e-01
2002 11 04  0705    52582   25500      0    1.12e+00    0    6.29e-01
2002 11 04  0710    52582   25800      0    1.14e+00    0    6.50e-01
2002 11 04  0715    52582   26100      0    1.12e+00    0    6.39e-01
2002 11 04  0720    52582   26400      0    1.14e+00    0    6.33e-01
2002 11 04  0725    52582   26700      0    1.13e+00    0    6.36e-01
2002 11 04  0730    52582   27000      0    1.11e+00    0    6.23e-01
2002 11 04  0735    52582   27300      0    1.10e+00    0    6.03e-01
2002 11 04  0740    52582   27600      0    1.09e+00    0    6.18e-01
2002 11 04  0745    52582   27900      0    1.12e+00    0    6.22e-01
2002 11 04  0750    52582   28200      0    1.10e+00    0    6.11e-01
2002 11 04  0755    52582   28500      0    1.12e+00    0    6.29e-01
2002 11 04  0800    52582   28800      0    1.12e+00    0    6.26e-01
2002 11 04  0805    52582   29100      0    1.12e+00    0    6.28e-01
2002 11 04  0810    52582   29400      0    1.11e+00    0    6.19e-01
2002 11 04  0815    52582   29700      0    1.12e+00    0    6.27e-01
2002 11 04  0820    52582   30000      0    1.12e+00    0    6.22e-01
2002 11 04  0825    52582   30300      0    1.14e+00    0    6.49e-01
2002 11 04  0830    52582   30600      0    1.09e+00    0    6.13e-01
2002 11 04  0835    52582   30900      0    1.09e+00    0    6.11e-01
2002 11 04  0840    52582   31200      0    1.13e+00    0    6.38e-01
2002 11 04  0845    52582   31500      0    1.08e+00    0    6.07e-01
2002 11 04  0850    52582   31800      0    1.08e+00    0    6.07e-01
2002 11 04  0855    52582   32100      0    1.11e+00    0    6.22e-01
2002 11 04  0900    52582   32400      0    1.09e+00    0    6.10e-01
2002 11 04  0905    52582   32700      0    1.08e+00    0    6.06e-01
2002 11 04  0910    52582   33000      0    1.08e+00    0    6.00e-01
2002 11 04  0915    52582   33300      0    1.13e+00    0    6.40e-01
2002 11 04  0920    52582   33600      0    1.11e+00    0    6.25e-01
2002 11 04  0925    52582   33900      0    1.06e+00    0    6.06e-01
2002 11 04  0930    52582   34200      0    1.07e+00    0    6.12e-01
2002 11 04  0935    52582   34500      0    1.08e+00    0    6.11e-01
2002 11 04  0940    52582   34800      0    1.08e+00    0    6.16e-01
2002 11 04  0945    52582   35100      0    1.09e+00    0    6.16e-01
2002 11 04  0950    52582   35400      0    1.09e+00    0    6.23e-01
2002 11 04  0955    52582   35700      0    1.10e+00    0    6.12e-01
2002 11 04  1000    52582   36000      0    1.09e+00    0    6.23e-01
2002 11 04  1005    52582   36300      0    1.01e+00    0    5.65e-01
2002 11 04  1010    52582   36600      0    1.08e+00    0    6.10e-01
2002 11 04  1015    52582   36900      0    1.08e+00    0    6.18e-01
2002 11 04  1020    52582   37200      0    1.08e+00    0    6.23e-01
2002 11 04  1025    52582   37500      0    1.07e+00    0    6.06e-01
2002 11 04  1030    52582   37800      0    1.08e+00    0    6.20e-01
2002 11 04  1035    52582   38100      0    1.08e+00    0    6.19e-01
2002 11 04  1040    52582   38400      0    1.09e+00    0    6.18e-01
2002 11 04  1045    52582   38700      0    1.10e+00    0    6.17e-01
2002 11 04  1050    52582   39000      0    1.08e+00    0    6.14e-01
2002 11 04  1055    52582   39300      0    1.11e+00    0    6.23e-01
2002 11 04  1100    52582   39600      0    1.11e+00    0    6.30e-01
2002 11 04  1105    52582   39900      0    1.11e+00    0    6.38e-01
2002 11 04  1110    52582   40200      0    1.09e+00    0    6.14e-01
2002 11 04  1115    52582   40500      0    1.12e+00    0    6.22e-01
2002 11 04  1120    52582   40800      0    1.11e+00    0    6.35e-01
2002 11 04  1125    52582   41100      0    1.09e+00    0    6.38e-01
2002 11 04  1130    52582   41400      0    1.10e+00    0    6.29e-01
2002 11 04  1135    52582   41700      0    1.10e+00    0    6.32e-01
2002 11 04  1140    52582   42000      0    1.10e+00    0    6.24e-01
2002 11 04  1145    52582   42300      0    1.13e+00    0    6.39e-01
2002 11 04  1150    52582   42600      0    1.08e+00    0    6.11e-01
2002 11 04  1155    52582   42900      0    1.12e+00    0    6.44e-01
2002 11 04  1200    52582   43200      0    1.09e+00    0    6.24e-01
2002 11 04  1205    52582   43500      0    1.09e+00    0    6.14e-01
2002 11 04  1210    52582   43800      0    1.11e+00    0    6.35e-01
2002 11 04  1215    52582   44100      0    1.08e+00    0    6.21e-01
2002 11 04  1220    52582   44400      0    1.07e+00    0    6.16e-01
2002 11 04  1225    52582   44700      0    1.08e+00    0    6.15e-01
2002 11 04  1230    52582   45000      0    1.09e+00    0    6.30e-01
2002 11 04  1235    52582   45300      0    1.06e+00    0    6.00e-01
2002 11 04  1240    52582   45600      0    1.07e+00    0    6.16e-01
2002 11 04  1245    52582   45900      0    1.11e+00    0    6.48e-01
2002 11 04  1250    52582   46200      0    1.08e+00    0    6.23e-01
2002 11 04  1255    52582   46500      0    1.07e+00    0    6.14e-01
2002 11 04  1300    52582   46800      0    1.09e+00    0    6.13e-01
2002 11 04  1305    52582   47100      0    1.08e+00    0    6.23e-01
2002 11 04  1310    52582   47400      0    1.09e+00    0    6.36e-01
2002 11 04  1315    52582   47700      0    1.08e+00    0    6.27e-01
2002 11 04  1320    52582   48000      0    1.09e+00    0    6.30e-01
2002 11 04  1325    52582   48300      0    1.04e+00    0    6.03e-01
2002 11 04  1330    52582   48600      0    1.05e+00    0    6.07e-01
2002 11 04  1335    52582   48900      0    1.08e+00    0    6.31e-01
2002 11 04  1340    52582   49200      0    1.08e+00    0    6.31e-01
2002 11 04  1345    52582   49500      0    1.07e+00    0    6.06e-01
2002 11 04  1350    52582   49800      0    1.09e+00    0    6.19e-01
2002 11 04  1355    52582   50100      0    1.12e+00    0    6.50e-01
2002 11 04  1400    52582   50400      0    1.07e+00    0    6.17e-01
2002 11 04  1405    52582   50700      0    1.10e+00    0    6.44e-01
2002 11 04  1410    52582   51000      0    1.10e+00    0    6.37e-01
2002 11 04  1415    52582   51300      0    1.06e+00    0    6.08e-01
2002 11 04  1420    52582   51600      0    1.06e+00    0    6.16e-01
2002 11 04  1425    52582   51900      0    1.07e+00    0    6.14e-01
2002 11 04  1430    52582   52200      0    1.06e+00    0    6.16e-01
2002 11 04  1435    52582   52500      0    1.06e+00    0    6.08e-01
2002 11 04  1440    52582   52800      0    1.05e+00    0    6.01e-01
2002 11 04  1445    52582   53100      0    1.06e+00    0    6.12e-01
2002 11 04  1450    52582   53400      0    1.07e+00    0    6.08e-01
2002 11 04  1455    52582   53700      0    1.06e+00    0    6.15e-01
2002 11 04  1500    52582   54000      0    1.08e+00    0    6.27e-01
2002 11 04  1505    52582   54300      0    1.05e+00    0    6.11e-01
2002 11 04  1510    52582   54600      0    1.06e+00    0    6.08e-01
2002 11 04  1515    52582   54900      0    1.06e+00    0    6.16e-01
2002 11 04  1520    52582   55200      0    1.01e+00    0    5.84e-01
2002 11 04  1525    52582   55500      0    1.07e+00    0    6.21e-01
2002 11 04  1530    52582   55800      0    1.05e+00    0    6.04e-01
2002 11 04  1535    52582   56100      0    1.05e+00    0    6.16e-01
2002 11 04  1540    52582   56400      0    1.04e+00    0    6.13e-01
2002 11 04  1545    52582   56700      0    1.06e+00    0    6.20e-01
2002 11 04  1550    52582   57000      0    1.04e+00    0    6.03e-01
2002 11 04  1555    52582   57300      0    1.05e+00    0    6.08e-01
2002 11 04  1600    52582   57600      0    1.03e+00    0    6.00e-01
2002 11 04  1605    52582   57900      0    1.05e+00    0    6.14e-01
2002 11 04  1610    52582   58200      0    1.08e+00    0    6.29e-01
2002 11 04  1615    52582   58500      0    1.04e+00    0    5.96e-01
2002 11 04  1620    52582   58800      9   -1.00e+05    9   -1.00e+05
2002 11 04  1625    52582   59100      0    1.07e+00    0    6.18e-01
2002 11 04  1630    52582   59400      0    1.03e+00    0    5.89e-01
2002 11 04  1635    52582   59700      0    1.05e+00    0    6.06e-01
2002 11 04  1640    52582   60000      0    1.03e+00    0    6.05e-01
2002 11 04  1645    52582   60300      0    1.03e+00    0    6.09e-01
2002 11 04  1650    52582   60600      0    1.04e+00    0    6.04e-01
2002 11 04  1655    52582   60900      0    1.04e+00    0    6.02e-01
2002 11 04  1700    52582   61200      0    1.06e+00    0    6.21e-01
2002 11 04  1705    52582   61500      0    1.07e+00    0    6.17e-01
2002 11 04  1710    52582   61800      0    1.01e+00    0    5.87e-01
2002 11 04  1715    52582   62100      0    1.02e+00    0    5.97e-01
2002 11 04  1720    52582   62400      0    1.04e+00    0    5.98e-01
2002 11 04  1725    52582   62700      0    1.05e+00    0    6.20e-01
2002 11 04  1730    52582   63000      0    1.04e+00    0    5.94e-01
2002 11 04  1735    52582   63300      0    1.04e+00    0    6.13e-01
2002 11 04  1740    52582   63600      0    1.05e+00    0    6.10e-01
2002 11 04  1745    52582   63900      0    1.06e+00    0    6.22e-01
2002 11 04  1750    52582   64200      0    1.04e+00    0    6.04e-01
2002 11 04  1755    52582   64500      0    1.06e+00    0    6.24e-01
2002 11 04  1800    52582   64800      0    1.06e+00    0    6.25e-01
2002 11 04  1805    52582   65100      0    1.06e+00    0    6.23e-01
2002 11 04  1810    52582   65400      0    1.07e+00    0    6.18e-01
2002 11 04  1815    52582   65700      0    1.06e+00    0    6.15e-01
2002 11 04  1820    52582   66000      0    1.04e+00    0    6.01e-01
2002 11 04  1825    52582   66300      0    1.05e+00    0    6.06e-01
2002 11 04  1830    52582   66600      0    1.05e+00    0    6.21e-01
2002 11 04  1835    52582   66900      0    1.05e+00    0    6.19e-01
2002 11 04  1840    52582   67200      0    1.06e+00    0    1.09e+00
2002 11 04  1845    52582   67500      0    1.05e+00    0    6.06e-01
2002 11 04  1850    52582   67800      0    1.06e+00    0    6.21e-01
2002 11 04  1855    52582   68100      0    1.02e+00    0    6.00e-01
2002 11 04  1900    52582   68400      0    1.06e+00    0    6.39e-01
2002 11 04  1905    52582   68700      0    1.02e+00    0    6.00e-01
2002 11 04  1910    52582   69000      0    1.03e+00    0    6.00e-01
2002 11 04  1915    52582   69300      0    1.03e+00    0    6.14e-01
2002 11 04  1920    52582   69600      0    1.00e+00    0    5.91e-01
2002 11 04  1925    52582   69900      0    1.04e+00    0    6.20e-01
2002 11 04  1930    52582   70200      0    1.02e+00    0    5.99e-01
2002 11 04  1935    52582   70500      0    9.96e-01    0    5.78e-01
2002 11 04  1940    52582   70800      0    1.01e+00    0    6.06e-01
2002 11 04  1945    52582   71100      0    1.01e+00    0    6.04e-01
2002 11 04  1950    52582   71400      0    1.02e+00    0    6.01e-01
2002 11 04  1955    52582   71700      0    1.02e+00    0    6.07e-01
2002 11 04  2000    52582   72000      0    1.04e+00    0    6.17e-01
2002 11 04  2005    52582   72300      0    1.03e+00    0    6.07e-01
2002 11 04  2010    52582   72600      0    1.02e+00    0    6.00e-01
2002 11 04  2015    52582   72900      0    1.03e+00    0    6.23e-01
2002 11 04  2020    52582   73200      0    1.03e+00    0    6.14e-01
2002 11 04  2025    52582   73500      0    1.00e+00    0    6.03e-01
2002 11 04  2030    52582   73800      0    9.79e-01    0    5.74e-01
2002 11 04  2035    52582   74100      0    1.03e+00    0    6.07e-01
2002 11 04  2040    52582   74400      0    9.84e-01    0    5.88e-01
2002 11 04  2045    52582   74700      0    1.00e+00    0    5.99e-01
2002 11 04  2050    52582   75000      0    9.99e-01    0    5.88e-01
2002 11 04  2055    52582   75300      0    9.92e-01    0    5.83e-01
2002 11 04  2100    52582   75600      0    1.00e+00    0    5.94e-01
2002 11 04  2105    52582   75900      0    1.02e+00    0    6.07e-01
2002 11 04  2110    52582   76200      0    9.93e-01    0    5.83e-01
2002 11 04  2115    52582   76500      0    1.02e+00    0    6.08e-01
2002 11 04  2120    52582   76800      0    1.00e+00    0    5.88e-01
2002 11 04  2125    52582   77100      0    1.02e+00    0    6.16e-01
2002 11 04  2130    52582   77400      0    1.02e+00    0    5.98e-01
2002 11 04  2135    52582   77700      0    9.98e-01    0    5.86e-01
2002 11 04  2140    52582   78000      0    1.01e+00    0    5.93e-01
2002 11 04  2145    52582   78300      0    1.03e+00    0    6.05e-01
2002 11 04  2150    52582   78600      0    1.03e+00    0    6.07e-01
2002 11 04  2155    52582   78900      0    1.02e+00    0    6.08e-01
2002 11 04  2200    52582   79200      0    9.91e-01    0    5.92e-01
2002 11 04  2205    52582   79500      0    9.81e-01    0    5.92e-01
2002 11 04  2210    52582   79800      0    1.02e+00    0    6.16e-01
2002 11 04  2215    52582   80100      0    1.01e+00    0    5.96e-01
2002 11 04  2220    52582   80400      0    9.89e-01    0    5.88e-01
2002 11 04  2225    52582   80700      0    9.88e-01    0    5.91e-01
2002 11 04  2230    52582   81000      0    9.78e-01    0    5.90e-01
2002 11 04  2235    52582   81300      0    9.98e-01    0    6.01e-01
2002 11 04  2240    52582   81600      0    1.01e+00    0    6.04e-01
2002 11 04  2245    52582   81900      0    1.00e+00    0    5.99e-01
2002 11 04  2250    52582   82200      0    1.02e+00    0    6.14e-01
2002 11 04  2255    52582   82500      0    9.98e-01    0    6.01e-01
2002 11 04  2300    52582   82800      0    9.62e-01    0    5.72e-01
2002 11 04  2305    52582   83100      0    1.00e+00    0    6.13e-01
2002 11 04  2310    52582   83400      0    9.73e-01    0    5.89e-01
2002 11 04  2315    52582   83700      0    9.74e-01    0    5.90e-01
2002 11 04  2320    52582   84000      0    1.01e+00    0    6.11e-01
2002 11 04  2325    52582   84300      0    9.64e-01    0    5.74e-01
2002 11 04  2330    52582   84600      0    9.72e-01    0    5.76e-01
2002 11 04  2335    52582   84900      0    9.87e-01    0    5.93e-01
2002 11 04  2340    52582   85200      0    9.77e-01    0    5.82e-01
2002 11 04  2345    52582   85500      0    9.93e-01    0    6.01e-01
2002 11 04  2350    52582   85800      0    9.98e-01    0    5.97e-01
2002 11 04  2355    52582   86100      0    9.91e-01    0    5.92e-01
