:Data_list: 20020425_ace_sis_5m.txt
:Created: 2002 Apr 26 0011 UT
# Prepared by the U.S. Dept. of Commerce, NOAA, Space Environment Center.
# Please send comments and suggestions to sec@sec.noaa.gov 
# 
# Units: proton flux p/cs2-sec-ster
# Status(S): 0 = nominal data, 1 to 8 = bad data record, 9 = no data
# Missing data values: -1.00e+05
# Source: ACE Satellite - Solar Isotope Spectrometer
#
# 5-minute averaged Real-time Integral Flux of High-energy Solar Protons
# 
#                 Modified Seconds
# UT Date   Time   Julian  of the      ---- Integral Proton Flux ----
# YR MO DA  HHMM     Day     Day       S    > 10 MeV    S    > 30 MeV
#--------------------------------------------------------------------
2002 04 25  0000    52389       0      0    2.10e+01    0    4.29e+00
2002 04 25  0005    52389     300      0    2.08e+01    0    4.26e+00
2002 04 25  0010    52389     600      0    2.11e+01    0    4.33e+00
2002 04 25  0015    52389     900      0    2.11e+01    0    4.33e+00
2002 04 25  0020    52389    1200      0    2.10e+01    0    4.29e+00
2002 04 25  0025    52389    1500      0    2.06e+01    0    4.32e+00
2002 04 25  0030    52389    1800      0    2.05e+01    0    4.16e+00
2002 04 25  0035    52389    2100      0    2.04e+01    0    4.17e+00
2002 04 25  0040    52389    2400      0    2.05e+01    0    4.22e+00
2002 04 25  0045    52389    2700      0    2.00e+01    0    4.14e+00
2002 04 25  0050    52389    3000      0    1.87e+01    0    3.98e+00
2002 04 25  0055    52389    3300      0    1.77e+01    0    3.87e+00
2002 04 25  0100    52389    3600      0    1.75e+01    0    3.80e+00
2002 04 25  0105    52389    3900      0    1.73e+01    0    3.83e+00
2002 04 25  0110    52389    4200      0    1.79e+01    0    3.77e+00
2002 04 25  0115    52389    4500      0    1.69e+01    0    3.74e+00
2002 04 25  0120    52389    4800      0    1.70e+01    0    3.78e+00
2002 04 25  0125    52389    5100      0    1.69e+01    0    3.65e+00
2002 04 25  0130    52389    5400      0    1.73e+01    0    3.70e+00
2002 04 25  0135    52389    5700      0    1.74e+01    0    3.68e+00
2002 04 25  0140    52389    6000      0    1.71e+01    0    3.77e+00
2002 04 25  0145    52389    6300      0    1.74e+01    0    3.72e+00
2002 04 25  0150    52389    6600      0    1.80e+01    0    3.86e+00
2002 04 25  0155    52389    6900      0    1.70e+01    0    3.70e+00
2002 04 25  0200    52389    7200      0    1.69e+01    0    3.60e+00
2002 04 25  0205    52389    7500      0    1.72e+01    0    3.67e+00
2002 04 25  0210    52389    7800      0    1.70e+01    0    3.73e+00
2002 04 25  0215    52389    8100      0    1.66e+01    0    3.66e+00
2002 04 25  0220    52389    8400      0    1.65e+01    0    3.68e+00
2002 04 25  0225    52389    8700      0    1.63e+01    0    3.56e+00
2002 04 25  0230    52389    9000      0    1.61e+01    0    3.63e+00
2002 04 25  0235    52389    9300      0    1.63e+01    0    3.51e+00
2002 04 25  0240    52389    9600      0    1.62e+01    0    3.56e+00
2002 04 25  0245    52389    9900      0    1.63e+01    0    3.58e+00
2002 04 25  0250    52389   10200      0    1.65e+01    0    3.57e+00
2002 04 25  0255    52389   10500      0    1.66e+01    0    3.51e+00
2002 04 25  0300    52389   10800      0    1.66e+01    0    3.59e+00
2002 04 25  0305    52389   11100      0    1.67e+01    0    3.61e+00
2002 04 25  0310    52389   11400      0    1.65e+01    0    3.57e+00
2002 04 25  0315    52389   11700      0    1.64e+01    0    3.55e+00
2002 04 25  0320    52389   12000      0    1.62e+01    0    3.54e+00
2002 04 25  0325    52389   12300      0    1.60e+01    0    3.52e+00
2002 04 25  0330    52389   12600      0    1.58e+01    0    3.42e+00
2002 04 25  0335    52389   12900      0    1.58e+01    0    3.44e+00
2002 04 25  0340    52389   13200      0    1.57e+01    0    3.46e+00
2002 04 25  0345    52389   13500      0    1.56e+01    0    3.38e+00
2002 04 25  0350    52389   13800      0    1.57e+01    0    3.45e+00
2002 04 25  0355    52389   14100      0    1.56e+01    0    3.41e+00
2002 04 25  0400    52389   14400      0    1.56e+01    0    3.42e+00
2002 04 25  0405    52389   14700      0    1.56e+01    0    3.39e+00
2002 04 25  0410    52389   15000      0    1.58e+01    0    3.42e+00
2002 04 25  0415    52389   15300      0    1.56e+01    0    3.34e+00
2002 04 25  0420    52389   15600      0    1.57e+01    0    3.42e+00
2002 04 25  0425    52389   15900      0    1.55e+01    0    3.42e+00
2002 04 25  0430    52389   16200      0    1.55e+01    0    3.44e+00
2002 04 25  0435    52389   16500      0    1.53e+01    0    3.45e+00
2002 04 25  0440    52389   16800      0    1.55e+01    0    3.34e+00
2002 04 25  0445    52389   17100      0    1.56e+01    0    3.40e+00
2002 04 25  0450    52389   17400      0    1.55e+01    0    3.31e+00
2002 04 25  0455    52389   17700      0    1.53e+01    0    3.27e+00
2002 04 25  0500    52389   18000      0    1.55e+01    0    3.23e+00
2002 04 25  0505    52389   18300      0    1.55e+01    0    3.27e+00
2002 04 25  0510    52389   18600      0    1.55e+01    0    3.33e+00
2002 04 25  0515    52389   18900      0    1.56e+01    0    3.32e+00
2002 04 25  0520    52389   19200      0    1.54e+01    0    3.36e+00
2002 04 25  0525    52389   19500      0    1.54e+01    0    3.36e+00
2002 04 25  0530    52389   19800      0    1.54e+01    0    3.30e+00
2002 04 25  0535    52389   20100      0    1.56e+01    0    3.29e+00
2002 04 25  0540    52389   20400      0    1.57e+01    0    3.30e+00
2002 04 25  0545    52389   20700      0    1.55e+01    0    3.22e+00
2002 04 25  0550    52389   21000      0    1.54e+01    0    3.33e+00
2002 04 25  0555    52389   21300      0    1.57e+01    0    3.33e+00
2002 04 25  0600    52389   21600      0    1.56e+01    0    3.30e+00
2002 04 25  0605    52389   21900      0    1.59e+01    0    3.39e+00
2002 04 25  0610    52389   22200      0    1.55e+01    0    3.29e+00
2002 04 25  0615    52389   22500      0    1.56e+01    0    3.32e+00
2002 04 25  0620    52389   22800      0    1.52e+01    0    3.25e+00
2002 04 25  0625    52389   23100      0    1.53e+01    0    3.28e+00
2002 04 25  0630    52389   23400      0    1.53e+01    0    3.27e+00
2002 04 25  0635    52389   23700      0    1.53e+01    0    3.22e+00
2002 04 25  0640    52389   24000      0    1.49e+01    0    3.19e+00
2002 04 25  0645    52389   24300      0    1.48e+01    0    3.23e+00
2002 04 25  0650    52389   24600      0    1.47e+01    0    3.13e+00
2002 04 25  0655    52389   24900      0    1.47e+01    0    3.13e+00
2002 04 25  0700    52389   25200      0    1.47e+01    0    3.21e+00
2002 04 25  0705    52389   25500      0    1.46e+01    0    3.15e+00
2002 04 25  0710    52389   25800      0    1.46e+01    0    3.13e+00
2002 04 25  0715    52389   26100      0    1.46e+01    0    2.99e+00
2002 04 25  0720    52389   26400      0    1.49e+01    0    3.11e+00
2002 04 25  0725    52389   26700      0    1.49e+01    0    3.14e+00
2002 04 25  0730    52389   27000      0    1.47e+01    0    3.12e+00
2002 04 25  0735    52389   27300      0    1.48e+01    0    3.17e+00
2002 04 25  0740    52389   27600      0    1.48e+01    0    3.27e+00
2002 04 25  0745    52389   27900      0    1.49e+01    0    3.16e+00
2002 04 25  0750    52389   28200      0    1.46e+01    0    3.10e+00
2002 04 25  0755    52389   28500      0    1.48e+01    0    3.18e+00
2002 04 25  0800    52389   28800      0    1.49e+01    0    3.12e+00
2002 04 25  0805    52389   29100      0    1.45e+01    0    3.07e+00
2002 04 25  0810    52389   29400      0    1.44e+01    0    3.03e+00
2002 04 25  0815    52389   29700      0    1.45e+01    0    3.09e+00
2002 04 25  0820    52389   30000      0    1.45e+01    0    3.05e+00
2002 04 25  0825    52389   30300      0    1.43e+01    0    2.94e+00
2002 04 25  0830    52389   30600      0    1.44e+01    0    2.98e+00
2002 04 25  0835    52389   30900      0    1.43e+01    0    3.03e+00
2002 04 25  0840    52389   31200      0    1.45e+01    0    3.06e+00
2002 04 25  0845    52389   31500      0    1.44e+01    0    3.04e+00
2002 04 25  0850    52389   31800      0    1.43e+01    0    3.01e+00
2002 04 25  0855    52389   32100      0    1.44e+01    0    3.04e+00
2002 04 25  0900    52389   32400      0    1.45e+01    0    3.06e+00
2002 04 25  0905    52389   32700      0    1.45e+01    0    3.01e+00
2002 04 25  0910    52389   33000      0    1.45e+01    0    3.06e+00
2002 04 25  0915    52389   33300      0    1.43e+01    0    3.01e+00
2002 04 25  0920    52389   33600      0    1.44e+01    0    3.01e+00
2002 04 25  0925    52389   33900      0    1.42e+01    0    2.98e+00
2002 04 25  0930    52389   34200      0    1.40e+01    0    2.88e+00
2002 04 25  0935    52389   34500      0    1.39e+01    0    2.95e+00
2002 04 25  0940    52389   34800      0    1.38e+01    0    2.93e+00
2002 04 25  0945    52389   35100      0    1.38e+01    0    2.87e+00
2002 04 25  0950    52389   35400      0    1.38e+01    0    2.85e+00
2002 04 25  0955    52389   35700      0    1.37e+01    0    2.91e+00
2002 04 25  1000    52389   36000      0    1.37e+01    0    2.83e+00
2002 04 25  1005    52389   36300      0    1.38e+01    0    2.93e+00
2002 04 25  1010    52389   36600      0    1.39e+01    0    2.95e+00
2002 04 25  1015    52389   36900      0    1.39e+01    0    2.84e+00
2002 04 25  1020    52389   37200      0    1.39e+01    0    2.92e+00
2002 04 25  1025    52389   37500      0    1.39e+01    0    2.95e+00
2002 04 25  1030    52389   37800      0    1.43e+01    0    2.94e+00
2002 04 25  1035    52389   38100      0    1.41e+01    0    2.92e+00
2002 04 25  1040    52389   38400      0    1.41e+01    0    2.95e+00
2002 04 25  1045    52389   38700      0    1.42e+01    0    2.98e+00
2002 04 25  1050    52389   39000      0    1.43e+01    0    2.99e+00
2002 04 25  1055    52389   39300      0    1.36e+01    0    2.91e+00
2002 04 25  1100    52389   39600      0    1.38e+01    0    2.88e+00
2002 04 25  1105    52389   39900      0    1.38e+01    0    2.86e+00
2002 04 25  1110    52389   40200      0    1.36e+01    0    2.80e+00
2002 04 25  1115    52389   40500      0    1.37e+01    0    2.92e+00
2002 04 25  1120    52389   40800      0    1.38e+01    0    2.71e+00
2002 04 25  1125    52389   41100      0    1.39e+01    0    2.89e+00
2002 04 25  1130    52389   41400      0    1.40e+01    0    2.97e+00
2002 04 25  1135    52389   41700      0    1.35e+01    0    2.77e+00
2002 04 25  1140    52389   42000      0    1.35e+01    0    2.75e+00
2002 04 25  1145    52389   42300      0    1.34e+01    0    2.82e+00
2002 04 25  1150    52389   42600      0    1.34e+01    0    2.88e+00
2002 04 25  1155    52389   42900      0    1.33e+01    0    2.79e+00
2002 04 25  1200    52389   43200      0    1.32e+01    0    2.73e+00
2002 04 25  1205    52389   43500      0    1.30e+01    0    2.75e+00
2002 04 25  1210    52389   43800      0    1.30e+01    0    2.69e+00
2002 04 25  1215    52389   44100      0    1.31e+01    0    2.72e+00
2002 04 25  1220    52389   44400      0    1.30e+01    0    2.73e+00
2002 04 25  1225    52389   44700      0    1.31e+01    0    2.75e+00
2002 04 25  1230    52389   45000      0    1.33e+01    0    2.80e+00
2002 04 25  1235    52389   45300      0    1.34e+01    0    2.80e+00
2002 04 25  1240    52389   45600      0    1.35e+01    0    2.80e+00
2002 04 25  1245    52389   45900      0    1.36e+01    0    2.85e+00
2002 04 25  1250    52389   46200      0    1.37e+01    0    2.83e+00
2002 04 25  1255    52389   46500      0    1.37e+01    0    2.89e+00
2002 04 25  1300    52389   46800      0    1.37e+01    0    2.82e+00
2002 04 25  1305    52389   47100      0    1.37e+01    0    2.87e+00
2002 04 25  1310    52389   47400      0    1.37e+01    0    2.87e+00
2002 04 25  1315    52389   47700      0    1.36e+01    0    2.83e+00
2002 04 25  1320    52389   48000      0    1.35e+01    0    2.87e+00
2002 04 25  1325    52389   48300      0    1.33e+01    0    2.79e+00
2002 04 25  1330    52389   48600      0    1.31e+01    0    2.76e+00
2002 04 25  1335    52389   48900      0    1.31e+01    0    2.67e+00
2002 04 25  1340    52389   49200      0    1.30e+01    0    2.69e+00
2002 04 25  1345    52389   49500      0    1.31e+01    0    2.76e+00
2002 04 25  1350    52389   49800      0    1.29e+01    0    2.67e+00
2002 04 25  1355    52389   50100      0    1.28e+01    0    2.63e+00
2002 04 25  1400    52389   50400      0    1.29e+01    0    2.75e+00
2002 04 25  1405    52389   50700      0    1.33e+01    0    2.77e+00
2002 04 25  1410    52389   51000      0    1.35e+01    0    2.81e+00
2002 04 25  1415    52389   51300      0    1.35e+01    0    2.72e+00
2002 04 25  1420    52389   51600      0    1.36e+01    0    2.85e+00
2002 04 25  1425    52389   51900      0    1.35e+01    0    2.73e+00
2002 04 25  1430    52389   52200      0    1.35e+01    0    2.75e+00
2002 04 25  1435    52389   52500      0    1.33e+01    0    2.68e+00
2002 04 25  1440    52389   52800      0    1.31e+01    0    2.75e+00
2002 04 25  1445    52389   53100      0    1.33e+01    0    2.74e+00
2002 04 25  1450    52389   53400      0    1.32e+01    0    2.72e+00
2002 04 25  1455    52389   53700      0    1.31e+01    0    2.71e+00
2002 04 25  1500    52389   54000      0    1.29e+01    0    2.67e+00
2002 04 25  1505    52389   54300      0    1.29e+01    0    2.67e+00
2002 04 25  1510    52389   54600      0    1.28e+01    0    2.70e+00
2002 04 25  1515    52389   54900      0    1.29e+01    0    2.71e+00
2002 04 25  1520    52389   55200      0    1.28e+01    0    2.67e+00
2002 04 25  1525    52389   55500      0    1.26e+01    0    2.71e+00
2002 04 25  1530    52389   55800      0    1.28e+01    0    2.71e+00
2002 04 25  1535    52389   56100      0    1.28e+01    0    2.71e+00
2002 04 25  1540    52389   56400      0    1.28e+01    0    2.66e+00
2002 04 25  1545    52389   56700      0    1.30e+01    0    2.68e+00
2002 04 25  1550    52389   57000      0    1.33e+01    0    2.80e+00
2002 04 25  1555    52389   57300      0    1.26e+01    0    2.65e+00
2002 04 25  1600    52389   57600      0    1.27e+01    0    2.62e+00
2002 04 25  1605    52389   57900      0    1.27e+01    0    2.65e+00
2002 04 25  1610    52389   58200      0    1.25e+01    0    2.61e+00
2002 04 25  1615    52389   58500      0    1.25e+01    0    2.58e+00
2002 04 25  1620    52389   58800      0    1.18e+01    0    2.42e+00
2002 04 25  1625    52389   59100      0    1.24e+01    0    2.58e+00
2002 04 25  1630    52389   59400      0    1.24e+01    0    2.54e+00
2002 04 25  1635    52389   59700      0    1.23e+01    0    2.59e+00
2002 04 25  1640    52389   60000      0    1.24e+01    0    2.59e+00
2002 04 25  1645    52389   60300      0    1.22e+01    0    2.47e+00
2002 04 25  1650    52389   60600      0    1.22e+01    0    2.53e+00
2002 04 25  1655    52389   60900      0    1.22e+01    0    2.54e+00
2002 04 25  1700    52389   61200      0    1.22e+01    0    2.53e+00
2002 04 25  1705    52389   61500      0    1.22e+01    0    2.56e+00
2002 04 25  1710    52389   61800      0    1.22e+01    0    2.53e+00
2002 04 25  1715    52389   62100      0    1.20e+01    0    2.43e+00
2002 04 25  1720    52389   62400      9   -1.00e+05    9   -1.00e+05
2002 04 25  1725    52389   62700      9   -1.00e+05    9   -1.00e+05
2002 04 25  1730    52389   63000      0    1.19e+01    0    2.48e+00
2002 04 25  1735    52389   63300      0    1.20e+01    0    2.48e+00
2002 04 25  1740    52389   63600      0    1.19e+01    0    2.50e+00
2002 04 25  1745    52389   63900      0    1.19e+01    0    2.50e+00
2002 04 25  1750    52389   64200      0    1.19e+01    0    2.51e+00
2002 04 25  1755    52389   64500      0    1.19e+01    0    2.42e+00
2002 04 25  1800    52389   64800      0    1.18e+01    0    2.46e+00
2002 04 25  1805    52389   65100      0    1.18e+01    0    2.44e+00
2002 04 25  1810    52389   65400      0    1.18e+01    0    2.46e+00
2002 04 25  1815    52389   65700      0    1.18e+01    0    2.41e+00
2002 04 25  1820    52389   66000      0    1.18e+01    0    2.48e+00
2002 04 25  1825    52389   66300      0    1.17e+01    0    2.40e+00
2002 04 25  1830    52389   66600      0    1.16e+01    0    2.40e+00
2002 04 25  1835    52389   66900      0    1.17e+01    0    2.41e+00
2002 04 25  1840    52389   67200      0    1.18e+01    0    2.46e+00
2002 04 25  1845    52389   67500      0    1.18e+01    0    2.44e+00
2002 04 25  1850    52389   67800      0    1.19e+01    0    2.46e+00
2002 04 25  1855    52389   68100      0    1.19e+01    0    2.41e+00
2002 04 25  1900    52389   68400      0    1.17e+01    0    2.42e+00
2002 04 25  1905    52389   68700      0    1.16e+01    0    2.37e+00
2002 04 25  1910    52389   69000      0    1.17e+01    0    2.38e+00
2002 04 25  1915    52389   69300      0    1.17e+01    0    2.47e+00
2002 04 25  1920    52389   69600      0    1.18e+01    0    2.42e+00
2002 04 25  1925    52389   69900      0    1.17e+01    0    2.42e+00
2002 04 25  1930    52389   70200      0    1.16e+01    0    2.30e+00
2002 04 25  1935    52389   70500      0    1.17e+01    0    2.41e+00
2002 04 25  1940    52389   70800      0    1.16e+01    0    2.39e+00
2002 04 25  1945    52389   71100      0    1.17e+01    0    2.37e+00
2002 04 25  1950    52389   71400      0    1.15e+01    0    2.30e+00
2002 04 25  1955    52389   71700      0    1.15e+01    0    2.34e+00
2002 04 25  2000    52389   72000      0    1.15e+01    0    2.35e+00
2002 04 25  2005    52389   72300      0    1.15e+01    0    2.32e+00
2002 04 25  2010    52389   72600      0    1.12e+01    0    2.23e+00
2002 04 25  2015    52389   72900      0    1.14e+01    0    2.34e+00
2002 04 25  2020    52389   73200      0    1.13e+01    0    2.28e+00
2002 04 25  2025    52389   73500      0    1.16e+01    0    2.33e+00
2002 04 25  2030    52389   73800      0    1.14e+01    0    2.28e+00
2002 04 25  2035    52389   74100      0    1.14e+01    0    2.23e+00
2002 04 25  2040    52389   74400      0    1.13e+01    0    2.35e+00
2002 04 25  2045    52389   74700      0    1.15e+01    0    2.33e+00
2002 04 25  2050    52389   75000      0    1.14e+01    0    2.36e+00
2002 04 25  2055    52389   75300      0    1.13e+01    0    2.35e+00
2002 04 25  2100    52389   75600      0    1.14e+01    0    2.35e+00
2002 04 25  2105    52389   75900      0    1.14e+01    0    2.37e+00
2002 04 25  2110    52389   76200      0    1.13e+01    0    2.31e+00
2002 04 25  2115    52389   76500      0    1.12e+01    0    2.30e+00
2002 04 25  2120    52389   76800      0    1.13e+01    0    2.33e+00
2002 04 25  2125    52389   77100      0    1.11e+01    0    2.22e+00
2002 04 25  2130    52389   77400      0    1.13e+01    0    2.35e+00
2002 04 25  2135    52389   77700      0    1.11e+01    0    2.32e+00
2002 04 25  2140    52389   78000      0    1.11e+01    0    2.27e+00
2002 04 25  2145    52389   78300      0    1.11e+01    0    2.30e+00
2002 04 25  2150    52389   78600      0    1.11e+01    0    2.23e+00
2002 04 25  2155    52389   78900      0    1.11e+01    0    2.28e+00
2002 04 25  2200    52389   79200      0    1.10e+01    0    2.25e+00
2002 04 25  2205    52389   79500      0    1.10e+01    0    2.28e+00
2002 04 25  2210    52389   79800      0    1.10e+01    0    2.21e+00
2002 04 25  2215    52389   80100      0    1.11e+01    0    2.20e+00
2002 04 25  2220    52389   80400      0    1.11e+01    0    2.28e+00
2002 04 25  2225    52389   80700      0    1.10e+01    0    2.29e+00
2002 04 25  2230    52389   81000      0    1.10e+01    0    2.20e+00
2002 04 25  2235    52389   81300      0    1.08e+01    0    2.16e+00
2002 04 25  2240    52389   81600      0    1.08e+01    0    2.17e+00
2002 04 25  2245    52389   81900      0    1.09e+01    0    2.24e+00
2002 04 25  2250    52389   82200      0    1.08e+01    0    2.22e+00
2002 04 25  2255    52389   82500      0    1.08e+01    0    2.25e+00
2002 04 25  2300    52389   82800      0    1.08e+01    0    2.16e+00
2002 04 25  2305    52389   83100      0    1.11e+01    0    2.23e+00
2002 04 25  2310    52389   83400      0    1.11e+01    0    2.24e+00
2002 04 25  2315    52389   83700      0    1.11e+01    0    2.11e+00
2002 04 25  2320    52389   84000      0    1.12e+01    0    2.20e+00
2002 04 25  2325    52389   84300      0    1.12e+01    0    2.22e+00
2002 04 25  2330    52389   84600      0    1.12e+01    0    2.26e+00
2002 04 25  2335    52389   84900      0    1.11e+01    0    2.26e+00
2002 04 25  2340    52389   85200      0    1.11e+01    0    2.20e+00
2002 04 25  2345    52389   85500      0    1.09e+01    0    2.17e+00
2002 04 25  2350    52389   85800      0    1.09e+01    0    2.14e+00
2002 04 25  2355    52389   86100      0    1.10e+01    0    2.26e+00
