:Data_list: 20021220_ace_sis_5m.txt
:Created: 2002 Dec 21 0011 UT
# Prepared by the U.S. Dept. of Commerce, NOAA, Space Environment Center.
# Please send comments and suggestions to sec@sec.noaa.gov 
# 
# Units: proton flux p/cs2-sec-ster
# Status(S): 0 = nominal data, 1 to 8 = bad data record, 9 = no data
# Missing data values: -1.00e+05
# Source: ACE Satellite - Solar Isotope Spectrometer
#
# 5-minute averaged Real-time Integral Flux of High-energy Solar Protons
# 
#                 Modified Seconds
# UT Date   Time   Julian  of the      ---- Integral Proton Flux ----
# YR MO DA  HHMM     Day     Day       S    > 10 MeV    S    > 30 MeV
#--------------------------------------------------------------------
2002 12 20  0000    52628       0      0    4.45e+00    0    1.29e+00
2002 12 20  0005    52628     300      0    4.54e+00    0    1.27e+00
2002 12 20  0010    52628     600      0    4.99e+00    0    1.31e+00
2002 12 20  0015    52628     900      0    4.99e+00    0    1.34e+00
2002 12 20  0020    52628    1200      0    4.64e+00    0    1.28e+00
2002 12 20  0025    52628    1500      0    4.83e+00    0    1.27e+00
2002 12 20  0030    52628    1800      0    4.89e+00    0    1.28e+00
2002 12 20  0035    52628    2100      0    4.99e+00    0    1.25e+00
2002 12 20  0040    52628    2400      0    5.54e+00    0    1.32e+00
2002 12 20  0045    52628    2700      0    5.77e+00    0    1.33e+00
2002 12 20  0050    52628    3000      0    5.76e+00    0    1.35e+00
2002 12 20  0055    52628    3300      0    5.69e+00    0    1.32e+00
2002 12 20  0100    52628    3600      0    5.46e+00    0    1.27e+00
2002 12 20  0105    52628    3900      0    5.58e+00    0    1.30e+00
2002 12 20  0110    52628    4200      0    6.07e+00    0    1.36e+00
2002 12 20  0115    52628    4500      0    5.21e+00    0    1.25e+00
2002 12 20  0120    52628    4800      0    4.76e+00    0    1.17e+00
2002 12 20  0125    52628    5100      0    4.42e+00    0    1.11e+00
2002 12 20  0130    52628    5400      0    4.78e+00    0    1.12e+00
2002 12 20  0135    52628    5700      0    5.07e+00    0    1.14e+00
2002 12 20  0140    52628    6000      0    4.80e+00    0    1.11e+00
2002 12 20  0145    52628    6300      0    5.45e+00    0    1.19e+00
2002 12 20  0150    52628    6600      0    4.87e+00    0    1.15e+00
2002 12 20  0155    52628    6900      0    3.50e+00    0    1.06e+00
2002 12 20  0200    52628    7200      0    3.28e+00    0    9.80e-01
2002 12 20  0205    52628    7500      0    4.02e+00    0    1.06e+00
2002 12 20  0210    52628    7800      0    4.45e+00    0    1.06e+00
2002 12 20  0215    52628    8100      0    4.14e+00    0    1.07e+00
2002 12 20  0220    52628    8400      0    3.89e+00    0    1.01e+00
2002 12 20  0225    52628    8700      0    3.65e+00    0    1.01e+00
2002 12 20  0230    52628    9000      0    3.89e+00    0    1.01e+00
2002 12 20  0235    52628    9300      0    3.55e+00    0    9.96e-01
2002 12 20  0240    52628    9600      0    3.51e+00    0    9.60e-01
2002 12 20  0245    52628    9900      0    3.36e+00    0    9.66e-01
2002 12 20  0250    52628   10200      0    3.46e+00    0    1.00e+00
2002 12 20  0255    52628   10500      0    3.53e+00    0    1.00e+00
2002 12 20  0300    52628   10800      0    3.18e+00    0    9.59e-01
2002 12 20  0305    52628   11100      0    3.13e+00    0    9.75e-01
2002 12 20  0310    52628   11400      0    3.16e+00    0    9.61e-01
2002 12 20  0315    52628   11700      0    3.17e+00    0    9.43e-01
2002 12 20  0320    52628   12000      0    3.48e+00    0    9.63e-01
2002 12 20  0325    52628   12300      0    3.33e+00    0    9.06e-01
2002 12 20  0330    52628   12600      0    3.22e+00    0    8.99e-01
2002 12 20  0335    52628   12900      0    3.24e+00    0    9.27e-01
2002 12 20  0340    52628   13200      0    3.24e+00    0    8.88e-01
2002 12 20  0345    52628   13500      0    3.28e+00    0    9.05e-01
2002 12 20  0350    52628   13800      0    3.58e+00    0    9.88e-01
2002 12 20  0355    52628   14100      0    3.63e+00    0    9.52e-01
2002 12 20  0400    52628   14400      0    3.63e+00    0    9.22e-01
2002 12 20  0405    52628   14700      0    3.69e+00    0    9.46e-01
2002 12 20  0410    52628   15000      0    3.82e+00    0    9.72e-01
2002 12 20  0415    52628   15300      0    4.15e+00    0    1.03e+00
2002 12 20  0420    52628   15600      0    4.05e+00    0    9.46e-01
2002 12 20  0425    52628   15900      0    4.13e+00    0    9.64e-01
2002 12 20  0430    52628   16200      0    4.20e+00    0    9.64e-01
2002 12 20  0435    52628   16500      0    4.15e+00    0    9.62e-01
2002 12 20  0440    52628   16800      0    4.23e+00    0    9.88e-01
2002 12 20  0445    52628   17100      0    4.13e+00    0    9.79e-01
2002 12 20  0450    52628   17400      0    4.05e+00    0    9.62e-01
2002 12 20  0455    52628   17700      0    4.04e+00    0    9.70e-01
2002 12 20  0500    52628   18000      0    3.87e+00    0    9.40e-01
2002 12 20  0505    52628   18300      0    3.73e+00    0    8.93e-01
2002 12 20  0510    52628   18600      0    3.77e+00    0    9.47e-01
2002 12 20  0515    52628   18900      0    3.91e+00    0    9.63e-01
2002 12 20  0520    52628   19200      0    3.84e+00    0    9.01e-01
2002 12 20  0525    52628   19500      0    3.75e+00    0    9.53e-01
2002 12 20  0530    52628   19800      0    3.69e+00    0    9.20e-01
2002 12 20  0535    52628   20100      0    3.66e+00    0    8.89e-01
2002 12 20  0540    52628   20400      0    3.65e+00    0    9.14e-01
2002 12 20  0545    52628   20700      0    3.68e+00    0    8.71e-01
2002 12 20  0550    52628   21000      0    3.74e+00    0    9.02e-01
2002 12 20  0555    52628   21300      0    3.65e+00    0    8.76e-01
2002 12 20  0600    52628   21600      0    3.53e+00    0    8.68e-01
2002 12 20  0605    52628   21900      0    3.49e+00    0    8.80e-01
2002 12 20  0610    52628   22200      0    3.50e+00    0    8.50e-01
2002 12 20  0615    52628   22500      0    3.47e+00    0    8.93e-01
2002 12 20  0620    52628   22800      0    3.30e+00    0    8.42e-01
2002 12 20  0625    52628   23100      0    3.34e+00    0    8.59e-01
2002 12 20  0630    52628   23400      0    3.28e+00    0    8.67e-01
2002 12 20  0635    52628   23700      0    3.37e+00    0    8.60e-01
2002 12 20  0640    52628   24000      0    3.39e+00    0    8.59e-01
2002 12 20  0645    52628   24300      0    3.32e+00    0    8.34e-01
2002 12 20  0650    52628   24600      0    3.29e+00    0    8.46e-01
2002 12 20  0655    52628   24900      0    3.20e+00    0    8.31e-01
2002 12 20  0700    52628   25200      0    3.20e+00    0    8.62e-01
2002 12 20  0705    52628   25500      0    3.05e+00    0    8.10e-01
2002 12 20  0710    52628   25800      0    3.03e+00    0    8.18e-01
2002 12 20  0715    52628   26100      0    2.95e+00    0    8.00e-01
2002 12 20  0720    52628   26400      0    3.00e+00    0    8.17e-01
2002 12 20  0725    52628   26700      0    2.92e+00    0    8.00e-01
2002 12 20  0730    52628   27000      0    2.90e+00    0    8.19e-01
2002 12 20  0735    52628   27300      0    2.74e+00    0    7.72e-01
2002 12 20  0740    52628   27600      0    2.72e+00    0    7.65e-01
2002 12 20  0745    52628   27900      0    2.75e+00    0    7.86e-01
2002 12 20  0750    52628   28200      0    2.76e+00    0    7.76e-01
2002 12 20  0755    52628   28500      0    2.66e+00    0    7.63e-01
2002 12 20  0800    52628   28800      0    2.62e+00    0    7.60e-01
2002 12 20  0805    52628   29100      0    2.64e+00    0    7.79e-01
2002 12 20  0810    52628   29400      0    2.63e+00    0    7.81e-01
2002 12 20  0815    52628   29700      0    2.60e+00    0    7.90e-01
2002 12 20  0820    52628   30000      0    2.52e+00    0    7.52e-01
2002 12 20  0825    52628   30300      0    2.56e+00    0    7.62e-01
2002 12 20  0830    52628   30600      0    2.53e+00    0    7.52e-01
2002 12 20  0835    52628   30900      0    2.51e+00    0    7.56e-01
2002 12 20  0840    52628   31200      0    2.49e+00    0    7.51e-01
2002 12 20  0845    52628   31500      0    2.42e+00    0    7.47e-01
2002 12 20  0850    52628   31800      0    2.41e+00    0    7.46e-01
2002 12 20  0855    52628   32100      0    2.46e+00    0    7.57e-01
2002 12 20  0900    52628   32400      0    2.48e+00    0    7.61e-01
2002 12 20  0905    52628   32700      0    2.41e+00    0    7.70e-01
2002 12 20  0910    52628   33000      0    2.36e+00    0    7.44e-01
2002 12 20  0915    52628   33300      0    2.35e+00    0    7.34e-01
2002 12 20  0920    52628   33600      0    2.29e+00    0    7.42e-01
2002 12 20  0925    52628   33900      0    2.28e+00    0    7.53e-01
2002 12 20  0930    52628   34200      0    2.28e+00    0    7.40e-01
2002 12 20  0935    52628   34500      0    2.18e+00    0    6.90e-01
2002 12 20  0940    52628   34800      0    2.20e+00    0    7.48e-01
2002 12 20  0945    52628   35100      0    2.14e+00    0    7.23e-01
2002 12 20  0950    52628   35400      0    2.18e+00    0    7.08e-01
2002 12 20  0955    52628   35700      0    2.10e+00    0    7.28e-01
2002 12 20  1000    52628   36000      0    2.12e+00    0    7.07e-01
2002 12 20  1005    52628   36300      0    2.11e+00    0    7.19e-01
2002 12 20  1010    52628   36600      0    2.10e+00    0    7.14e-01
2002 12 20  1015    52628   36900      0    2.06e+00    0    7.14e-01
2002 12 20  1020    52628   37200      0    2.06e+00    0    7.21e-01
2002 12 20  1025    52628   37500      0    2.05e+00    0    7.05e-01
2002 12 20  1030    52628   37800      0    2.04e+00    0    6.90e-01
2002 12 20  1035    52628   38100      0    2.09e+00    0    7.17e-01
2002 12 20  1040    52628   38400      0    2.01e+00    0    6.88e-01
2002 12 20  1045    52628   38700      0    1.99e+00    0    7.11e-01
2002 12 20  1050    52628   39000      0    1.98e+00    0    7.07e-01
2002 12 20  1055    52628   39300      0    2.00e+00    0    7.10e-01
2002 12 20  1100    52628   39600      0    1.96e+00    0    6.96e-01
2002 12 20  1105    52628   39900      0    1.93e+00    0    6.77e-01
2002 12 20  1110    52628   40200      0    1.89e+00    0    6.69e-01
2002 12 20  1115    52628   40500      0    1.92e+00    0    7.09e-01
2002 12 20  1120    52628   40800      0    1.90e+00    0    6.79e-01
2002 12 20  1125    52628   41100      0    1.86e+00    0    6.61e-01
2002 12 20  1130    52628   41400      0    1.89e+00    0    6.77e-01
2002 12 20  1135    52628   41700      0    1.89e+00    0    6.92e-01
2002 12 20  1140    52628   42000      0    1.91e+00    0    7.02e-01
2002 12 20  1145    52628   42300      0    1.89e+00    0    6.90e-01
2002 12 20  1150    52628   42600      0    1.87e+00    0    6.86e-01
2002 12 20  1155    52628   42900      0    1.85e+00    0    6.81e-01
2002 12 20  1200    52628   43200      0    1.73e+00    0    6.54e-01
2002 12 20  1205    52628   43500      0    1.76e+00    0    6.84e-01
2002 12 20  1210    52628   43800      0    1.73e+00    0    6.62e-01
2002 12 20  1215    52628   44100      0    1.77e+00    0    6.88e-01
2002 12 20  1220    52628   44400      0    1.74e+00    0    6.89e-01
2002 12 20  1225    52628   44700      0    1.73e+00    0    6.65e-01
2002 12 20  1230    52628   45000      0    1.68e+00    0    6.61e-01
2002 12 20  1235    52628   45300      0    1.68e+00    0    6.57e-01
2002 12 20  1240    52628   45600      0    1.66e+00    0    6.53e-01
2002 12 20  1245    52628   45900      0    1.66e+00    0    6.80e-01
2002 12 20  1250    52628   46200      0    1.60e+00    0    6.42e-01
2002 12 20  1255    52628   46500      0    1.59e+00    0    6.45e-01
2002 12 20  1300    52628   46800      0    1.61e+00    0    6.58e-01
2002 12 20  1305    52628   47100      0    1.57e+00    0    6.46e-01
2002 12 20  1310    52628   47400      0    1.57e+00    0    6.41e-01
2002 12 20  1315    52628   47700      0    1.50e+00    0    6.37e-01
2002 12 20  1320    52628   48000      0    1.51e+00    0    6.33e-01
2002 12 20  1325    52628   48300      0    1.51e+00    0    6.36e-01
2002 12 20  1330    52628   48600      0    1.54e+00    0    6.48e-01
2002 12 20  1335    52628   48900      0    1.54e+00    0    6.42e-01
2002 12 20  1340    52628   49200      0    1.50e+00    0    6.34e-01
2002 12 20  1345    52628   49500      0    1.50e+00    0    6.29e-01
2002 12 20  1350    52628   49800      0    1.50e+00    0    6.44e-01
2002 12 20  1355    52628   50100      0    1.48e+00    0    6.37e-01
2002 12 20  1400    52628   50400      0    1.48e+00    0    6.38e-01
2002 12 20  1405    52628   50700      0    1.44e+00    0    6.14e-01
2002 12 20  1410    52628   51000      0    1.49e+00    0    6.56e-01
2002 12 20  1415    52628   51300      0    1.44e+00    0    6.37e-01
2002 12 20  1420    52628   51600      0    1.45e+00    0    6.38e-01
2002 12 20  1425    52628   51900      0    1.46e+00    0    6.52e-01
2002 12 20  1430    52628   52200      0    1.40e+00    0    6.21e-01
2002 12 20  1435    52628   52500      0    1.43e+00    0    6.40e-01
2002 12 20  1440    52628   52800      0    1.43e+00    0    6.33e-01
2002 12 20  1445    52628   53100      0    1.35e+00    0    5.96e-01
2002 12 20  1450    52628   53400      0    1.38e+00    0    6.36e-01
2002 12 20  1455    52628   53700      0    1.38e+00    0    6.18e-01
2002 12 20  1500    52628   54000      0    1.36e+00    0    6.20e-01
2002 12 20  1505    52628   54300      0    1.35e+00    0    6.23e-01
2002 12 20  1510    52628   54600      0    1.37e+00    0    6.42e-01
2002 12 20  1515    52628   54900      0    1.36e+00    0    6.46e-01
2002 12 20  1520    52628   55200      0    1.32e+00    0    6.24e-01
2002 12 20  1525    52628   55500      0    1.31e+00    0    6.14e-01
2002 12 20  1530    52628   55800      0    1.30e+00    0    6.12e-01
2002 12 20  1535    52628   56100      0    1.32e+00    0    6.32e-01
2002 12 20  1540    52628   56400      0    1.32e+00    0    6.30e-01
2002 12 20  1545    52628   56700      0    1.29e+00    0    6.24e-01
2002 12 20  1550    52628   57000      0    1.30e+00    0    6.19e-01
2002 12 20  1555    52628   57300      0    1.24e+00    0    6.00e-01
2002 12 20  1600    52628   57600      0    1.28e+00    0    6.29e-01
2002 12 20  1605    52628   57900      0    1.27e+00    0    6.21e-01
2002 12 20  1610    52628   58200      0    1.27e+00    0    6.10e-01
2002 12 20  1615    52628   58500      0    1.26e+00    0    6.09e-01
2002 12 20  1620    52628   58800      0    1.25e+00    0    6.16e-01
2002 12 20  1625    52628   59100      0    1.24e+00    0    6.21e-01
2002 12 20  1630    52628   59400      0    1.22e+00    0    5.99e-01
2002 12 20  1635    52628   59700      0    1.25e+00    0    6.17e-01
2002 12 20  1640    52628   60000      0    1.24e+00    0    6.07e-01
2002 12 20  1645    52628   60300      0    1.24e+00    0    6.19e-01
2002 12 20  1650    52628   60600      0    1.24e+00    0    6.15e-01
2002 12 20  1655    52628   60900      0    1.22e+00    0    6.02e-01
2002 12 20  1700    52628   61200      0    1.24e+00    0    6.18e-01
2002 12 20  1705    52628   61500      0    1.21e+00    0    6.00e-01
2002 12 20  1710    52628   61800      0    1.24e+00    0    6.30e-01
2002 12 20  1715    52628   62100      0    1.24e+00    0    6.33e-01
2002 12 20  1720    52628   62400      0    1.20e+00    0    6.17e-01
2002 12 20  1725    52628   62700      0    1.17e+00    0    6.11e-01
2002 12 20  1730    52628   63000      0    1.17e+00    0    6.19e-01
2002 12 20  1735    52628   63300      0    1.16e+00    0    6.14e-01
2002 12 20  1740    52628   63600      0    1.13e+00    0    6.06e-01
2002 12 20  1745    52628   63900      0    1.10e+00    0    5.89e-01
2002 12 20  1750    52628   64200      0    1.11e+00    0    5.99e-01
2002 12 20  1755    52628   64500      0    1.09e+00    0    5.78e-01
2002 12 20  1800    52628   64800      0    1.14e+00    0    6.05e-01
2002 12 20  1805    52628   65100      0    1.13e+00    0    6.11e-01
2002 12 20  1810    52628   65400      0    1.12e+00    0    5.87e-01
2002 12 20  1815    52628   65700      0    1.10e+00    0    5.87e-01
2002 12 20  1820    52628   66000      0    1.13e+00    0    5.92e-01
2002 12 20  1825    52628   66300      0    1.10e+00    0    5.96e-01
2002 12 20  1830    52628   66600      0    1.10e+00    0    6.01e-01
2002 12 20  1835    52628   66900      0    1.09e+00    0    6.01e-01
2002 12 20  1840    52628   67200      0    1.10e+00    0    5.98e-01
2002 12 20  1845    52628   67500      0    1.06e+00    0    5.86e-01
2002 12 20  1850    52628   67800      0    1.04e+00    0    5.66e-01
2002 12 20  1855    52628   68100      0    1.09e+00    0    6.02e-01
2002 12 20  1900    52628   68400      0    1.07e+00    0    5.77e-01
2002 12 20  1905    52628   68700      0    1.07e+00    0    5.94e-01
2002 12 20  1910    52628   69000      0    1.06e+00    0    5.90e-01
2002 12 20  1915    52628   69300      0    1.06e+00    0    5.97e-01
2002 12 20  1920    52628   69600      0    1.08e+00    0    6.08e-01
2002 12 20  1925    52628   69900      0    1.03e+00    0    5.74e-01
2002 12 20  1930    52628   70200      0    1.03e+00    0    5.72e-01
2002 12 20  1935    52628   70500      0    1.05e+00    0    5.83e-01
2002 12 20  1940    52628   70800      0    1.03e+00    0    5.73e-01
2002 12 20  1945    52628   71100      0    1.05e+00    0    5.88e-01
2002 12 20  1950    52628   71400      0    1.04e+00    0    5.98e-01
2002 12 20  1955    52628   71700      0    1.04e+00    0    6.03e-01
2002 12 20  2000    52628   72000      0    1.02e+00    0    5.84e-01
2002 12 20  2005    52628   72300      0    1.00e+00    0    5.85e-01
2002 12 20  2010    52628   72600      0    1.04e+00    0    5.94e-01
2002 12 20  2015    52628   72900      0    1.03e+00    0    5.95e-01
2002 12 20  2020    52628   73200      0    1.01e+00    0    5.81e-01
2002 12 20  2025    52628   73500      0    9.98e-01    0    5.65e-01
2002 12 20  2030    52628   73800      0    9.93e-01    0    5.70e-01
2002 12 20  2035    52628   74100      0    1.00e+00    0    5.69e-01
2002 12 20  2040    52628   74400      0    1.01e+00    0    5.74e-01
2002 12 20  2045    52628   74700      0    1.01e+00    0    5.74e-01
2002 12 20  2050    52628   75000      0    1.02e+00    0    5.93e-01
2002 12 20  2055    52628   75300      0    1.01e+00    0    5.75e-01
2002 12 20  2100    52628   75600      0    9.81e-01    0    5.72e-01
2002 12 20  2105    52628   75900      0    9.91e-01    0    5.85e-01
2002 12 20  2110    52628   76200      0    9.83e-01    0    5.81e-01
2002 12 20  2115    52628   76500      0    9.58e-01    0    5.62e-01
2002 12 20  2120    52628   76800      0    9.55e-01    0    5.54e-01
2002 12 20  2125    52628   77100      0    9.79e-01    0    5.74e-01
2002 12 20  2130    52628   77400      0    9.65e-01    0    5.76e-01
2002 12 20  2135    52628   77700      0    9.71e-01    0    5.77e-01
2002 12 20  2140    52628   78000      0    9.46e-01    0    5.59e-01
2002 12 20  2145    52628   78300      0    9.78e-01    0    5.83e-01
2002 12 20  2150    52628   78600      0    9.82e-01    0    5.94e-01
2002 12 20  2155    52628   78900      0    9.87e-01    0    5.88e-01
2002 12 20  2200    52628   79200      0    9.46e-01    0    5.67e-01
2002 12 20  2205    52628   79500      0    9.54e-01    0    5.74e-01
2002 12 20  2210    52628   79800      0    9.47e-01    0    5.66e-01
2002 12 20  2215    52628   80100      0    9.54e-01    0    5.70e-01
2002 12 20  2220    52628   80400      0    9.56e-01    0    5.76e-01
2002 12 20  2225    52628   80700      0    9.35e-01    0    5.64e-01
2002 12 20  2230    52628   81000      0    9.73e-01    0    5.96e-01
2002 12 20  2235    52628   81300      0    9.51e-01    0    5.71e-01
2002 12 20  2240    52628   81600      0    9.28e-01    0    5.62e-01
2002 12 20  2245    52628   81900      0    9.19e-01    0    5.59e-01
2002 12 20  2250    52628   82200      0    9.31e-01    0    5.67e-01
2002 12 20  2255    52628   82500      0    9.59e-01    0    5.78e-01
2002 12 20  2300    52628   82800      0    9.56e-01    0    5.81e-01
2002 12 20  2305    52628   83100      0    9.33e-01    0    5.66e-01
2002 12 20  2310    52628   83400      0    9.28e-01    0    5.78e-01
2002 12 20  2315    52628   83700      0    9.20e-01    0    5.59e-01
2002 12 20  2320    52628   84000      0    9.52e-01    0    5.83e-01
2002 12 20  2325    52628   84300      0    9.56e-01    0    5.81e-01
2002 12 20  2330    52628   84600      0    9.18e-01    0    5.56e-01
2002 12 20  2335    52628   84900      0    9.19e-01    0    5.53e-01
2002 12 20  2340    52628   85200      0    9.22e-01    0    5.58e-01
2002 12 20  2345    52628   85500      0    9.49e-01    0    5.80e-01
2002 12 20  2350    52628   85800      0    9.51e-01    0    5.87e-01
2002 12 20  2355    52628   86100      0    9.48e-01    0    5.77e-01
