:Data_list: 20020417_ace_sis_5m.txt
:Created: 2002 Apr 18 0011 UT
# Prepared by the U.S. Dept. of Commerce, NOAA, Space Environment Center.
# Please send comments and suggestions to sec@sec.noaa.gov 
# 
# Units: proton flux p/cs2-sec-ster
# Status(S): 0 = nominal data, 1 to 8 = bad data record, 9 = no data
# Missing data values: -1.00e+05
# Source: ACE Satellite - Solar Isotope Spectrometer
#
# 5-minute averaged Real-time Integral Flux of High-energy Solar Protons
# 
#                 Modified Seconds
# UT Date   Time   Julian  of the      ---- Integral Proton Flux ----
# YR MO DA  HHMM     Day     Day       S    > 10 MeV    S    > 30 MeV
#--------------------------------------------------------------------
2002 04 17  0000    52381       0      0    8.36e-01    0    5.90e-01
2002 04 17  0005    52381     300      0    8.70e-01    0    6.10e-01
2002 04 17  0010    52381     600      0    8.57e-01    0    6.01e-01
2002 04 17  0015    52381     900      0    8.74e-01    0    6.10e-01
2002 04 17  0020    52381    1200      0    8.51e-01    0    5.99e-01
2002 04 17  0025    52381    1500      0    8.44e-01    0    5.88e-01
2002 04 17  0030    52381    1800      0    8.50e-01    0    5.96e-01
2002 04 17  0035    52381    2100      0    8.53e-01    0    5.91e-01
2002 04 17  0040    52381    2400      0    8.58e-01    0    6.01e-01
2002 04 17  0045    52381    2700      0    8.46e-01    0    5.81e-01
2002 04 17  0050    52381    3000      0    8.49e-01    0    5.85e-01
2002 04 17  0055    52381    3300      0    8.41e-01    0    5.87e-01
2002 04 17  0100    52381    3600      0    8.41e-01    0    5.91e-01
2002 04 17  0105    52381    3900      0    8.58e-01    0    6.02e-01
2002 04 17  0110    52381    4200      0    8.29e-01    0    5.88e-01
2002 04 17  0115    52381    4500      0    8.41e-01    0    5.81e-01
2002 04 17  0120    52381    4800      0    8.43e-01    0    5.86e-01
2002 04 17  0125    52381    5100      0    8.26e-01    0    5.89e-01
2002 04 17  0130    52381    5400      0    8.40e-01    0    5.85e-01
2002 04 17  0135    52381    5700      0    8.59e-01    0    6.02e-01
2002 04 17  0140    52381    6000      0    8.09e-01    0    5.64e-01
2002 04 17  0145    52381    6300      0    8.57e-01    0    6.05e-01
2002 04 17  0150    52381    6600      0    8.71e-01    0    6.17e-01
2002 04 17  0155    52381    6900      0    8.38e-01    0    5.88e-01
2002 04 17  0200    52381    7200      0    8.40e-01    0    5.87e-01
2002 04 17  0205    52381    7500      0    8.60e-01    0    6.09e-01
2002 04 17  0210    52381    7800      0    8.63e-01    0    6.06e-01
2002 04 17  0215    52381    8100      0    8.26e-01    0    5.79e-01
2002 04 17  0220    52381    8400      0    8.70e-01    0    6.16e-01
2002 04 17  0225    52381    8700      0    8.38e-01    0    5.83e-01
2002 04 17  0230    52381    9000      0    8.39e-01    0    5.86e-01
2002 04 17  0235    52381    9300      0    8.30e-01    0    5.76e-01
2002 04 17  0240    52381    9600      0    8.33e-01    0    5.89e-01
2002 04 17  0245    52381    9900      0    8.49e-01    0    5.89e-01
2002 04 17  0250    52381   10200      0    8.41e-01    0    5.93e-01
2002 04 17  0255    52381   10500      0    8.76e-01    0    6.09e-01
2002 04 17  0300    52381   10800      0    8.54e-01    0    6.01e-01
2002 04 17  0305    52381   11100      0    8.36e-01    0    5.90e-01
2002 04 17  0310    52381   11400      0    8.71e-01    0    6.13e-01
2002 04 17  0315    52381   11700      0    8.37e-01    0    5.85e-01
2002 04 17  0320    52381   12000      0    8.61e-01    0    6.02e-01
2002 04 17  0325    52381   12300      0    8.71e-01    0    6.11e-01
2002 04 17  0330    52381   12600      0    8.83e-01    0    6.22e-01
2002 04 17  0335    52381   12900      0    8.82e-01    0    6.23e-01
2002 04 17  0340    52381   13200      0    8.54e-01    0    5.97e-01
2002 04 17  0345    52381   13500      0    8.57e-01    0    5.92e-01
2002 04 17  0350    52381   13800      0    8.51e-01    0    5.92e-01
2002 04 17  0355    52381   14100      0    8.69e-01    0    6.10e-01
2002 04 17  0400    52381   14400      0    8.44e-01    0    5.94e-01
2002 04 17  0405    52381   14700      0    8.54e-01    0    5.97e-01
2002 04 17  0410    52381   15000      0    8.63e-01    0    6.03e-01
2002 04 17  0415    52381   15300      0    8.57e-01    0    5.92e-01
2002 04 17  0420    52381   15600      0    8.63e-01    0    5.99e-01
2002 04 17  0425    52381   15900      0    8.54e-01    0    5.94e-01
2002 04 17  0430    52381   16200      0    8.62e-01    0    5.90e-01
2002 04 17  0435    52381   16500      0    8.62e-01    0    5.99e-01
2002 04 17  0440    52381   16800      0    8.51e-01    0    5.94e-01
2002 04 17  0445    52381   17100      0    8.54e-01    0    5.93e-01
2002 04 17  0450    52381   17400      0    8.67e-01    0    6.10e-01
2002 04 17  0455    52381   17700      0    8.68e-01    0    6.08e-01
2002 04 17  0500    52381   18000      0    8.40e-01    0    5.87e-01
2002 04 17  0505    52381   18300      0    8.53e-01    0    5.87e-01
2002 04 17  0510    52381   18600      0    8.53e-01    0    5.97e-01
2002 04 17  0515    52381   18900      0    8.76e-01    0    6.14e-01
2002 04 17  0520    52381   19200      0    8.58e-01    0    6.00e-01
2002 04 17  0525    52381   19500      0    8.78e-01    0    6.10e-01
2002 04 17  0530    52381   19800      0    8.61e-01    0    5.93e-01
2002 04 17  0535    52381   20100      0    8.88e-01    0    6.28e-01
2002 04 17  0540    52381   20400      0    8.62e-01    0    6.02e-01
2002 04 17  0545    52381   20700      0    8.60e-01    0    5.92e-01
2002 04 17  0550    52381   21000      0    8.68e-01    0    6.06e-01
2002 04 17  0555    52381   21300      0    8.77e-01    0    6.14e-01
2002 04 17  0600    52381   21600      0    8.89e-01    0    6.14e-01
2002 04 17  0605    52381   21900      0    8.83e-01    0    6.13e-01
2002 04 17  0610    52381   22200      0    8.97e-01    0    6.25e-01
2002 04 17  0615    52381   22500      0    8.63e-01    0    5.96e-01
2002 04 17  0620    52381   22800      0    8.77e-01    0    6.07e-01
2002 04 17  0625    52381   23100      0    8.73e-01    0    6.03e-01
2002 04 17  0630    52381   23400      0    8.40e-01    0    5.93e-01
2002 04 17  0635    52381   23700      0    8.81e-01    0    6.19e-01
2002 04 17  0640    52381   24000      0    8.79e-01    0    6.04e-01
2002 04 17  0645    52381   24300      0    8.83e-01    0    6.11e-01
2002 04 17  0650    52381   24600      0    8.71e-01    0    6.08e-01
2002 04 17  0655    52381   24900      0    8.84e-01    0    6.23e-01
2002 04 17  0700    52381   25200      0    8.60e-01    0    6.02e-01
2002 04 17  0705    52381   25500      0    8.45e-01    0    5.84e-01
2002 04 17  0710    52381   25800      0    8.77e-01    0    6.13e-01
2002 04 17  0715    52381   26100      0    8.41e-01    0    5.90e-01
2002 04 17  0720    52381   26400      0    8.60e-01    0    5.91e-01
2002 04 17  0725    52381   26700      0    8.52e-01    0    5.91e-01
2002 04 17  0730    52381   27000      0    8.93e-01    0    6.14e-01
2002 04 17  0735    52381   27300      0    8.97e-01    0    6.28e-01
2002 04 17  0740    52381   27600      0    8.52e-01    0    5.87e-01
2002 04 17  0745    52381   27900      0    8.59e-01    0    5.99e-01
2002 04 17  0750    52381   28200      0    8.13e-01    0    5.68e-01
2002 04 17  0755    52381   28500      0    8.51e-01    0    5.96e-01
2002 04 17  0800    52381   28800      0    8.54e-01    0    6.02e-01
2002 04 17  0805    52381   29100      0    8.52e-01    0    5.93e-01
2002 04 17  0810    52381   29400      0    8.44e-01    0    5.91e-01
2002 04 17  0815    52381   29700      0    8.52e-01    0    5.96e-01
2002 04 17  0820    52381   30000      0    8.77e-01    0    6.11e-01
2002 04 17  0825    52381   30300      0    8.50e-01    0    5.92e-01
2002 04 17  0830    52381   30600      0    8.21e-01    0    5.71e-01
2002 04 17  0835    52381   30900      0    8.49e-01    0    5.89e-01
2002 04 17  0840    52381   31200      0    8.77e-01    0    6.16e-01
2002 04 17  0845    52381   31500      0    8.47e-01    0    5.93e-01
2002 04 17  0850    52381   31800      0    8.49e-01    0    5.97e-01
2002 04 17  0855    52381   32100      0    8.43e-01    0    5.88e-01
2002 04 17  0900    52381   32400      0    8.46e-01    0    5.99e-01
2002 04 17  0905    52381   32700      0    8.71e-01    0    6.07e-01
2002 04 17  0910    52381   33000      0    8.64e-01    0    5.96e-01
2002 04 17  0915    52381   33300      0    8.73e-01    0    6.06e-01
2002 04 17  0920    52381   33600      0    8.66e-01    0    6.04e-01
2002 04 17  0925    52381   33900      0    8.53e-01    0    5.94e-01
2002 04 17  0930    52381   34200      0    8.81e-01    0    6.11e-01
2002 04 17  0935    52381   34500      0    9.01e-01    0    6.30e-01
2002 04 17  0940    52381   34800      0    8.67e-01    0    5.98e-01
2002 04 17  0945    52381   35100      0    8.59e-01    0    6.02e-01
2002 04 17  0950    52381   35400      0    8.62e-01    0    6.00e-01
2002 04 17  0955    52381   35700      0    8.95e-01    0    6.18e-01
2002 04 17  1000    52381   36000      0    9.03e-01    0    6.18e-01
2002 04 17  1005    52381   36300      0    8.78e-01    0    5.93e-01
2002 04 17  1010    52381   36600      0    8.82e-01    0    6.21e-01
2002 04 17  1015    52381   36900      0    8.77e-01    0    6.10e-01
2002 04 17  1020    52381   37200      0    8.98e-01    0    6.32e-01
2002 04 17  1025    52381   37500      0    9.18e-01    0    6.30e-01
2002 04 17  1030    52381   37800      0    9.37e-01    0    6.38e-01
2002 04 17  1035    52381   38100      0    9.72e-01    0    6.53e-01
2002 04 17  1040    52381   38400      0    1.02e+00    0    6.72e-01
2002 04 17  1045    52381   38700      0    1.08e+00    0    6.81e-01
2002 04 17  1050    52381   39000      0    1.19e+00    0    7.11e-01
2002 04 17  1055    52381   39300      0    1.18e+00    0    7.23e-01
2002 04 17  1100    52381   39600      0    1.14e+00    0    6.80e-01
2002 04 17  1105    52381   39900      0    1.27e+00    0    7.05e-01
2002 04 17  1110    52381   40200      0    1.16e+00    0    7.24e-01
2002 04 17  1115    52381   40500      0    1.10e+00    0    7.30e-01
2002 04 17  1120    52381   40800      0    1.18e+00    0    7.08e-01
2002 04 17  1125    52381   41100      0    1.32e+00    0    7.32e-01
2002 04 17  1130    52381   41400      0    1.39e+00    0    7.74e-01
2002 04 17  1135    52381   41700      0    1.50e+00    0    8.00e-01
2002 04 17  1140    52381   42000      0    1.87e+00    0    8.69e-01
2002 04 17  1145    52381   42300      0    2.37e+00    0    9.31e-01
2002 04 17  1150    52381   42600      0    2.80e+00    0    1.03e+00
2002 04 17  1155    52381   42900      0    2.69e+00    0    9.74e-01
2002 04 17  1200    52381   43200      0    2.69e+00    0    9.87e-01
2002 04 17  1205    52381   43500      0    3.35e+00    0    1.13e+00
2002 04 17  1210    52381   43800      0    3.44e+00    0    1.10e+00
2002 04 17  1215    52381   44100      0    3.42e+00    0    1.08e+00
2002 04 17  1220    52381   44400      0    3.75e+00    0    1.16e+00
2002 04 17  1225    52381   44700      0    3.59e+00    0    1.10e+00
2002 04 17  1230    52381   45000      0    3.52e+00    0    1.16e+00
2002 04 17  1235    52381   45300      0    3.87e+00    0    1.16e+00
2002 04 17  1240    52381   45600      0    5.22e+00    0    1.35e+00
2002 04 17  1245    52381   45900      0    4.57e+00    0    1.35e+00
2002 04 17  1250    52381   46200      0    4.28e+00    0    1.24e+00
2002 04 17  1255    52381   46500      0    4.38e+00    0    1.26e+00
2002 04 17  1300    52381   46800      0    3.83e+00    0    1.22e+00
2002 04 17  1305    52381   47100      0    4.03e+00    0    1.16e+00
2002 04 17  1310    52381   47400      0    3.72e+00    0    1.15e+00
2002 04 17  1315    52381   47700      0    4.01e+00    0    1.18e+00
2002 04 17  1320    52381   48000      0    4.77e+00    0    1.34e+00
2002 04 17  1325    52381   48300      0    4.26e+00    0    1.17e+00
2002 04 17  1330    52381   48600      0    4.67e+00    0    1.20e+00
2002 04 17  1335    52381   48900      0    4.77e+00    0    1.24e+00
2002 04 17  1340    52381   49200      0    5.11e+00    0    1.22e+00
2002 04 17  1345    52381   49500      0    5.63e+00    0    1.28e+00
2002 04 17  1350    52381   49800      0    4.93e+00    0    1.27e+00
2002 04 17  1355    52381   50100      0    4.64e+00    0    1.20e+00
2002 04 17  1400    52381   50400      0    4.46e+00    0    1.12e+00
2002 04 17  1405    52381   50700      0    4.46e+00    0    1.16e+00
2002 04 17  1410    52381   51000      0    3.87e+00    0    1.12e+00
2002 04 17  1415    52381   51300      0    4.53e+00    0    1.14e+00
2002 04 17  1420    52381   51600      0    3.97e+00    0    1.06e+00
2002 04 17  1425    52381   51900      0    4.34e+00    0    1.11e+00
2002 04 17  1430    52381   52200      0    4.45e+00    0    1.14e+00
2002 04 17  1435    52381   52500      0    6.31e+00    0    1.31e+00
2002 04 17  1440    52381   52800      0    7.13e+00    0    1.37e+00
2002 04 17  1445    52381   53100      0    1.09e+01    0    1.63e+00
2002 04 17  1450    52381   53400      0    1.21e+01    0    1.68e+00
2002 04 17  1455    52381   53700      0    1.24e+01    0    1.81e+00
2002 04 17  1500    52381   54000      0    1.53e+01    0    1.96e+00
2002 04 17  1505    52381   54300      0    1.40e+01    0    1.70e+00
2002 04 17  1510    52381   54600      0    1.36e+01    0    1.62e+00
2002 04 17  1515    52381   54900      0    1.31e+01    0    1.75e+00
2002 04 17  1520    52381   55200      0    1.30e+01    0    1.62e+00
2002 04 17  1525    52381   55500      0    1.39e+01    0    1.79e+00
2002 04 17  1530    52381   55800      0    1.32e+01    0    1.83e+00
2002 04 17  1535    52381   56100      0    1.18e+01    0    1.63e+00
2002 04 17  1540    52381   56400      0    1.17e+01    0    1.60e+00
2002 04 17  1545    52381   56700      0    1.34e+01    0    1.69e+00
2002 04 17  1550    52381   57000      0    1.24e+01    0    1.69e+00
2002 04 17  1555    52381   57300      0    1.29e+01    0    1.69e+00
2002 04 17  1600    52381   57600      0    1.42e+01    0    1.65e+00
2002 04 17  1605    52381   57900      0    1.46e+01    0    1.59e+00
2002 04 17  1610    52381   58200      0    1.47e+01    0    1.49e+00
2002 04 17  1615    52381   58500      0    1.25e+01    0    1.51e+00
2002 04 17  1620    52381   58800      0    1.22e+01    0    1.47e+00
2002 04 17  1625    52381   59100      0    1.24e+01    0    1.46e+00
2002 04 17  1630    52381   59400      0    1.23e+01    0    1.60e+00
2002 04 17  1635    52381   59700      0    1.16e+01    0    1.47e+00
2002 04 17  1640    52381   60000      0    1.21e+01    0    1.58e+00
2002 04 17  1645    52381   60300      9   -1.00e+05    9   -1.00e+05
2002 04 17  1650    52381   60600      9   -1.00e+05    9   -1.00e+05
2002 04 17  1655    52381   60900      0    8.89e+00    0    2.94e+00
2002 04 17  1700    52381   61200      0    9.25e+00    0    1.44e+00
2002 04 17  1705    52381   61500      0    8.91e+00    0    1.52e+00
2002 04 17  1710    52381   61800      0    8.86e+00    0    1.42e+00
2002 04 17  1715    52381   62100      0    9.13e+00    0    1.47e+00
2002 04 17  1720    52381   62400      0    8.82e+00    0    1.46e+00
2002 04 17  1725    52381   62700      0    8.75e+00    0    1.49e+00
2002 04 17  1730    52381   63000      0    9.30e+00    0    1.41e+00
2002 04 17  1735    52381   63300      0    9.86e+00    0    1.44e+00
2002 04 17  1740    52381   63600      0    9.99e+00    0    1.43e+00
2002 04 17  1745    52381   63900      0    1.02e+01    0    1.36e+00
2002 04 17  1750    52381   64200      0    9.83e+00    0    1.38e+00
2002 04 17  1755    52381   64500      0    9.62e+00    0    1.38e+00
2002 04 17  1800    52381   64800      0    9.49e+00    0    1.42e+00
2002 04 17  1805    52381   65100      0    9.18e+00    0    1.26e+00
2002 04 17  1810    52381   65400      0    9.25e+00    0    1.29e+00
2002 04 17  1815    52381   65700      0    8.97e+00    0    1.28e+00
2002 04 17  1820    52381   66000      0    8.45e+00    0    1.28e+00
2002 04 17  1825    52381   66300      0    7.59e+00    0    1.27e+00
2002 04 17  1830    52381   66600      0    7.44e+00    0    1.27e+00
2002 04 17  1835    52381   66900      0    7.54e+00    0    1.24e+00
2002 04 17  1840    52381   67200      0    7.46e+00    0    1.14e+00
2002 04 17  1845    52381   67500      0    7.42e+00    0    1.13e+00
2002 04 17  1850    52381   67800      0    7.56e+00    0    1.19e+00
2002 04 17  1855    52381   68100      0    7.69e+00    0    1.26e+00
2002 04 17  1900    52381   68400      0    7.79e+00    0    1.09e+00
2002 04 17  1905    52381   68700      0    7.95e+00    0    1.13e+00
2002 04 17  1910    52381   69000      0    7.83e+00    0    1.19e+00
2002 04 17  1915    52381   69300      0    7.83e+00    0    1.19e+00
2002 04 17  1920    52381   69600      0    7.96e+00    0    1.15e+00
2002 04 17  1925    52381   69900      0    8.64e+00    0    1.15e+00
2002 04 17  1930    52381   70200      0    9.11e+00    0    1.16e+00
2002 04 17  1935    52381   70500      0    8.05e+00    0    1.05e+00
2002 04 17  1940    52381   70800      0    8.44e+00    0    1.13e+00
2002 04 17  1945    52381   71100      0    7.61e+00    0    1.13e+00
2002 04 17  1950    52381   71400      0    7.95e+00    0    1.08e+00
2002 04 17  1955    52381   71700      0    8.75e+00    0    1.07e+00
2002 04 17  2000    52381   72000      0    8.64e+00    0    9.52e-01
2002 04 17  2005    52381   72300      0    8.38e+00    0    9.50e-01
2002 04 17  2010    52381   72600      0    8.54e+00    0    1.10e+00
2002 04 17  2015    52381   72900      0    9.03e+00    0    1.11e+00
2002 04 17  2020    52381   73200      0    8.39e+00    0    9.68e-01
2002 04 17  2025    52381   73500      0    8.30e+00    0    9.42e-01
2002 04 17  2030    52381   73800      0    8.59e+00    0    1.07e+00
2002 04 17  2035    52381   74100      0    8.39e+00    0    9.94e-01
2002 04 17  2040    52381   74400      0    9.03e+00    0    1.03e+00
2002 04 17  2045    52381   74700      0    8.58e+00    0    1.04e+00
2002 04 17  2050    52381   75000      0    8.44e+00    0    9.92e-01
2002 04 17  2055    52381   75300      0    8.13e+00    0    1.00e+00
2002 04 17  2100    52381   75600      0    8.22e+00    0    9.92e-01
2002 04 17  2105    52381   75900      0    8.46e+00    0    1.08e+00
2002 04 17  2110    52381   76200      0    8.49e+00    0    9.93e-01
2002 04 17  2115    52381   76500      0    8.42e+00    0    1.06e+00
2002 04 17  2120    52381   76800      0    8.26e+00    0    9.87e-01
2002 04 17  2125    52381   77100      0    8.71e+00    0    1.06e+00
2002 04 17  2130    52381   77400      0    8.44e+00    0    9.72e-01
2002 04 17  2135    52381   77700      0    8.51e+00    0    1.02e+00
2002 04 17  2140    52381   78000      0    8.80e+00    0    9.13e-01
2002 04 17  2145    52381   78300      0    8.92e+00    0    9.28e-01
2002 04 17  2150    52381   78600      0    8.79e+00    0    9.01e-01
2002 04 17  2155    52381   78900      0    8.71e+00    0    9.29e-01
2002 04 17  2200    52381   79200      0    8.42e+00    0    9.29e-01
2002 04 17  2205    52381   79500      0    8.83e+00    0    9.73e-01
2002 04 17  2210    52381   79800      0    8.72e+00    0    8.30e-01
2002 04 17  2215    52381   80100      0    8.54e+00    0    9.48e-01
2002 04 17  2220    52381   80400      0    8.52e+00    0    9.17e-01
2002 04 17  2225    52381   80700      0    8.96e+00    0    9.06e-01
2002 04 17  2230    52381   81000      0    8.76e+00    0    8.38e-01
2002 04 17  2235    52381   81300      0    8.67e+00    0    9.12e-01
2002 04 17  2240    52381   81600      0    8.39e+00    0    9.53e-01
2002 04 17  2245    52381   81900      0    8.00e+00    0    9.30e-01
2002 04 17  2250    52381   82200      0    7.98e+00    0    8.19e-01
2002 04 17  2255    52381   82500      0    7.92e+00    0    9.32e-01
2002 04 17  2300    52381   82800      0    8.11e+00    0    9.16e-01
2002 04 17  2305    52381   83100      0    8.48e+00    0    9.52e-01
2002 04 17  2310    52381   83400      0    8.34e+00    0    9.24e-01
2002 04 17  2315    52381   83700      0    8.10e+00    0    9.86e-01
2002 04 17  2320    52381   84000      0    8.55e+00    0    9.69e-01
2002 04 17  2325    52381   84300      0    8.53e+00    0    9.71e-01
2002 04 17  2330    52381   84600      0    8.81e+00    0    1.00e+00
2002 04 17  2335    52381   84900      0    8.39e+00    0    9.04e-01
2002 04 17  2340    52381   85200      0    8.01e+00    0    9.29e-01
2002 04 17  2345    52381   85500      0    7.45e+00    0    9.19e-01
2002 04 17  2350    52381   85800      0    7.50e+00    0    9.34e-01
2002 04 17  2355    52381   86100      0    7.20e+00    0    8.74e-01
