:Data_list: 20031108_ace_sis_5m.txt
:Created: 2003 Nov 09 0011 UT
# Prepared by the U.S. Dept. of Commerce, NOAA, Space Environment Center.
# Please send comments and suggestions to SEC.Webmaster@noaa.gov 
# 
# Units: proton flux p/cs2-sec-ster
# Status(S): 0 = nominal data, 1 to 8 = bad data record, 9 = no data
# Missing data values: -1.00e+05
# Source: ACE Satellite - Solar Isotope Spectrometer
#
# 5-minute averaged Real-time Integral Flux of High-energy Solar Protons
# 
#                 Modified Seconds
# UT Date   Time   Julian  of the      ---- Integral Proton Flux ----
# YR MO DA  HHMM     Day     Day       S    > 10 MeV    S    > 30 MeV
#--------------------------------------------------------------------
2003 11 08  0000    52951       0      0    1.19e+01    0    1.69e+00
2003 11 08  0005    52951     300      0    1.14e+01    0    1.66e+00
2003 11 08  0010    52951     600      0    1.15e+01    0    1.69e+00
2003 11 08  0015    52951     900      0    1.14e+01    0    1.67e+00
2003 11 08  0020    52951    1200      0    1.10e+01    0    1.60e+00
2003 11 08  0025    52951    1500      0    1.11e+01    0    1.62e+00
2003 11 08  0030    52951    1800      0    1.11e+01    0    1.69e+00
2003 11 08  0035    52951    2100      0    1.08e+01    0    1.62e+00
2003 11 08  0040    52951    2400      0    1.09e+01    0    1.67e+00
2003 11 08  0045    52951    2700      0    1.14e+01    0    1.68e+00
2003 11 08  0050    52951    3000      0    1.09e+01    0    1.66e+00
2003 11 08  0055    52951    3300      0    1.09e+01    0    1.67e+00
2003 11 08  0100    52951    3600      0    1.09e+01    0    1.57e+00
2003 11 08  0105    52951    3900      0    1.11e+01    0    1.62e+00
2003 11 08  0110    52951    4200      0    1.10e+01    0    1.62e+00
2003 11 08  0115    52951    4500      0    1.10e+01    0    1.65e+00
2003 11 08  0120    52951    4800      0    1.09e+01    0    1.55e+00
2003 11 08  0125    52951    5100      0    1.10e+01    0    1.59e+00
2003 11 08  0130    52951    5400      0    1.10e+01    0    1.69e+00
2003 11 08  0135    52951    5700      0    1.07e+01    0    1.49e+00
2003 11 08  0140    52951    6000      0    1.10e+01    0    1.63e+00
2003 11 08  0145    52951    6300      0    1.08e+01    0    1.58e+00
2003 11 08  0150    52951    6600      0    1.08e+01    0    1.58e+00
2003 11 08  0155    52951    6900      0    1.05e+01    0    1.63e+00
2003 11 08  0200    52951    7200      0    1.05e+01    0    1.56e+00
2003 11 08  0205    52951    7500      0    1.04e+01    0    1.53e+00
2003 11 08  0210    52951    7800      0    1.05e+01    0    1.56e+00
2003 11 08  0215    52951    8100      0    1.04e+01    0    1.62e+00
2003 11 08  0220    52951    8400      0    1.03e+01    0    1.59e+00
2003 11 08  0225    52951    8700      0    1.01e+01    0    1.51e+00
2003 11 08  0230    52951    9000      0    1.00e+01    0    1.55e+00
2003 11 08  0235    52951    9300      0    1.01e+01    0    1.59e+00
2003 11 08  0240    52951    9600      0    9.84e+00    0    1.51e+00
2003 11 08  0245    52951    9900      0    1.00e+01    0    1.61e+00
2003 11 08  0250    52951   10200      0    9.93e+00    0    1.60e+00
2003 11 08  0255    52951   10500      0    1.01e+01    0    1.55e+00
2003 11 08  0300    52951   10800      0    9.82e+00    0    1.56e+00
2003 11 08  0305    52951   11100      0    9.71e+00    0    1.56e+00
2003 11 08  0310    52951   11400      0    9.57e+00    0    1.48e+00
2003 11 08  0315    52951   11700      0    9.66e+00    0    1.54e+00
2003 11 08  0320    52951   12000      0    9.61e+00    0    1.53e+00
2003 11 08  0325    52951   12300      0    9.43e+00    0    1.51e+00
2003 11 08  0330    52951   12600      0    9.54e+00    0    1.55e+00
2003 11 08  0335    52951   12900      0    9.67e+00    0    1.68e+00
2003 11 08  0340    52951   13200      0    9.45e+00    0    1.53e+00
2003 11 08  0345    52951   13500      0    9.57e+00    0    1.61e+00
2003 11 08  0350    52951   13800      0    9.35e+00    0    1.58e+00
2003 11 08  0355    52951   14100      0    9.41e+00    0    1.59e+00
2003 11 08  0400    52951   14400      0    9.36e+00    0    1.57e+00
2003 11 08  0405    52951   14700      0    9.30e+00    0    1.52e+00
2003 11 08  0410    52951   15000      0    9.25e+00    0    1.51e+00
2003 11 08  0415    52951   15300      0    9.19e+00    0    1.51e+00
2003 11 08  0420    52951   15600      0    9.06e+00    0    1.56e+00
2003 11 08  0425    52951   15900      0    8.82e+00    0    1.51e+00
2003 11 08  0430    52951   16200      0    9.07e+00    0    1.57e+00
2003 11 08  0435    52951   16500      0    8.89e+00    0    1.49e+00
2003 11 08  0440    52951   16800      0    8.79e+00    0    1.49e+00
2003 11 08  0445    52951   17100      0    8.74e+00    0    1.51e+00
2003 11 08  0450    52951   17400      0    8.75e+00    0    1.52e+00
2003 11 08  0455    52951   17700      0    8.61e+00    0    1.52e+00
2003 11 08  0500    52951   18000      0    8.64e+00    0    1.46e+00
2003 11 08  0505    52951   18300      0    8.41e+00    0    1.43e+00
2003 11 08  0510    52951   18600      0    8.45e+00    0    1.50e+00
2003 11 08  0515    52951   18900      0    8.48e+00    0    1.52e+00
2003 11 08  0520    52951   19200      0    8.43e+00    0    1.49e+00
2003 11 08  0525    52951   19500      0    8.32e+00    0    1.51e+00
2003 11 08  0530    52951   19800      0    8.25e+00    0    1.46e+00
2003 11 08  0535    52951   20100      0    8.51e+00    0    1.57e+00
2003 11 08  0540    52951   20400      0    8.30e+00    0    1.48e+00
2003 11 08  0545    52951   20700      0    8.18e+00    0    1.47e+00
2003 11 08  0550    52951   21000      9   -1.00e+05    9   -1.00e+05
2003 11 08  0555    52951   21300      9   -1.00e+05    9   -1.00e+05
2003 11 08  0600    52951   21600      9   -1.00e+05    9   -1.00e+05
2003 11 08  0605    52951   21900      9   -1.00e+05    9   -1.00e+05
2003 11 08  0610    52951   22200      9   -1.00e+05    9   -1.00e+05
2003 11 08  0615    52951   22500      9   -1.00e+05    9   -1.00e+05
2003 11 08  0620    52951   22800      9   -1.00e+05    9   -1.00e+05
2003 11 08  0625    52951   23100      9   -1.00e+05    9   -1.00e+05
2003 11 08  0630    52951   23400      9   -1.00e+05    9   -1.00e+05
2003 11 08  0635    52951   23700      9   -1.00e+05    9   -1.00e+05
2003 11 08  0640    52951   24000      9   -1.00e+05    9   -1.00e+05
2003 11 08  0645    52951   24300      9   -1.00e+05    9   -1.00e+05
2003 11 08  0650    52951   24600      9   -1.00e+05    9   -1.00e+05
2003 11 08  0655    52951   24900      9   -1.00e+05    9   -1.00e+05
2003 11 08  0700    52951   25200      9   -1.00e+05    9   -1.00e+05
2003 11 08  0705    52951   25500      9   -1.00e+05    9   -1.00e+05
2003 11 08  0710    52951   25800      9   -1.00e+05    9   -1.00e+05
2003 11 08  0715    52951   26100      9   -1.00e+05    9   -1.00e+05
2003 11 08  0720    52951   26400      9   -1.00e+05    9   -1.00e+05
2003 11 08  0725    52951   26700      9   -1.00e+05    9   -1.00e+05
2003 11 08  0730    52951   27000      9   -1.00e+05    9   -1.00e+05
2003 11 08  0735    52951   27300      9   -1.00e+05    9   -1.00e+05
2003 11 08  0740    52951   27600      9   -1.00e+05    9   -1.00e+05
2003 11 08  0745    52951   27900      9   -1.00e+05    9   -1.00e+05
2003 11 08  0750    52951   28200      9   -1.00e+05    9   -1.00e+05
2003 11 08  0755    52951   28500      9   -1.00e+05    9   -1.00e+05
2003 11 08  0800    52951   28800      9   -1.00e+05    9   -1.00e+05
2003 11 08  0805    52951   29100      9   -1.00e+05    9   -1.00e+05
2003 11 08  0810    52951   29400      9   -1.00e+05    9   -1.00e+05
2003 11 08  0815    52951   29700      9   -1.00e+05    9   -1.00e+05
2003 11 08  0820    52951   30000      9   -1.00e+05    9   -1.00e+05
2003 11 08  0825    52951   30300      9   -1.00e+05    9   -1.00e+05
2003 11 08  0830    52951   30600      0    7.43e+00    0    1.55e+00
2003 11 08  0835    52951   30900      0    7.54e+00    0    1.48e+00
2003 11 08  0840    52951   31200      0    7.39e+00    0    1.51e+00
2003 11 08  0845    52951   31500      0    7.22e+00    0    1.42e+00
2003 11 08  0850    52951   31800      0    7.39e+00    0    1.51e+00
2003 11 08  0855    52951   32100      0    7.39e+00    0    1.53e+00
2003 11 08  0900    52951   32400      0    7.33e+00    0    1.48e+00
2003 11 08  0905    52951   32700      0    7.27e+00    0    1.47e+00
2003 11 08  0910    52951   33000      0    7.23e+00    0    1.49e+00
2003 11 08  0915    52951   33300      0    7.16e+00    0    1.43e+00
2003 11 08  0920    52951   33600      0    7.14e+00    0    1.53e+00
2003 11 08  0925    52951   33900      0    7.08e+00    0    1.44e+00
2003 11 08  0930    52951   34200      0    7.08e+00    0    1.46e+00
2003 11 08  0935    52951   34500      0    7.02e+00    0    1.49e+00
2003 11 08  0940    52951   34800      0    6.90e+00    0    1.44e+00
2003 11 08  0945    52951   35100      0    6.94e+00    0    1.43e+00
2003 11 08  0950    52951   35400      0    6.89e+00    0    1.44e+00
2003 11 08  0955    52951   35700      0    6.91e+00    0    1.47e+00
2003 11 08  1000    52951   36000      0    6.82e+00    0    1.42e+00
2003 11 08  1005    52951   36300      0    6.90e+00    0    1.48e+00
2003 11 08  1010    52951   36600      0    6.86e+00    0    1.45e+00
2003 11 08  1015    52951   36900      0    6.84e+00    0    1.45e+00
2003 11 08  1020    52951   37200      0    6.74e+00    0    1.42e+00
2003 11 08  1025    52951   37500      0    6.83e+00    0    1.46e+00
2003 11 08  1030    52951   37800      0    6.89e+00    0    1.52e+00
2003 11 08  1035    52951   38100      0    6.89e+00    0    1.49e+00
2003 11 08  1040    52951   38400      0    6.85e+00    0    1.49e+00
2003 11 08  1045    52951   38700      0    6.90e+00    0    1.52e+00
2003 11 08  1050    52951   39000      0    6.73e+00    0    1.42e+00
2003 11 08  1055    52951   39300      0    6.80e+00    0    1.50e+00
2003 11 08  1100    52951   39600      0    6.93e+00    0    1.52e+00
2003 11 08  1105    52951   39900      0    6.98e+00    0    1.46e+00
2003 11 08  1110    52951   40200      0    6.82e+00    0    1.49e+00
2003 11 08  1115    52951   40500      0    6.81e+00    0    1.47e+00
2003 11 08  1120    52951   40800      0    6.80e+00    0    1.48e+00
2003 11 08  1125    52951   41100      0    6.91e+00    0    1.50e+00
2003 11 08  1130    52951   41400      0    6.79e+00    0    1.47e+00
2003 11 08  1135    52951   41700      0    6.62e+00    0    1.43e+00
2003 11 08  1140    52951   42000      0    6.50e+00    0    1.44e+00
2003 11 08  1145    52951   42300      0    6.72e+00    0    1.49e+00
2003 11 08  1150    52951   42600      0    6.55e+00    0    1.45e+00
2003 11 08  1155    52951   42900      0    6.59e+00    0    1.45e+00
2003 11 08  1200    52951   43200      0    6.52e+00    0    1.41e+00
2003 11 08  1205    52951   43500      0    6.71e+00    0    1.51e+00
2003 11 08  1210    52951   43800      0    6.67e+00    0    1.50e+00
2003 11 08  1215    52951   44100      0    6.54e+00    0    1.49e+00
2003 11 08  1220    52951   44400      0    6.37e+00    0    1.40e+00
2003 11 08  1225    52951   44700      0    6.40e+00    0    1.45e+00
2003 11 08  1230    52951   45000      0    6.35e+00    0    1.46e+00
2003 11 08  1235    52951   45300      0    6.46e+00    0    1.44e+00
2003 11 08  1240    52951   45600      0    6.45e+00    0    1.48e+00
2003 11 08  1245    52951   45900      0    6.50e+00    0    1.50e+00
2003 11 08  1250    52951   46200      0    3.62e+00    0    1.06e+00
2003 11 08  1255    52951   46500      0    6.45e+00    0    1.48e+00
2003 11 08  1300    52951   46800      0    6.42e+00    0    1.52e+00
2003 11 08  1305    52951   47100      0    6.37e+00    0    1.52e+00
2003 11 08  1310    52951   47400      0    6.33e+00    0    1.45e+00
2003 11 08  1315    52951   47700      0    6.29e+00    0    1.44e+00
2003 11 08  1320    52951   48000      0    6.48e+00    0    1.52e+00
2003 11 08  1325    52951   48300      0    6.52e+00    0    1.55e+00
2003 11 08  1330    52951   48600      0    6.43e+00    0    1.48e+00
2003 11 08  1335    52951   48900      0    6.29e+00    0    1.45e+00
2003 11 08  1340    52951   49200      0    6.29e+00    0    1.48e+00
2003 11 08  1345    52951   49500      0    6.28e+00    0    1.45e+00
2003 11 08  1350    52951   49800      0    6.24e+00    0    1.48e+00
2003 11 08  1355    52951   50100      0    6.27e+00    0    1.53e+00
2003 11 08  1400    52951   50400      0    6.08e+00    0    1.45e+00
2003 11 08  1405    52951   50700      0    6.08e+00    0    1.39e+00
2003 11 08  1410    52951   51000      0    6.26e+00    0    1.51e+00
2003 11 08  1415    52951   51300      0    6.24e+00    0    1.48e+00
2003 11 08  1420    52951   51600      0    6.10e+00    0    1.43e+00
2003 11 08  1425    52951   51900      0    6.11e+00    0    1.46e+00
2003 11 08  1430    52951   52200      0    6.11e+00    0    1.43e+00
2003 11 08  1435    52951   52500      0    6.03e+00    0    1.43e+00
2003 11 08  1440    52951   52800      0    6.19e+00    0    1.47e+00
2003 11 08  1445    52951   53100      0    6.04e+00    0    1.43e+00
2003 11 08  1450    52951   53400      0    6.05e+00    0    1.48e+00
2003 11 08  1455    52951   53700      0    6.00e+00    0    1.43e+00
2003 11 08  1500    52951   54000      0    6.24e+00    0    1.56e+00
2003 11 08  1505    52951   54300      0    6.14e+00    0    1.50e+00
2003 11 08  1510    52951   54600      0    6.16e+00    0    1.48e+00
2003 11 08  1515    52951   54900      0    5.89e+00    0    1.44e+00
2003 11 08  1520    52951   55200      0    5.81e+00    0    1.48e+00
2003 11 08  1525    52951   55500      0    5.75e+00    0    1.43e+00
2003 11 08  1530    52951   55800      0    5.92e+00    0    1.52e+00
2003 11 08  1535    52951   56100      0    5.77e+00    0    1.44e+00
2003 11 08  1540    52951   56400      0    5.73e+00    0    1.46e+00
2003 11 08  1545    52951   56700      0    5.63e+00    0    1.50e+00
2003 11 08  1550    52951   57000      0    5.57e+00    0    1.43e+00
2003 11 08  1555    52951   57300      0    5.49e+00    0    1.43e+00
2003 11 08  1600    52951   57600      0    5.45e+00    0    1.43e+00
2003 11 08  1605    52951   57900      0    5.45e+00    0    1.43e+00
2003 11 08  1610    52951   58200      0    5.37e+00    0    1.42e+00
2003 11 08  1615    52951   58500      0    5.23e+00    0    1.43e+00
2003 11 08  1620    52951   58800      0    5.16e+00    0    1.40e+00
2003 11 08  1625    52951   59100      0    5.27e+00    0    1.44e+00
2003 11 08  1630    52951   59400      0    5.14e+00    0    1.36e+00
2003 11 08  1635    52951   59700      0    5.19e+00    0    1.40e+00
2003 11 08  1640    52951   60000      0    5.32e+00    0    1.44e+00
2003 11 08  1645    52951   60300      0    5.43e+00    0    1.42e+00
2003 11 08  1650    52951   60600      0    5.33e+00    0    1.43e+00
2003 11 08  1655    52951   60900      0    5.31e+00    0    1.43e+00
2003 11 08  1700    52951   61200      0    5.34e+00    0    1.41e+00
2003 11 08  1705    52951   61500      0    5.34e+00    0    1.46e+00
2003 11 08  1710    52951   61800      0    5.38e+00    0    1.45e+00
2003 11 08  1715    52951   62100      0    5.38e+00    0    1.47e+00
2003 11 08  1720    52951   62400      0    5.31e+00    0    1.47e+00
2003 11 08  1725    52951   62700      0    5.20e+00    0    1.38e+00
2003 11 08  1730    52951   63000      0    5.22e+00    0    1.50e+00
2003 11 08  1735    52951   63300      0    5.19e+00    0    1.48e+00
2003 11 08  1740    52951   63600      0    5.18e+00    0    1.44e+00
2003 11 08  1745    52951   63900      0    5.06e+00    0    1.41e+00
2003 11 08  1750    52951   64200      0    5.08e+00    0    1.41e+00
2003 11 08  1755    52951   64500      0    4.93e+00    0    1.36e+00
2003 11 08  1800    52951   64800      0    4.77e+00    0    1.33e+00
2003 11 08  1805    52951   65100      0    4.79e+00    0    1.35e+00
2003 11 08  1810    52951   65400      0    4.78e+00    0    1.38e+00
2003 11 08  1815    52951   65700      0    4.95e+00    0    1.41e+00
2003 11 08  1820    52951   66000      0    4.93e+00    0    1.38e+00
2003 11 08  1825    52951   66300      0    4.83e+00    0    1.37e+00
2003 11 08  1830    52951   66600      0    4.85e+00    0    1.42e+00
2003 11 08  1835    52951   66900      0    4.78e+00    0    1.37e+00
2003 11 08  1840    52951   67200      0    4.73e+00    0    1.36e+00
2003 11 08  1845    52951   67500      0    4.69e+00    0    1.37e+00
2003 11 08  1850    52951   67800      0    4.69e+00    0    1.36e+00
2003 11 08  1855    52951   68100      0    4.76e+00    0    1.38e+00
2003 11 08  1900    52951   68400      0    4.75e+00    0    1.38e+00
2003 11 08  1905    52951   68700      0    4.71e+00    0    1.41e+00
2003 11 08  1910    52951   69000      0    4.75e+00    0    1.39e+00
2003 11 08  1915    52951   69300      0    4.66e+00    0    1.42e+00
2003 11 08  1920    52951   69600      0    4.68e+00    0    1.38e+00
2003 11 08  1925    52951   69900      0    4.70e+00    0    1.36e+00
2003 11 08  1930    52951   70200      0    4.77e+00    0    1.40e+00
2003 11 08  1935    52951   70500      0    4.78e+00    0    1.42e+00
2003 11 08  1940    52951   70800      0    4.82e+00    0    1.44e+00
2003 11 08  1945    52951   71100      0    4.74e+00    0    1.38e+00
2003 11 08  1950    52951   71400      0    4.78e+00    0    1.44e+00
2003 11 08  1955    52951   71700      0    4.80e+00    0    1.43e+00
2003 11 08  2000    52951   72000      0    4.76e+00    0    1.44e+00
2003 11 08  2005    52951   72300      0    4.74e+00    0    1.42e+00
2003 11 08  2010    52951   72600      0    4.51e+00    0    1.34e+00
2003 11 08  2015    52951   72900      0    4.86e+00    0    1.44e+00
2003 11 08  2020    52951   73200      0    4.87e+00    0    1.48e+00
2003 11 08  2025    52951   73500      0    4.85e+00    0    1.43e+00
2003 11 08  2030    52951   73800      0    4.65e+00    0    1.42e+00
2003 11 08  2035    52951   74100      0    4.52e+00    0    1.37e+00
2003 11 08  2040    52951   74400      0    4.57e+00    0    1.38e+00
2003 11 08  2045    52951   74700      0    4.59e+00    0    1.39e+00
2003 11 08  2050    52951   75000      0    4.62e+00    0    1.38e+00
2003 11 08  2055    52951   75300      0    4.49e+00    0    1.35e+00
2003 11 08  2100    52951   75600      0    4.48e+00    0    1.35e+00
2003 11 08  2105    52951   75900      0    4.55e+00    0    1.39e+00
2003 11 08  2110    52951   76200      0    4.59e+00    0    1.38e+00
2003 11 08  2115    52951   76500      0    4.56e+00    0    1.37e+00
2003 11 08  2120    52951   76800      0    4.69e+00    0    1.44e+00
2003 11 08  2125    52951   77100      0    4.56e+00    0    1.39e+00
2003 11 08  2130    52951   77400      0    4.55e+00    0    1.36e+00
2003 11 08  2135    52951   77700      0    4.59e+00    0    1.40e+00
2003 11 08  2140    52951   78000      0    4.56e+00    0    1.42e+00
2003 11 08  2145    52951   78300      0    4.45e+00    0    1.36e+00
2003 11 08  2150    52951   78600      0    4.46e+00    0    1.34e+00
2003 11 08  2155    52951   78900      0    4.48e+00    0    1.37e+00
2003 11 08  2200    52951   79200      0    4.51e+00    0    1.39e+00
2003 11 08  2205    52951   79500      0    4.46e+00    0    1.37e+00
2003 11 08  2210    52951   79800      0    4.51e+00    0    1.39e+00
2003 11 08  2215    52951   80100      0    4.31e+00    0    1.33e+00
2003 11 08  2220    52951   80400      0    4.34e+00    0    1.33e+00
2003 11 08  2225    52951   80700      0    4.34e+00    0    1.37e+00
2003 11 08  2230    52951   81000      0    4.35e+00    0    1.35e+00
2003 11 08  2235    52951   81300      0    4.28e+00    0    1.35e+00
2003 11 08  2240    52951   81600      0    4.25e+00    0    1.31e+00
2003 11 08  2245    52951   81900      0    4.34e+00    0    1.35e+00
2003 11 08  2250    52951   82200      0    4.32e+00    0    1.35e+00
2003 11 08  2255    52951   82500      0    4.34e+00    0    1.39e+00
2003 11 08  2300    52951   82800      0    4.26e+00    0    1.33e+00
2003 11 08  2305    52951   83100      0    4.21e+00    0    1.32e+00
2003 11 08  2310    52951   83400      0    4.23e+00    0    1.31e+00
2003 11 08  2315    52951   83700      0    4.18e+00    0    1.30e+00
2003 11 08  2320    52951   84000      0    4.11e+00    0    1.31e+00
2003 11 08  2325    52951   84300      0    4.13e+00    0    1.30e+00
2003 11 08  2330    52951   84600      0    4.24e+00    0    1.34e+00
2003 11 08  2335    52951   84900      0    4.11e+00    0    1.29e+00
2003 11 08  2340    52951   85200      0    4.13e+00    0    1.29e+00
2003 11 08  2345    52951   85500      0    4.14e+00    0    1.29e+00
2003 11 08  2350    52951   85800      0    4.13e+00    0    1.30e+00
2003 11 08  2355    52951   86100      0    4.00e+00    0    1.29e+00
