:Data_list: 20031110_ace_sis_5m.txt
:Created: 2003 Nov 11 0011 UT
# Prepared by the U.S. Dept. of Commerce, NOAA, Space Environment Center.
# Please send comments and suggestions to SEC.Webmaster@noaa.gov 
# 
# Units: proton flux p/cs2-sec-ster
# Status(S): 0 = nominal data, 1 to 8 = bad data record, 9 = no data
# Missing data values: -1.00e+05
# Source: ACE Satellite - Solar Isotope Spectrometer
#
# 5-minute averaged Real-time Integral Flux of High-energy Solar Protons
# 
#                 Modified Seconds
# UT Date   Time   Julian  of the      ---- Integral Proton Flux ----
# YR MO DA  HHMM     Day     Day       S    > 10 MeV    S    > 30 MeV
#--------------------------------------------------------------------
2003 11 10  0000    52953       0      0    2.22e+00    0    8.90e-01
2003 11 10  0005    52953     300      0    2.24e+00    0    8.86e-01
2003 11 10  0010    52953     600      0    2.22e+00    0    8.75e-01
2003 11 10  0015    52953     900      0    2.20e+00    0    8.69e-01
2003 11 10  0020    52953    1200      0    2.23e+00    0    8.88e-01
2003 11 10  0025    52953    1500      0    2.22e+00    0    8.82e-01
2003 11 10  0030    52953    1800      0    2.23e+00    0    8.89e-01
2003 11 10  0035    52953    2100      0    2.25e+00    0    9.01e-01
2003 11 10  0040    52953    2400      0    2.21e+00    0    8.84e-01
2003 11 10  0045    52953    2700      0    2.25e+00    0    8.93e-01
2003 11 10  0050    52953    3000      0    2.22e+00    0    8.57e-01
2003 11 10  0055    52953    3300      0    2.19e+00    0    8.67e-01
2003 11 10  0100    52953    3600      0    2.24e+00    0    8.83e-01
2003 11 10  0105    52953    3900      0    2.27e+00    0    8.82e-01
2003 11 10  0110    52953    4200      0    2.28e+00    0    9.07e-01
2003 11 10  0115    52953    4500      0    2.33e+00    0    9.00e-01
2003 11 10  0120    52953    4800      0    2.34e+00    0    9.32e-01
2003 11 10  0125    52953    5100      0    2.30e+00    0    8.91e-01
2003 11 10  0130    52953    5400      0    2.30e+00    0    9.01e-01
2003 11 10  0135    52953    5700      0    2.26e+00    0    8.89e-01
2003 11 10  0140    52953    6000      0    2.24e+00    0    8.68e-01
2003 11 10  0145    52953    6300      0    2.26e+00    0    8.85e-01
2003 11 10  0150    52953    6600      0    2.23e+00    0    8.79e-01
2003 11 10  0155    52953    6900      0    2.27e+00    0    8.87e-01
2003 11 10  0200    52953    7200      0    2.27e+00    0    8.92e-01
2003 11 10  0205    52953    7500      0    2.29e+00    0    8.93e-01
2003 11 10  0210    52953    7800      0    2.26e+00    0    8.95e-01
2003 11 10  0215    52953    8100      0    2.31e+00    0    9.11e-01
2003 11 10  0220    52953    8400      0    2.16e+00    0    8.62e-01
2003 11 10  0225    52953    8700      0    2.25e+00    0    8.71e-01
2003 11 10  0230    52953    9000      0    2.27e+00    0    8.94e-01
2003 11 10  0235    52953    9300      0    2.28e+00    0    8.88e-01
2003 11 10  0240    52953    9600      0    2.27e+00    0    8.87e-01
2003 11 10  0245    52953    9900      0    2.22e+00    0    8.78e-01
2003 11 10  0250    52953   10200      0    2.25e+00    0    8.86e-01
2003 11 10  0255    52953   10500      0    2.23e+00    0    8.81e-01
2003 11 10  0300    52953   10800      0    2.28e+00    0    8.91e-01
2003 11 10  0305    52953   11100      0    2.26e+00    0    8.89e-01
2003 11 10  0310    52953   11400      0    2.24e+00    0    8.76e-01
2003 11 10  0315    52953   11700      0    2.25e+00    0    8.90e-01
2003 11 10  0320    52953   12000      0    2.25e+00    0    8.94e-01
2003 11 10  0325    52953   12300      0    2.24e+00    0    8.76e-01
2003 11 10  0330    52953   12600      0    2.24e+00    0    8.68e-01
2003 11 10  0335    52953   12900      0    2.28e+00    0    9.02e-01
2003 11 10  0340    52953   13200      0    2.32e+00    0    9.13e-01
2003 11 10  0345    52953   13500      0    2.31e+00    0    9.03e-01
2003 11 10  0350    52953   13800      0    2.30e+00    0    8.84e-01
2003 11 10  0355    52953   14100      0    2.25e+00    0    8.72e-01
2003 11 10  0400    52953   14400      0    2.26e+00    0    8.84e-01
2003 11 10  0405    52953   14700      0    2.25e+00    0    8.91e-01
2003 11 10  0410    52953   15000      0    2.25e+00    0    8.89e-01
2003 11 10  0415    52953   15300      0    2.21e+00    0    8.61e-01
2003 11 10  0420    52953   15600      0    2.22e+00    0    8.77e-01
2003 11 10  0425    52953   15900      0    2.23e+00    0    8.93e-01
2003 11 10  0430    52953   16200      0    2.26e+00    0    8.90e-01
2003 11 10  0435    52953   16500      0    2.27e+00    0    8.96e-01
2003 11 10  0440    52953   16800      0    2.27e+00    0    9.06e-01
2003 11 10  0445    52953   17100      0    2.25e+00    0    8.89e-01
2003 11 10  0450    52953   17400      0    2.18e+00    0    8.17e-01
2003 11 10  0455    52953   17700      0    2.25e+00    0    8.88e-01
2003 11 10  0500    52953   18000      0    2.22e+00    0    8.67e-01
2003 11 10  0505    52953   18300      0    2.21e+00    0    8.75e-01
2003 11 10  0510    52953   18600      0    2.19e+00    0    8.67e-01
2003 11 10  0515    52953   18900      0    2.23e+00    0    8.88e-01
2003 11 10  0520    52953   19200      0    2.21e+00    0    8.83e-01
2003 11 10  0525    52953   19500      0    2.18e+00    0    8.70e-01
2003 11 10  0530    52953   19800      0    2.17e+00    0    8.55e-01
2003 11 10  0535    52953   20100      0    2.20e+00    0    8.67e-01
2003 11 10  0540    52953   20400      0    2.11e+00    0    8.22e-01
2003 11 10  0545    52953   20700      0    2.21e+00    0    8.81e-01
2003 11 10  0550    52953   21000      0    2.23e+00    0    8.92e-01
2003 11 10  0555    52953   21300      0    2.23e+00    0    8.85e-01
2003 11 10  0600    52953   21600      0    2.27e+00    0    8.83e-01
2003 11 10  0605    52953   21900      0    2.24e+00    0    8.87e-01
2003 11 10  0610    52953   22200      0    2.22e+00    0    8.67e-01
2003 11 10  0615    52953   22500      0    2.09e+00    0    8.28e-01
2003 11 10  0620    52953   22800      0    2.24e+00    0    8.63e-01
2003 11 10  0625    52953   23100      0    2.22e+00    0    8.68e-01
2003 11 10  0630    52953   23400      0    2.25e+00    0    8.93e-01
2003 11 10  0635    52953   23700      0    2.12e+00    0    8.30e-01
2003 11 10  0640    52953   24000      0    2.26e+00    0    8.99e-01
2003 11 10  0645    52953   24300      0    2.22e+00    0    8.67e-01
2003 11 10  0650    52953   24600      0    2.27e+00    0    9.03e-01
2003 11 10  0655    52953   24900      0    2.23e+00    0    8.69e-01
2003 11 10  0700    52953   25200      0    2.24e+00    0    8.78e-01
2003 11 10  0705    52953   25500      0    2.21e+00    0    8.74e-01
2003 11 10  0710    52953   25800      0    2.20e+00    0    8.67e-01
2003 11 10  0715    52953   26100      0    2.21e+00    0    8.86e-01
2003 11 10  0720    52953   26400      0    2.17e+00    0    8.58e-01
2003 11 10  0725    52953   26700      0    2.18e+00    0    8.60e-01
2003 11 10  0730    52953   27000      0    2.20e+00    0    8.86e-01
2003 11 10  0735    52953   27300      0    2.21e+00    0    8.81e-01
2003 11 10  0740    52953   27600      0    2.20e+00    0    8.74e-01
2003 11 10  0745    52953   27900      0    2.21e+00    0    8.75e-01
2003 11 10  0750    52953   28200      0    2.22e+00    0    8.59e-01
2003 11 10  0755    52953   28500      0    2.21e+00    0    8.90e-01
2003 11 10  0800    52953   28800      0    2.19e+00    0    8.64e-01
2003 11 10  0805    52953   29100      0    2.24e+00    0    8.99e-01
2003 11 10  0810    52953   29400      0    2.23e+00    0    9.00e-01
2003 11 10  0815    52953   29700      9   -1.00e+05    9   -1.00e+05
2003 11 10  0820    52953   30000      9   -1.00e+05    9   -1.00e+05
2003 11 10  0825    52953   30300      0    2.09e+00    0    8.80e-01
2003 11 10  0830    52953   30600      0    2.19e+00    0    8.80e-01
2003 11 10  0835    52953   30900      0    2.20e+00    0    8.73e-01
2003 11 10  0840    52953   31200      0    2.19e+00    0    8.67e-01
2003 11 10  0845    52953   31500      0    2.16e+00    0    8.20e-01
2003 11 10  0850    52953   31800      0    2.23e+00    0    8.87e-01
2003 11 10  0855    52953   32100      0    2.18e+00    0    8.38e-01
2003 11 10  0900    52953   32400      0    2.18e+00    0    8.64e-01
2003 11 10  0905    52953   32700      0    2.21e+00    0    8.81e-01
2003 11 10  0910    52953   33000      0    2.19e+00    0    8.80e-01
2003 11 10  0915    52953   33300      0    2.14e+00    0    8.45e-01
2003 11 10  0920    52953   33600      0    2.17e+00    0    8.68e-01
2003 11 10  0925    52953   33900      0    2.15e+00    0    8.50e-01
2003 11 10  0930    52953   34200      0    2.16e+00    0    8.70e-01
2003 11 10  0935    52953   34500      0    2.15e+00    0    8.61e-01
2003 11 10  0940    52953   34800      0    2.17e+00    0    8.71e-01
2003 11 10  0945    52953   35100      0    2.19e+00    0    8.70e-01
2003 11 10  0950    52953   35400      0    2.21e+00    0    8.74e-01
2003 11 10  0955    52953   35700      0    2.16e+00    0    8.40e-01
2003 11 10  1000    52953   36000      0    2.23e+00    0    8.77e-01
2003 11 10  1005    52953   36300      0    2.21e+00    0    8.64e-01
2003 11 10  1010    52953   36600      0    2.22e+00    0    8.67e-01
2003 11 10  1015    52953   36900      0    2.19e+00    0    8.66e-01
2003 11 10  1020    52953   37200      0    2.24e+00    0    8.73e-01
2003 11 10  1025    52953   37500      0    2.22e+00    0    8.87e-01
2003 11 10  1030    52953   37800      0    2.18e+00    0    8.62e-01
2003 11 10  1035    52953   38100      0    2.26e+00    0    8.78e-01
2003 11 10  1040    52953   38400      0    2.32e+00    0    9.14e-01
2003 11 10  1045    52953   38700      0    2.34e+00    0    8.93e-01
2003 11 10  1050    52953   39000      0    2.34e+00    0    9.12e-01
2003 11 10  1055    52953   39300      0    2.39e+00    0    9.20e-01
2003 11 10  1100    52953   39600      0    2.44e+00    0    9.07e-01
2003 11 10  1105    52953   39900      0    2.45e+00    0    9.03e-01
2003 11 10  1110    52953   40200      0    2.46e+00    0    9.04e-01
2003 11 10  1115    52953   40500      0    2.28e+00    0    8.24e-01
2003 11 10  1120    52953   40800      0    2.45e+00    0    8.80e-01
2003 11 10  1125    52953   41100      0    2.55e+00    0    9.37e-01
2003 11 10  1130    52953   41400      0    2.59e+00    0    9.57e-01
2003 11 10  1135    52953   41700      0    2.59e+00    0    9.68e-01
2003 11 10  1140    52953   42000      0    2.53e+00    0    9.30e-01
2003 11 10  1145    52953   42300      0    2.57e+00    0    9.34e-01
2003 11 10  1150    52953   42600      0    2.68e+00    0    9.46e-01
2003 11 10  1155    52953   42900      0    2.62e+00    0    9.49e-01
2003 11 10  1200    52953   43200      0    2.69e+00    0    9.46e-01
2003 11 10  1205    52953   43500      0    2.63e+00    0    9.37e-01
2003 11 10  1210    52953   43800      0    2.67e+00    0    9.30e-01
2003 11 10  1215    52953   44100      0    2.60e+00    0    9.56e-01
2003 11 10  1220    52953   44400      0    2.65e+00    0    9.37e-01
2003 11 10  1225    52953   44700      0    2.65e+00    0    9.59e-01
2003 11 10  1230    52953   45000      0    2.70e+00    0    9.53e-01
2003 11 10  1235    52953   45300      0    2.64e+00    0    9.44e-01
2003 11 10  1240    52953   45600      0    2.75e+00    0    9.43e-01
2003 11 10  1245    52953   45900      9   -1.00e+05    9   -1.00e+05
2003 11 10  1250    52953   46200      0    2.79e+00    0    9.32e-01
2003 11 10  1255    52953   46500      0    2.83e+00    0    9.59e-01
2003 11 10  1300    52953   46800      0    2.80e+00    0    9.53e-01
2003 11 10  1305    52953   47100      0    2.91e+00    0    9.96e-01
2003 11 10  1310    52953   47400      0    2.81e+00    0    9.66e-01
2003 11 10  1315    52953   47700      0    2.83e+00    0    9.66e-01
2003 11 10  1320    52953   48000      0    2.84e+00    0    9.55e-01
2003 11 10  1325    52953   48300      0    2.86e+00    0    9.56e-01
2003 11 10  1330    52953   48600      0    2.85e+00    0    9.54e-01
2003 11 10  1335    52953   48900      0    2.90e+00    0    9.72e-01
2003 11 10  1340    52953   49200      0    2.96e+00    0    9.72e-01
2003 11 10  1345    52953   49500      0    2.98e+00    0    9.89e-01
2003 11 10  1350    52953   49800      0    2.91e+00    0    9.80e-01
2003 11 10  1355    52953   50100      0    2.81e+00    0    9.38e-01
2003 11 10  1400    52953   50400      0    2.87e+00    0    9.74e-01
2003 11 10  1405    52953   50700      0    2.83e+00    0    9.52e-01
2003 11 10  1410    52953   51000      0    2.82e+00    0    9.67e-01
2003 11 10  1415    52953   51300      0    2.83e+00    0    9.55e-01
2003 11 10  1420    52953   51600      0    2.88e+00    0    9.81e-01
2003 11 10  1425    52953   51900      0    2.85e+00    0    9.60e-01
2003 11 10  1430    52953   52200      0    2.82e+00    0    9.27e-01
2003 11 10  1435    52953   52500      0    2.76e+00    0    9.37e-01
2003 11 10  1440    52953   52800      0    2.77e+00    0    9.45e-01
2003 11 10  1445    52953   53100      0    2.78e+00    0    9.70e-01
2003 11 10  1450    52953   53400      0    2.77e+00    0    9.37e-01
2003 11 10  1455    52953   53700      0    2.73e+00    0    9.35e-01
2003 11 10  1500    52953   54000      0    2.72e+00    0    9.43e-01
2003 11 10  1505    52953   54300      0    2.70e+00    0    9.37e-01
2003 11 10  1510    52953   54600      0    2.59e+00    0    7.33e-01
2003 11 10  1515    52953   54900      0    2.53e+00    0    9.31e-01
2003 11 10  1520    52953   55200      0    2.51e+00    0    9.20e-01
2003 11 10  1525    52953   55500      0    2.45e+00    0    8.97e-01
2003 11 10  1530    52953   55800      0    2.52e+00    0    9.11e-01
2003 11 10  1535    52953   56100      0    3.31e+00    0    9.12e-01
2003 11 10  1540    52953   56400      0    2.49e+00    0    8.77e-01
2003 11 10  1545    52953   56700      0    2.56e+00    0    9.15e-01
2003 11 10  1550    52953   57000      0    2.53e+00    0    9.24e-01
2003 11 10  1555    52953   57300      0    2.44e+00    0    8.88e-01
2003 11 10  1600    52953   57600      0    2.41e+00    0    8.83e-01
2003 11 10  1605    52953   57900      0    2.38e+00    0    8.74e-01
2003 11 10  1610    52953   58200      0    2.18e+00    0    8.60e-01
2003 11 10  1615    52953   58500      0    2.45e+00    0    8.93e-01
2003 11 10  1620    52953   58800      0    2.40e+00    0    8.78e-01
2003 11 10  1625    52953   59100      0    2.37e+00    0    8.60e-01
2003 11 10  1630    52953   59400      0    2.49e+00    0    9.13e-01
2003 11 10  1635    52953   59700      0    2.47e+00    0    9.05e-01
2003 11 10  1640    52953   60000      0    2.46e+00    0    9.10e-01
2003 11 10  1645    52953   60300      0    2.48e+00    0    8.89e-01
2003 11 10  1650    52953   60600      0    2.54e+00    0    9.03e-01
2003 11 10  1655    52953   60900      0    2.55e+00    0    9.12e-01
2003 11 10  1700    52953   61200      0    2.60e+00    0    9.32e-01
2003 11 10  1705    52953   61500      0    2.55e+00    0    9.26e-01
2003 11 10  1710    52953   61800      0    2.46e+00    0    8.83e-01
2003 11 10  1715    52953   62100      0    2.54e+00    0    9.16e-01
2003 11 10  1720    52953   62400      0    2.48e+00    0    8.89e-01
2003 11 10  1725    52953   62700      0    2.50e+00    0    9.04e-01
2003 11 10  1730    52953   63000      0    2.33e+00    0    9.07e-01
2003 11 10  1735    52953   63300      0    2.22e+00    0    8.49e-01
2003 11 10  1740    52953   63600      0    2.28e+00    0    8.77e-01
2003 11 10  1745    52953   63900      0    2.36e+00    0    9.11e-01
2003 11 10  1750    52953   64200      0    2.30e+00    0    8.89e-01
2003 11 10  1755    52953   64500      0    2.31e+00    0    8.88e-01
2003 11 10  1800    52953   64800      0    2.27e+00    0    8.81e-01
2003 11 10  1805    52953   65100      0    2.27e+00    0    8.77e-01
2003 11 10  1810    52953   65400      0    2.23e+00    0    8.77e-01
2003 11 10  1815    52953   65700      0    2.25e+00    0    8.59e-01
2003 11 10  1820    52953   66000      0    2.17e+00    0    8.22e-01
2003 11 10  1825    52953   66300      0    2.23e+00    0    8.79e-01
2003 11 10  1830    52953   66600      0    2.25e+00    0    8.79e-01
2003 11 10  1835    52953   66900      0    2.22e+00    0    8.62e-01
2003 11 10  1840    52953   67200      0    2.17e+00    0    8.53e-01
2003 11 10  1845    52953   67500      0    2.14e+00    0    8.41e-01
2003 11 10  1850    52953   67800      0    2.21e+00    0    8.68e-01
2003 11 10  1855    52953   68100      0    2.27e+00    0    8.63e-01
2003 11 10  1900    52953   68400      0    2.29e+00    0    8.58e-01
2003 11 10  1905    52953   68700      0    2.30e+00    0    8.84e-01
2003 11 10  1910    52953   69000      0    2.27e+00    0    8.78e-01
2003 11 10  1915    52953   69300      0    2.38e+00    0    8.97e-01
2003 11 10  1920    52953   69600      0    2.41e+00    0    9.05e-01
2003 11 10  1925    52953   69900      0    2.39e+00    0    8.83e-01
2003 11 10  1930    52953   70200      0    2.44e+00    0    9.30e-01
2003 11 10  1935    52953   70500      0    2.35e+00    0    8.79e-01
2003 11 10  1940    52953   70800      0    2.39e+00    0    8.92e-01
2003 11 10  1945    52953   71100      0    2.34e+00    0    8.78e-01
2003 11 10  1950    52953   71400      0    2.42e+00    0    8.89e-01
2003 11 10  1955    52953   71700      0    2.40e+00    0    9.03e-01
2003 11 10  2000    52953   72000      0    2.39e+00    0    8.97e-01
2003 11 10  2005    52953   72300      0    2.35e+00    0    8.87e-01
2003 11 10  2010    52953   72600      0    2.32e+00    0    8.69e-01
2003 11 10  2015    52953   72900      0    2.37e+00    0    8.76e-01
2003 11 10  2020    52953   73200      0    2.41e+00    0    8.81e-01
2003 11 10  2025    52953   73500      0    2.38e+00    0    8.78e-01
2003 11 10  2030    52953   73800      0    2.38e+00    0    8.82e-01
2003 11 10  2035    52953   74100      0    2.36e+00    0    8.89e-01
2003 11 10  2040    52953   74400      0    2.37e+00    0    8.87e-01
2003 11 10  2045    52953   74700      0    2.34e+00    0    8.62e-01
2003 11 10  2050    52953   75000      0    2.36e+00    0    8.88e-01
2003 11 10  2055    52953   75300      0    2.38e+00    0    8.98e-01
2003 11 10  2100    52953   75600      0    2.34e+00    0    8.69e-01
2003 11 10  2105    52953   75900      0    2.34e+00    0    8.81e-01
2003 11 10  2110    52953   76200      0    2.36e+00    0    8.73e-01
2003 11 10  2115    52953   76500      0    2.38e+00    0    8.90e-01
2003 11 10  2120    52953   76800      0    2.33e+00    0    8.97e-01
2003 11 10  2125    52953   77100      0    2.38e+00    0    8.93e-01
2003 11 10  2130    52953   77400      0    2.30e+00    0    8.65e-01
2003 11 10  2135    52953   77700      0    2.38e+00    0    8.81e-01
2003 11 10  2140    52953   78000      0    2.37e+00    0    8.89e-01
2003 11 10  2145    52953   78300      0    2.35e+00    0    8.82e-01
2003 11 10  2150    52953   78600      0    2.40e+00    0    8.97e-01
2003 11 10  2155    52953   78900      0    2.37e+00    0    8.91e-01
2003 11 10  2200    52953   79200      0    2.38e+00    0    8.92e-01
2003 11 10  2205    52953   79500      0    2.37e+00    0    8.90e-01
2003 11 10  2210    52953   79800      0    2.37e+00    0    8.71e-01
2003 11 10  2215    52953   80100      0    2.34e+00    0    8.54e-01
2003 11 10  2220    52953   80400      0    2.34e+00    0    8.62e-01
2003 11 10  2225    52953   80700      0    2.38e+00    0    8.97e-01
2003 11 10  2230    52953   81000      0    2.35e+00    0    8.77e-01
2003 11 10  2235    52953   81300      0    2.33e+00    0    8.67e-01
2003 11 10  2240    52953   81600      0    2.40e+00    0    9.08e-01
2003 11 10  2245    52953   81900      0    2.39e+00    0    8.91e-01
2003 11 10  2250    52953   82200      0    2.38e+00    0    8.89e-01
2003 11 10  2255    52953   82500      0    2.40e+00    0    9.11e-01
2003 11 10  2300    52953   82800      0    2.33e+00    0    8.63e-01
2003 11 10  2305    52953   83100      0    2.33e+00    0    8.64e-01
2003 11 10  2310    52953   83400      0    2.34e+00    0    8.84e-01
2003 11 10  2315    52953   83700      0    2.33e+00    0    8.60e-01
2003 11 10  2320    52953   84000      0    2.33e+00    0    8.73e-01
2003 11 10  2325    52953   84300      0    2.35e+00    0    8.90e-01
2003 11 10  2330    52953   84600      0    2.30e+00    0    8.63e-01
2003 11 10  2335    52953   84900      0    2.26e+00    0    8.51e-01
2003 11 10  2340    52953   85200      0    2.27e+00    0    8.68e-01
2003 11 10  2345    52953   85500      0    2.30e+00    0    8.71e-01
2003 11 10  2350    52953   85800      0    2.35e+00    0    8.83e-01
2003 11 10  2355    52953   86100      0    2.27e+00    0    8.55e-01
