:Data_list: 20031102_ace_sis_5m.txt
:Created: 2003 Nov 03 0011 UT
# Prepared by the U.S. Dept. of Commerce, NOAA, Space Environment Center.
# Please send comments and suggestions to SEC.Webmaster@noaa.gov 
# 
# Units: proton flux p/cs2-sec-ster
# Status(S): 0 = nominal data, 1 to 8 = bad data record, 9 = no data
# Missing data values: -1.00e+05
# Source: ACE Satellite - Solar Isotope Spectrometer
#
# 5-minute averaged Real-time Integral Flux of High-energy Solar Protons
# 
#                 Modified Seconds
# UT Date   Time   Julian  of the      ---- Integral Proton Flux ----
# YR MO DA  HHMM     Day     Day       S    > 10 MeV    S    > 30 MeV
#--------------------------------------------------------------------
2003 11 02  0000    52945       0      0    8.48e+00    0    1.71e+00
2003 11 02  0005    52945     300      0    8.59e+00    0    1.81e+00
2003 11 02  0010    52945     600      0    8.53e+00    0    1.78e+00
2003 11 02  0015    52945     900      0    8.26e+00    0    1.68e+00
2003 11 02  0020    52945    1200      0    8.22e+00    0    1.76e+00
2003 11 02  0025    52945    1500      0    8.38e+00    0    1.71e+00
2003 11 02  0030    52945    1800      0    8.79e+00    0    1.78e+00
2003 11 02  0035    52945    2100      0    9.10e+00    0    1.85e+00
2003 11 02  0040    52945    2400      0    9.24e+00    0    1.83e+00
2003 11 02  0045    52945    2700      0    9.30e+00    0    1.86e+00
2003 11 02  0050    52945    3000      0    9.50e+00    0    1.83e+00
2003 11 02  0055    52945    3300      0    9.73e+00    0    1.91e+00
2003 11 02  0100    52945    3600      0    9.61e+00    0    1.87e+00
2003 11 02  0105    52945    3900      0    9.66e+00    0    1.85e+00
2003 11 02  0110    52945    4200      0    9.75e+00    0    1.91e+00
2003 11 02  0115    52945    4500      0    9.76e+00    0    1.91e+00
2003 11 02  0120    52945    4800      0    9.44e+00    0    1.87e+00
2003 11 02  0125    52945    5100      0    9.61e+00    0    1.95e+00
2003 11 02  0130    52945    5400      0    9.56e+00    0    1.91e+00
2003 11 02  0135    52945    5700      0    9.45e+00    0    1.87e+00
2003 11 02  0140    52945    6000      0    9.46e+00    0    1.89e+00
2003 11 02  0145    52945    6300      0    9.44e+00    0    1.90e+00
2003 11 02  0150    52945    6600      0    9.24e+00    0    1.81e+00
2003 11 02  0155    52945    6900      0    9.58e+00    0    1.90e+00
2003 11 02  0200    52945    7200      0    9.73e+00    0    1.92e+00
2003 11 02  0205    52945    7500      0    9.77e+00    0    1.98e+00
2003 11 02  0210    52945    7800      0    1.00e+01    0    2.03e+00
2003 11 02  0215    52945    8100      0    9.86e+00    0    1.92e+00
2003 11 02  0220    52945    8400      0    9.48e+00    0    1.90e+00
2003 11 02  0225    52945    8700      0    9.40e+00    0    1.86e+00
2003 11 02  0230    52945    9000      0    9.56e+00    0    1.91e+00
2003 11 02  0235    52945    9300      0    9.52e+00    0    1.92e+00
2003 11 02  0240    52945    9600      0    1.04e+01    0    1.96e+00
2003 11 02  0245    52945    9900      0    1.04e+01    0    1.98e+00
2003 11 02  0250    52945   10200      0    1.00e+01    0    1.93e+00
2003 11 02  0255    52945   10500      0    9.86e+00    0    1.91e+00
2003 11 02  0300    52945   10800      0    1.01e+01    0    2.01e+00
2003 11 02  0305    52945   11100      0    1.01e+01    0    1.94e+00
2003 11 02  0310    52945   11400      0    1.00e+01    0    2.02e+00
2003 11 02  0315    52945   11700      0    9.83e+00    0    1.95e+00
2003 11 02  0320    52945   12000      0    9.91e+00    0    1.96e+00
2003 11 02  0325    52945   12300      0    1.01e+01    0    2.00e+00
2003 11 02  0330    52945   12600      0    1.02e+01    0    1.90e+00
2003 11 02  0335    52945   12900      0    1.02e+01    0    1.94e+00
2003 11 02  0340    52945   13200      0    1.01e+01    0    1.94e+00
2003 11 02  0345    52945   13500      0    1.01e+01    0    1.96e+00
2003 11 02  0350    52945   13800      0    9.59e+00    0    1.92e+00
2003 11 02  0355    52945   14100      0    9.64e+00    0    1.87e+00
2003 11 02  0400    52945   14400      0    9.72e+00    0    1.92e+00
2003 11 02  0405    52945   14700      0    9.85e+00    0    1.93e+00
2003 11 02  0410    52945   15000      0    9.89e+00    0    2.00e+00
2003 11 02  0415    52945   15300      0    9.98e+00    0    2.03e+00
2003 11 02  0420    52945   15600      0    1.01e+01    0    1.94e+00
2003 11 02  0425    52945   15900      0    9.88e+00    0    1.92e+00
2003 11 02  0430    52945   16200      0    9.65e+00    0    1.87e+00
2003 11 02  0435    52945   16500      0    9.59e+00    0    1.91e+00
2003 11 02  0440    52945   16800      0    9.65e+00    0    1.93e+00
2003 11 02  0445    52945   17100      0    9.75e+00    0    2.00e+00
2003 11 02  0450    52945   17400      0    9.69e+00    0    2.04e+00
2003 11 02  0455    52945   17700      0    9.33e+00    0    1.92e+00
2003 11 02  0500    52945   18000      0    9.42e+00    0    1.89e+00
2003 11 02  0505    52945   18300      0    9.75e+00    0    1.85e+00
2003 11 02  0510    52945   18600      0    9.46e+00    0    1.83e+00
2003 11 02  0515    52945   18900      0    9.66e+00    0    1.85e+00
2003 11 02  0520    52945   19200      0    9.56e+00    0    1.84e+00
2003 11 02  0525    52945   19500      0    9.71e+00    0    1.88e+00
2003 11 02  0530    52945   19800      0    9.60e+00    0    1.92e+00
2003 11 02  0535    52945   20100      0    9.66e+00    0    1.91e+00
2003 11 02  0540    52945   20400      0    9.84e+00    0    1.92e+00
2003 11 02  0545    52945   20700      0    9.84e+00    0    1.97e+00
2003 11 02  0550    52945   21000      0    9.89e+00    0    1.97e+00
2003 11 02  0555    52945   21300      0    9.82e+00    0    1.92e+00
2003 11 02  0600    52945   21600      0    9.78e+00    0    1.95e+00
2003 11 02  0605    52945   21900      0    9.65e+00    0    1.88e+00
2003 11 02  0610    52945   22200      0    9.94e+00    0    1.85e+00
2003 11 02  0615    52945   22500      0    9.87e+00    0    1.86e+00
2003 11 02  0620    52945   22800      0    9.98e+00    0    1.90e+00
2003 11 02  0625    52945   23100      0    1.01e+01    0    1.96e+00
2003 11 02  0630    52945   23400      0    1.02e+01    0    1.98e+00
2003 11 02  0635    52945   23700      0    1.02e+01    0    1.98e+00
2003 11 02  0640    52945   24000      0    9.99e+00    0    1.93e+00
2003 11 02  0645    52945   24300      0    1.01e+01    0    1.94e+00
2003 11 02  0650    52945   24600      0    1.01e+01    0    1.98e+00
2003 11 02  0655    52945   24900      0    1.00e+01    0    1.95e+00
2003 11 02  0700    52945   25200      0    9.99e+00    0    1.89e+00
2003 11 02  0705    52945   25500      0    1.01e+01    0    1.94e+00
2003 11 02  0710    52945   25800      0    1.02e+01    0    1.92e+00
2003 11 02  0715    52945   26100      0    1.02e+01    0    2.00e+00
2003 11 02  0720    52945   26400      9   -1.00e+05    9   -1.00e+05
2003 11 02  0725    52945   26700      9   -1.00e+05    9   -1.00e+05
2003 11 02  0730    52945   27000      9   -1.00e+05    9   -1.00e+05
2003 11 02  0735    52945   27300      9   -1.00e+05    9   -1.00e+05
2003 11 02  0740    52945   27600      9   -1.00e+05    9   -1.00e+05
2003 11 02  0745    52945   27900      9   -1.00e+05    9   -1.00e+05
2003 11 02  0750    52945   28200      9   -1.00e+05    9   -1.00e+05
2003 11 02  0755    52945   28500      9   -1.00e+05    9   -1.00e+05
2003 11 02  0800    52945   28800      9   -1.00e+05    9   -1.00e+05
2003 11 02  0805    52945   29100      9   -1.00e+05    9   -1.00e+05
2003 11 02  0810    52945   29400      9   -1.00e+05    9   -1.00e+05
2003 11 02  0815    52945   29700      9   -1.00e+05    9   -1.00e+05
2003 11 02  0820    52945   30000      9   -1.00e+05    9   -1.00e+05
2003 11 02  0825    52945   30300      9   -1.00e+05    9   -1.00e+05
2003 11 02  0830    52945   30600      9   -1.00e+05    9   -1.00e+05
2003 11 02  0835    52945   30900      9   -1.00e+05    9   -1.00e+05
2003 11 02  0840    52945   31200      9   -1.00e+05    9   -1.00e+05
2003 11 02  0845    52945   31500      9   -1.00e+05    9   -1.00e+05
2003 11 02  0850    52945   31800      9   -1.00e+05    9   -1.00e+05
2003 11 02  0855    52945   32100      9   -1.00e+05    9   -1.00e+05
2003 11 02  0900    52945   32400      9   -1.00e+05    9   -1.00e+05
2003 11 02  0905    52945   32700      9   -1.00e+05    9   -1.00e+05
2003 11 02  0910    52945   33000      9   -1.00e+05    9   -1.00e+05
2003 11 02  0915    52945   33300      9   -1.00e+05    9   -1.00e+05
2003 11 02  0920    52945   33600      9   -1.00e+05    9   -1.00e+05
2003 11 02  0925    52945   33900      9   -1.00e+05    9   -1.00e+05
2003 11 02  0930    52945   34200      9   -1.00e+05    9   -1.00e+05
2003 11 02  0935    52945   34500      9   -1.00e+05    9   -1.00e+05
2003 11 02  0940    52945   34800      9   -1.00e+05    9   -1.00e+05
2003 11 02  0945    52945   35100      9   -1.00e+05    9   -1.00e+05
2003 11 02  0950    52945   35400      9   -1.00e+05    9   -1.00e+05
2003 11 02  0955    52945   35700      9   -1.00e+05    9   -1.00e+05
2003 11 02  1000    52945   36000      9   -1.00e+05    9   -1.00e+05
2003 11 02  1005    52945   36300      9   -1.00e+05    9   -1.00e+05
2003 11 02  1010    52945   36600      9   -1.00e+05    9   -1.00e+05
2003 11 02  1015    52945   36900      9   -1.00e+05    9   -1.00e+05
2003 11 02  1020    52945   37200      9   -1.00e+05    9   -1.00e+05
2003 11 02  1025    52945   37500      9   -1.00e+05    9   -1.00e+05
2003 11 02  1030    52945   37800      9   -1.00e+05    9   -1.00e+05
2003 11 02  1035    52945   38100      9   -1.00e+05    9   -1.00e+05
2003 11 02  1040    52945   38400      9   -1.00e+05    9   -1.00e+05
2003 11 02  1045    52945   38700      9   -1.00e+05    9   -1.00e+05
2003 11 02  1050    52945   39000      9   -1.00e+05    9   -1.00e+05
2003 11 02  1055    52945   39300      9   -1.00e+05    9   -1.00e+05
2003 11 02  1100    52945   39600      9   -1.00e+05    9   -1.00e+05
2003 11 02  1105    52945   39900      9   -1.00e+05    9   -1.00e+05
2003 11 02  1110    52945   40200      9   -1.00e+05    9   -1.00e+05
2003 11 02  1115    52945   40500      9   -1.00e+05    9   -1.00e+05
2003 11 02  1120    52945   40800      9   -1.00e+05    9   -1.00e+05
2003 11 02  1125    52945   41100      9   -1.00e+05    9   -1.00e+05
2003 11 02  1130    52945   41400      9   -1.00e+05    9   -1.00e+05
2003 11 02  1135    52945   41700      9   -1.00e+05    9   -1.00e+05
2003 11 02  1140    52945   42000      9   -1.00e+05    9   -1.00e+05
2003 11 02  1145    52945   42300      9   -1.00e+05    9   -1.00e+05
2003 11 02  1150    52945   42600      0    1.73e+01    0    2.97e+00
2003 11 02  1155    52945   42900      0    1.82e+01    0    2.89e+00
2003 11 02  1200    52945   43200      0    1.98e+01    0    2.99e+00
2003 11 02  1205    52945   43500      0    2.24e+01    0    3.25e+00
2003 11 02  1210    52945   43800      0    1.94e+01    0    3.22e+00
2003 11 02  1215    52945   44100      0    1.89e+01    0    3.03e+00
2003 11 02  1220    52945   44400      0    2.03e+01    0    3.46e+00
2003 11 02  1225    52945   44700      0    2.22e+01    0    3.60e+00
2003 11 02  1230    52945   45000      0    2.58e+01    0    3.62e+00
2003 11 02  1235    52945   45300      0    2.47e+01    0    3.24e+00
2003 11 02  1240    52945   45600      9   -1.00e+05    9   -1.00e+05
2003 11 02  1245    52945   45900      9   -1.00e+05    9   -1.00e+05
2003 11 02  1250    52945   46200      9   -1.00e+05    9   -1.00e+05
2003 11 02  1255    52945   46500      9   -1.00e+05    9   -1.00e+05
2003 11 02  1300    52945   46800      9   -1.00e+05    9   -1.00e+05
2003 11 02  1305    52945   47100      9   -1.00e+05    9   -1.00e+05
2003 11 02  1310    52945   47400      0    1.85e+01    0    2.97e+00
2003 11 02  1315    52945   47700      0    1.77e+01    0    2.96e+00
2003 11 02  1320    52945   48000      0    1.71e+01    0    3.04e+00
2003 11 02  1325    52945   48300      0    1.90e+01    0    3.04e+00
2003 11 02  1330    52945   48600      0    1.79e+01    0    3.00e+00
2003 11 02  1335    52945   48900      0    1.96e+01    0    3.10e+00
2003 11 02  1340    52945   49200      0    1.99e+01    0    2.95e+00
2003 11 02  1345    52945   49500      0    1.80e+01    0    2.79e+00
2003 11 02  1350    52945   49800      0    1.96e+01    0    2.75e+00
2003 11 02  1355    52945   50100      0    1.81e+01    0    2.71e+00
2003 11 02  1400    52945   50400      0    1.71e+01    0    2.85e+00
2003 11 02  1405    52945   50700      0    1.79e+01    0    2.80e+00
2003 11 02  1410    52945   51000      0    1.81e+01    0    2.73e+00
2003 11 02  1415    52945   51300      0    2.20e+01    0    2.74e+00
2003 11 02  1420    52945   51600      0    2.20e+01    0    2.89e+00
2003 11 02  1425    52945   51900      0    2.20e+01    0    2.87e+00
2003 11 02  1430    52945   52200      0    2.19e+01    0    2.90e+00
2003 11 02  1435    52945   52500      0    1.85e+01    0    2.69e+00
2003 11 02  1440    52945   52800      0    2.16e+01    0    2.98e+00
2003 11 02  1445    52945   53100      0    2.28e+01    0    3.31e+00
2003 11 02  1450    52945   53400      0    2.32e+01    0    3.26e+00
2003 11 02  1455    52945   53700      0    2.23e+01    0    3.29e+00
2003 11 02  1500    52945   54000      0    2.08e+01    0    3.23e+00
2003 11 02  1505    52945   54300      0    2.04e+01    0    2.96e+00
2003 11 02  1510    52945   54600      0    2.27e+01    0    2.99e+00
2003 11 02  1515    52945   54900      0    2.34e+01    0    2.89e+00
2003 11 02  1520    52945   55200      0    2.14e+01    0    2.69e+00
2003 11 02  1525    52945   55500      0    2.25e+01    0    2.85e+00
2003 11 02  1530    52945   55800      0    2.25e+01    0    2.93e+00
2003 11 02  1535    52945   56100      0    2.26e+01    0    2.86e+00
2003 11 02  1540    52945   56400      9   -1.00e+05    9   -1.00e+05
2003 11 02  1545    52945   56700      9   -1.00e+05    9   -1.00e+05
2003 11 02  1550    52945   57000      9   -1.00e+05    9   -1.00e+05
2003 11 02  1555    52945   57300      9   -1.00e+05    9   -1.00e+05
2003 11 02  1600    52945   57600      9   -1.00e+05    9   -1.00e+05
2003 11 02  1605    52945   57900      9   -1.00e+05    9   -1.00e+05
2003 11 02  1610    52945   58200      9   -1.00e+05    9   -1.00e+05
2003 11 02  1615    52945   58500      9   -1.00e+05    9   -1.00e+05
2003 11 02  1620    52945   58800      9   -1.00e+05    9   -1.00e+05
2003 11 02  1625    52945   59100      9   -1.00e+05    9   -1.00e+05
2003 11 02  1630    52945   59400      9   -1.00e+05    9   -1.00e+05
2003 11 02  1635    52945   59700      9   -1.00e+05    9   -1.00e+05
2003 11 02  1640    52945   60000      9   -1.00e+05    9   -1.00e+05
2003 11 02  1645    52945   60300      0    2.02e+01    0    2.71e+00
2003 11 02  1650    52945   60600      0    1.84e+01    0    2.56e+00
2003 11 02  1655    52945   60900      0    1.95e+01    0    2.62e+00
2003 11 02  1700    52945   61200      0    1.94e+01    0    2.57e+00
2003 11 02  1705    52945   61500      0    1.74e+01    0    2.64e+00
2003 11 02  1710    52945   61800      0    1.75e+01    0    2.44e+00
2003 11 02  1715    52945   62100      0    1.92e+01    0    2.85e+00
2003 11 02  1720    52945   62400      0    1.75e+01    0    2.72e+00
2003 11 02  1725    52945   62700      0    1.33e+01    0    2.35e+00
2003 11 02  1730    52945   63000      0    1.18e+01    0    2.02e+00
2003 11 02  1735    52945   63300      0    1.22e+01    0    2.39e+00
2003 11 02  1740    52945   63600      0    1.30e+01    0    3.26e+00
2003 11 02  1745    52945   63900      0    1.77e+01    0    6.33e+00
2003 11 02  1750    52945   64200      0    3.35e+01    0    1.70e+01
2003 11 02  1755    52945   64500      0    6.17e+01    0    3.77e+01
2003 11 02  1800    52945   64800      0    1.19e+02    0    7.85e+01
2003 11 02  1805    52945   65100      0    2.61e+02    0    1.81e+02
2003 11 02  1810    52945   65400      0    3.84e+02    0    2.69e+02
2003 11 02  1815    52945   65700      0    3.82e+02    0    2.65e+02
2003 11 02  1820    52945   66000      0    5.06e+02    0    3.54e+02
2003 11 02  1825    52945   66300      0    6.52e+02    0    4.55e+02
2003 11 02  1830    52945   66600      0    9.16e+02    0    6.42e+02
2003 11 02  1835    52945   66900      0    1.06e+03    0    7.45e+02
2003 11 02  1840    52945   67200      0    1.04e+03    0    7.31e+02
2003 11 02  1845    52945   67500      0    9.01e+02    0    6.35e+02
2003 11 02  1850    52945   67800      0    9.33e+02    0    6.47e+02
2003 11 02  1855    52945   68100      0    1.13e+03    0    7.69e+02
2003 11 02  1900    52945   68400      0    1.38e+03    0    9.15e+02
2003 11 02  1905    52945   68700      0    1.51e+03    0    9.87e+02
2003 11 02  1910    52945   69000      0    1.34e+03    0    8.71e+02
2003 11 02  1915    52945   69300      0    1.12e+03    0    7.18e+02
2003 11 02  1920    52945   69600      0    1.22e+03    0    7.75e+02
2003 11 02  1925    52945   69900      0    1.33e+03    0    8.25e+02
2003 11 02  1930    52945   70200      0    1.31e+03    0    8.13e+02
2003 11 02  1935    52945   70500      0    1.45e+03    0    8.79e+02
2003 11 02  1940    52945   70800      0    1.35e+03    0    8.04e+02
2003 11 02  1945    52945   71100      0    9.96e+02    0    5.99e+02
2003 11 02  1950    52945   71400      0    1.03e+03    0    5.99e+02
2003 11 02  1955    52945   71700      0    1.43e+03    0    7.65e+02
2003 11 02  2000    52945   72000      0    1.42e+03    0    7.37e+02
2003 11 02  2005    52945   72300      0    1.41e+03    0    7.08e+02
2003 11 02  2010    52945   72600      0    1.78e+03    0    8.24e+02
2003 11 02  2015    52945   72900      0    1.74e+03    0    8.03e+02
2003 11 02  2020    52945   73200      0    1.83e+03    0    8.11e+02
2003 11 02  2025    52945   73500      0    1.70e+03    0    7.54e+02
2003 11 02  2030    52945   73800      0    1.66e+03    0    7.46e+02
2003 11 02  2035    52945   74100      0    1.91e+03    0    8.29e+02
2003 11 02  2040    52945   74400      0    2.01e+03    0    8.48e+02
2003 11 02  2045    52945   74700      0    2.00e+03    0    8.10e+02
2003 11 02  2050    52945   75000      0    2.43e+03    0    9.32e+02
2003 11 02  2055    52945   75300      0    2.19e+03    0    8.55e+02
2003 11 02  2100    52945   75600      0    2.44e+03    0    9.33e+02
2003 11 02  2105    52945   75900      0    2.65e+03    0    1.04e+03
2003 11 02  2110    52945   76200      0    2.90e+03    0    1.12e+03
2003 11 02  2115    52945   76500      0    3.11e+03    0    1.21e+03
2003 11 02  2120    52945   76800      0    3.08e+03    0    1.19e+03
2003 11 02  2125    52945   77100      0    3.18e+03    0    1.20e+03
2003 11 02  2130    52945   77400      0    2.87e+03    0    1.08e+03
2003 11 02  2135    52945   77700      0    2.85e+03    0    1.04e+03
2003 11 02  2140    52945   78000      0    2.69e+03    0    9.83e+02
2003 11 02  2145    52945   78300      0    2.26e+03    0    8.18e+02
2003 11 02  2150    52945   78600      0    2.09e+03    0    7.48e+02
2003 11 02  2155    52945   78900      0    2.08e+03    0    7.05e+02
2003 11 02  2200    52945   79200      0    3.66e+03    0    1.15e+03
2003 11 02  2205    52945   79500      0    4.40e+03    0    1.40e+03
2003 11 02  2210    52945   79800      0    3.71e+03    0    1.22e+03
2003 11 02  2215    52945   80100      0    5.21e+03    0    1.64e+03
2003 11 02  2220    52945   80400      0    4.27e+03    0    1.34e+03
2003 11 02  2225    52945   80700      0    3.19e+03    0    1.02e+03
2003 11 02  2230    52945   81000      0    2.54e+03    0    7.95e+02
2003 11 02  2235    52945   81300      0    1.94e+03    0    5.79e+02
2003 11 02  2240    52945   81600      0    2.55e+03    0    6.96e+02
2003 11 02  2245    52945   81900      0    3.41e+03    0    9.13e+02
2003 11 02  2250    52945   82200      0    4.25e+03    0    1.17e+03
2003 11 02  2255    52945   82500      0    5.08e+03    0    1.41e+03
2003 11 02  2300    52945   82800      0    5.21e+03    0    1.44e+03
2003 11 02  2305    52945   83100      0    5.62e+03    0    1.55e+03
2003 11 02  2310    52945   83400      0    6.24e+03    0    1.66e+03
2003 11 02  2315    52945   83700      0    6.39e+03    0    1.71e+03
2003 11 02  2320    52945   84000      0    6.56e+03    0    1.80e+03
2003 11 02  2325    52945   84300      0    6.51e+03    0    1.74e+03
2003 11 02  2330    52945   84600      0    5.55e+03    0    1.34e+03
2003 11 02  2335    52945   84900      0    4.28e+03    0    1.09e+03
2003 11 02  2340    52945   85200      0    4.60e+03    0    1.13e+03
2003 11 02  2345    52945   85500      0    3.60e+03    0    8.71e+02
2003 11 02  2350    52945   85800      0    3.01e+03    0    7.58e+02
2003 11 02  2355    52945   86100      0    2.83e+03    0    7.05e+02
