:Data_list: 20031030_ace_sis_5m.txt
:Created: 2003 Oct 31 0011 UT
# Prepared by the U.S. Dept. of Commerce, NOAA, Space Environment Center.
# Please send comments and suggestions to SEC.Webmaster@noaa.gov 
# 
# Units: proton flux p/cs2-sec-ster
# Status(S): 0 = nominal data, 1 to 8 = bad data record, 9 = no data
# Missing data values: -1.00e+05
# Source: ACE Satellite - Solar Isotope Spectrometer
#
# 5-minute averaged Real-time Integral Flux of High-energy Solar Protons
# 
#                 Modified Seconds
# UT Date   Time   Julian  of the      ---- Integral Proton Flux ----
# YR MO DA  HHMM     Day     Day       S    > 10 MeV    S    > 30 MeV
#--------------------------------------------------------------------
2003 10 30  0000    52942       0      0    5.88e+03    0    2.10e+03
2003 10 30  0005    52942     300      0    6.62e+03    0    2.39e+03
2003 10 30  0010    52942     600      0    6.23e+03    0    2.28e+03
2003 10 30  0015    52942     900      0    5.42e+03    0    1.96e+03
2003 10 30  0020    52942    1200      0    5.58e+03    0    2.16e+03
2003 10 30  0025    52942    1500      0    4.66e+03    0    1.93e+03
2003 10 30  0030    52942    1800      0    4.63e+03    0    1.88e+03
2003 10 30  0035    52942    2100      0    3.90e+03    0    1.62e+03
2003 10 30  0040    52942    2400      0    3.65e+03    0    1.55e+03
2003 10 30  0045    52942    2700      0    3.79e+03    0    1.64e+03
2003 10 30  0050    52942    3000      0    3.15e+03    0    1.48e+03
2003 10 30  0055    52942    3300      0    4.16e+03    0    1.88e+03
2003 10 30  0100    52942    3600      0    5.03e+03    0    2.22e+03
2003 10 30  0105    52942    3900      0    4.31e+03    0    1.96e+03
2003 10 30  0110    52942    4200      0    4.11e+03    0    1.92e+03
2003 10 30  0115    52942    4500      0    4.26e+03    0    1.91e+03
2003 10 30  0120    52942    4800      0    4.05e+03    0    1.80e+03
2003 10 30  0125    52942    5100      0    3.83e+03    0    1.73e+03
2003 10 30  0130    52942    5400      0    3.68e+03    0    1.62e+03
2003 10 30  0135    52942    5700      0    4.66e+03    0    1.99e+03
2003 10 30  0140    52942    6000      0    5.36e+03    0    2.30e+03
2003 10 30  0145    52942    6300      0    5.92e+03    0    2.54e+03
2003 10 30  0150    52942    6600      0    7.77e+03    0    3.24e+03
2003 10 30  0155    52942    6900      0    8.02e+03    0    3.43e+03
2003 10 30  0200    52942    7200      0    8.50e+03    0    3.74e+03
2003 10 30  0205    52942    7500      0    1.06e+04    0    5.81e+03
2003 10 30  0210    52942    7800      0    1.20e+04    0    7.22e+03
2003 10 30  0215    52942    8100      0    1.22e+04    0    7.43e+03
2003 10 30  0220    52942    8400      0    1.23e+04    0    7.49e+03
2003 10 30  0225    52942    8700      0    1.23e+04    0    7.49e+03
2003 10 30  0230    52942    9000      0    1.23e+04    0    7.49e+03
2003 10 30  0235    52942    9300      0    1.23e+04    0    7.49e+03
2003 10 30  0240    52942    9600      0    1.12e+04    0    6.41e+03
2003 10 30  0245    52942    9900      0    1.09e+04    0    6.09e+03
2003 10 30  0250    52942   10200      0    1.20e+04    0    7.24e+03
2003 10 30  0255    52942   10500      0    1.05e+04    0    5.71e+03
2003 10 30  0300    52942   10800      0    8.79e+03    0    4.07e+03
2003 10 30  0305    52942   11100      0    8.03e+03    0    3.62e+03
2003 10 30  0310    52942   11400      0    7.19e+03    0    3.34e+03
2003 10 30  0315    52942   11700      0    7.63e+03    0    3.48e+03
2003 10 30  0320    52942   12000      0    7.69e+03    0    3.49e+03
2003 10 30  0325    52942   12300      0    8.81e+03    0    4.05e+03
2003 10 30  0330    52942   12600      0    8.92e+03    0    4.15e+03
2003 10 30  0335    52942   12900      0    8.98e+03    0    4.22e+03
2003 10 30  0340    52942   13200      0    9.11e+03    0    4.34e+03
2003 10 30  0345    52942   13500      0    8.68e+03    0    3.91e+03
2003 10 30  0350    52942   13800      0    8.99e+03    0    4.22e+03
2003 10 30  0355    52942   14100      0    9.20e+03    0    4.43e+03
2003 10 30  0400    52942   14400      0    8.48e+03    0    3.72e+03
2003 10 30  0405    52942   14700      0    8.08e+03    0    3.52e+03
2003 10 30  0410    52942   15000      0    8.45e+03    0    3.70e+03
2003 10 30  0415    52942   15300      0    8.67e+03    0    3.90e+03
2003 10 30  0420    52942   15600      0    8.15e+03    0    3.46e+03
2003 10 30  0425    52942   15900      0    7.89e+03    0    3.29e+03
2003 10 30  0430    52942   16200      0    8.02e+03    0    3.37e+03
2003 10 30  0435    52942   16500      0    7.78e+03    0    3.20e+03
2003 10 30  0440    52942   16800      0    7.75e+03    0    3.19e+03
2003 10 30  0445    52942   17100      0    7.60e+03    0    3.16e+03
2003 10 30  0450    52942   17400      0    7.31e+03    0    3.07e+03
2003 10 30  0455    52942   17700      0    7.16e+03    0    2.97e+03
2003 10 30  0500    52942   18000      0    7.68e+03    0    3.13e+03
2003 10 30  0505    52942   18300      0    7.83e+03    0    3.16e+03
2003 10 30  0510    52942   18600      0    7.71e+03    0    3.12e+03
2003 10 30  0515    52942   18900      0    7.78e+03    0    3.12e+03
2003 10 30  0520    52942   19200      0    7.98e+03    0    3.22e+03
2003 10 30  0525    52942   19500      0    7.96e+03    0    3.20e+03
2003 10 30  0530    52942   19800      0    7.97e+03    0    3.20e+03
2003 10 30  0535    52942   20100      0    7.94e+03    0    3.17e+03
2003 10 30  0540    52942   20400      0    7.89e+03    0    3.12e+03
2003 10 30  0545    52942   20700      0    7.92e+03    0    3.16e+03
2003 10 30  0550    52942   21000      0    7.90e+03    0    3.13e+03
2003 10 30  0555    52942   21300      0    7.77e+03    0    3.06e+03
2003 10 30  0600    52942   21600      0    7.44e+03    0    2.88e+03
2003 10 30  0605    52942   21900      0    7.27e+03    0    2.85e+03
2003 10 30  0610    52942   22200      0    7.13e+03    0    2.80e+03
2003 10 30  0615    52942   22500      0    7.05e+03    0    2.72e+03
2003 10 30  0620    52942   22800      0    6.86e+03    0    2.70e+03
2003 10 30  0625    52942   23100      0    6.75e+03    0    2.56e+03
2003 10 30  0630    52942   23400      0    6.63e+03    0    2.56e+03
2003 10 30  0635    52942   23700      0    6.54e+03    0    2.49e+03
2003 10 30  0640    52942   24000      0    6.81e+03    0    2.64e+03
2003 10 30  0645    52942   24300      0    6.89e+03    0    2.60e+03
2003 10 30  0650    52942   24600      0    7.00e+03    0    2.61e+03
2003 10 30  0655    52942   24900      0    6.87e+03    0    2.51e+03
2003 10 30  0700    52942   25200      0    7.06e+03    0    2.64e+03
2003 10 30  0705    52942   25500      0    6.67e+03    0    2.53e+03
2003 10 30  0710    52942   25800      0    6.85e+03    0    2.60e+03
2003 10 30  0715    52942   26100      0    6.79e+03    0    2.62e+03
2003 10 30  0720    52942   26400      0    6.69e+03    0    2.52e+03
2003 10 30  0725    52942   26700      9   -1.00e+05    9   -1.00e+05
2003 10 30  0730    52942   27000      9   -1.00e+05    9   -1.00e+05
2003 10 30  0735    52942   27300      9   -1.00e+05    9   -1.00e+05
2003 10 30  0740    52942   27600      0    7.71e+03    0    2.95e+03
2003 10 30  0745    52942   27900      0    7.63e+03    0    2.87e+03
2003 10 30  0750    52942   28200      0    7.90e+03    0    3.14e+03
2003 10 30  0755    52942   28500      0    7.91e+03    0    3.15e+03
2003 10 30  0800    52942   28800      0    7.79e+03    0    3.02e+03
2003 10 30  0805    52942   29100      0    7.93e+03    0    3.16e+03
2003 10 30  0810    52942   29400      0    7.91e+03    0    3.14e+03
2003 10 30  0815    52942   29700      0    7.92e+03    0    3.15e+03
2003 10 30  0820    52942   30000      0    7.89e+03    0    3.12e+03
2003 10 30  0825    52942   30300      0    7.64e+03    0    2.88e+03
2003 10 30  0830    52942   30600      0    7.33e+03    0    2.57e+03
2003 10 30  0835    52942   30900      0    7.38e+03    0    2.61e+03
2003 10 30  0840    52942   31200      0    7.23e+03    0    2.47e+03
2003 10 30  0845    52942   31500      0    7.07e+03    0    2.32e+03
2003 10 30  0850    52942   31800      0    7.19e+03    0    2.42e+03
2003 10 30  0855    52942   32100      0    8.02e+03    0    3.25e+03
2003 10 30  0900    52942   32400      0    8.33e+03    0    3.57e+03
2003 10 30  0905    52942   32700      0    8.34e+03    0    3.57e+03
2003 10 30  0910    52942   33000      0    8.37e+03    0    3.61e+03
2003 10 30  0915    52942   33300      0    8.18e+03    0    3.41e+03
2003 10 30  0920    52942   33600      0    8.89e+03    0    4.12e+03
2003 10 30  0925    52942   33900      0    9.61e+03    0    4.85e+03
2003 10 30  0930    52942   34200      0    9.76e+03    0    4.99e+03
2003 10 30  0935    52942   34500      0    9.89e+03    0    5.12e+03
2003 10 30  0940    52942   34800      0    1.01e+04    0    5.31e+03
2003 10 30  0945    52942   35100      0    9.97e+03    0    5.21e+03
2003 10 30  0950    52942   35400      0    9.80e+03    0    5.04e+03
2003 10 30  0955    52942   35700      0    1.01e+04    0    5.29e+03
2003 10 30  1000    52942   36000      0    1.10e+04    0    6.21e+03
2003 10 30  1005    52942   36300      0    1.20e+04    0    7.19e+03
2003 10 30  1010    52942   36600      0    1.18e+04    0    7.07e+03
2003 10 30  1015    52942   36900      0    1.16e+04    0    6.83e+03
2003 10 30  1020    52942   37200      0    1.18e+04    0    7.06e+03
2003 10 30  1025    52942   37500      0    1.16e+04    0    6.87e+03
2003 10 30  1030    52942   37800      0    1.13e+04    0    6.53e+03
2003 10 30  1035    52942   38100      0    1.17e+04    0    6.89e+03
2003 10 30  1040    52942   38400      0    1.20e+04    0    7.19e+03
2003 10 30  1045    52942   38700      0    1.18e+04    0    7.06e+03
2003 10 30  1050    52942   39000      0    1.22e+04    0    7.40e+03
2003 10 30  1055    52942   39300      0    1.16e+04    0    6.88e+03
2003 10 30  1100    52942   39600      0    1.16e+04    0    6.83e+03
2003 10 30  1105    52942   39900      0    1.15e+04    0    6.78e+03
2003 10 30  1110    52942   40200      0    1.16e+04    0    6.85e+03
2003 10 30  1115    52942   40500      0    1.18e+04    0    7.05e+03
2003 10 30  1120    52942   40800      0    1.12e+04    0    6.40e+03
2003 10 30  1125    52942   41100      0    1.18e+04    0    7.00e+03
2003 10 30  1130    52942   41400      0    1.13e+04    0    6.54e+03
2003 10 30  1135    52942   41700      0    1.15e+04    0    6.70e+03
2003 10 30  1140    52942   42000      0    1.16e+04    0    6.80e+03
2003 10 30  1145    52942   42300      0    1.15e+04    0    6.74e+03
2003 10 30  1150    52942   42600      0    1.11e+04    0    6.36e+03
2003 10 30  1155    52942   42900      0    1.10e+04    0    6.23e+03
2003 10 30  1200    52942   43200      0    1.10e+04    0    6.23e+03
2003 10 30  1205    52942   43500      0    1.09e+04    0    6.10e+03
2003 10 30  1210    52942   43800      0    1.13e+04    0    6.53e+03
2003 10 30  1215    52942   44100      0    1.10e+04    0    6.21e+03
2003 10 30  1220    52942   44400      0    1.07e+04    0    5.90e+03
2003 10 30  1225    52942   44700      0    1.04e+04    0    5.68e+03
2003 10 30  1230    52942   45000      0    1.07e+04    0    5.96e+03
2003 10 30  1235    52942   45300      0    1.06e+04    0    5.79e+03
2003 10 30  1240    52942   45600      0    1.06e+04    0    5.83e+03
2003 10 30  1245    52942   45900      0    1.03e+04    0    5.57e+03
2003 10 30  1250    52942   46200      0    1.00e+04    0    5.28e+03
2003 10 30  1255    52942   46500      0    1.03e+04    0    5.52e+03
2003 10 30  1300    52942   46800      0    1.01e+04    0    5.30e+03
2003 10 30  1305    52942   47100      0    1.00e+04    0    5.24e+03
2003 10 30  1310    52942   47400      0    1.00e+04    0    5.25e+03
2003 10 30  1315    52942   47700      0    1.01e+04    0    5.36e+03
2003 10 30  1320    52942   48000      0    9.82e+03    0    5.05e+03
2003 10 30  1325    52942   48300      0    9.63e+03    0    4.87e+03
2003 10 30  1330    52942   48600      0    1.01e+04    0    5.34e+03
2003 10 30  1335    52942   48900      0    1.03e+04    0    5.52e+03
2003 10 30  1340    52942   49200      0    1.00e+04    0    5.27e+03
2003 10 30  1345    52942   49500      0    9.70e+03    0    4.93e+03
2003 10 30  1350    52942   49800      0    9.23e+03    0    4.46e+03
2003 10 30  1355    52942   50100      0    9.14e+03    0    4.38e+03
2003 10 30  1400    52942   50400      0    9.16e+03    0    4.39e+03
2003 10 30  1405    52942   50700      0    9.04e+03    0    4.27e+03
2003 10 30  1410    52942   51000      0    9.55e+03    0    4.79e+03
2003 10 30  1415    52942   51300      0    9.22e+03    0    4.45e+03
2003 10 30  1420    52942   51600      0    9.65e+03    0    4.88e+03
2003 10 30  1425    52942   51900      0    9.50e+03    0    4.74e+03
2003 10 30  1430    52942   52200      0    9.44e+03    0    4.67e+03
2003 10 30  1435    52942   52500      0    9.51e+03    0    4.74e+03
2003 10 30  1440    52942   52800      0    9.26e+03    0    4.49e+03
2003 10 30  1445    52942   53100      0    9.27e+03    0    4.50e+03
2003 10 30  1450    52942   53400      0    9.39e+03    0    4.62e+03
2003 10 30  1455    52942   53700      0    9.64e+03    0    4.88e+03
2003 10 30  1500    52942   54000      0    9.97e+03    0    5.21e+03
2003 10 30  1505    52942   54300      0    1.01e+04    0    5.33e+03
2003 10 30  1510    52942   54600      0    1.03e+04    0    5.50e+03
2003 10 30  1515    52942   54900      0    1.01e+04    0    5.38e+03
2003 10 30  1520    52942   55200      0    1.01e+04    0    5.30e+03
2003 10 30  1525    52942   55500      0    9.93e+03    0    5.16e+03
2003 10 30  1530    52942   55800      0    9.74e+03    0    4.97e+03
2003 10 30  1535    52942   56100      0    9.88e+03    0    5.12e+03
2003 10 30  1540    52942   56400      0    9.69e+03    0    4.92e+03
2003 10 30  1545    52942   56700      0    9.67e+03    0    4.91e+03
2003 10 30  1550    52942   57000      0    9.70e+03    0    4.94e+03
2003 10 30  1555    52942   57300      0    9.86e+03    0    5.09e+03
2003 10 30  1600    52942   57600      0    9.93e+03    0    5.17e+03
2003 10 30  1605    52942   57900      0    9.91e+03    0    5.14e+03
2003 10 30  1610    52942   58200      0    9.98e+03    0    5.22e+03
2003 10 30  1615    52942   58500      0    1.00e+04    0    5.28e+03
2003 10 30  1620    52942   58800      0    9.00e+03    0    4.23e+03
2003 10 30  1625    52942   59100      0    8.59e+03    0    3.82e+03
2003 10 30  1630    52942   59400      0    8.37e+03    0    3.60e+03
2003 10 30  1635    52942   59700      0    7.94e+03    0    3.17e+03
2003 10 30  1640    52942   60000      0    7.70e+03    0    2.94e+03
2003 10 30  1645    52942   60300      0    8.58e+03    0    3.81e+03
2003 10 30  1650    52942   60600      0    8.19e+03    0    3.42e+03
2003 10 30  1655    52942   60900      0    8.32e+03    0    3.56e+03
2003 10 30  1700    52942   61200      0    8.30e+03    0    3.54e+03
2003 10 30  1705    52942   61500      0    8.74e+03    0    3.98e+03
2003 10 30  1710    52942   61800      0    8.68e+03    0    3.91e+03
2003 10 30  1715    52942   62100      0    8.27e+03    0    3.51e+03
2003 10 30  1720    52942   62400      0    7.92e+03    0    3.15e+03
2003 10 30  1725    52942   62700      0    7.86e+03    0    3.10e+03
2003 10 30  1730    52942   63000      0    7.91e+03    0    3.14e+03
2003 10 30  1735    52942   63300      0    6.97e+03    0    2.21e+03
2003 10 30  1740    52942   63600      0    6.63e+03    0    1.86e+03
2003 10 30  1745    52942   63900      0    6.26e+03    0    1.50e+03
2003 10 30  1750    52942   64200      0    6.20e+03    0    1.43e+03
2003 10 30  1755    52942   64500      0    6.23e+03    0    1.47e+03
2003 10 30  1800    52942   64800      0    6.37e+03    0    1.60e+03
2003 10 30  1805    52942   65100      0    6.49e+03    0    1.73e+03
2003 10 30  1810    52942   65400      0    6.54e+03    0    1.77e+03
2003 10 30  1815    52942   65700      0    6.39e+03    0    1.62e+03
2003 10 30  1820    52942   66000      0    6.44e+03    0    1.67e+03
2003 10 30  1825    52942   66300      0    6.42e+03    0    1.65e+03
2003 10 30  1830    52942   66600      0    6.31e+03    0    1.55e+03
2003 10 30  1835    52942   66900      0    6.35e+03    0    1.59e+03
2003 10 30  1840    52942   67200      0    6.31e+03    0    1.54e+03
2003 10 30  1845    52942   67500      0    6.35e+03    0    1.59e+03
2003 10 30  1850    52942   67800      0    6.62e+03    0    1.85e+03
2003 10 30  1855    52942   68100      0    6.24e+03    0    1.48e+03
2003 10 30  1900    52942   68400      0    5.81e+03    0    1.05e+03
2003 10 30  1905    52942   68700      0    6.13e+03    0    1.36e+03
2003 10 30  1910    52942   69000      0    7.55e+03    0    2.78e+03
2003 10 30  1915    52942   69300      0    8.98e+03    0    4.22e+03
2003 10 30  1920    52942   69600      0    9.39e+03    0    4.63e+03
2003 10 30  1925    52942   69900      0    8.60e+03    0    3.83e+03
2003 10 30  1930    52942   70200      0    8.40e+03    0    3.64e+03
2003 10 30  1935    52942   70500      0    7.94e+03    0    3.17e+03
2003 10 30  1940    52942   70800      0    7.00e+03    0    2.23e+03
2003 10 30  1945    52942   71100      0    7.27e+03    0    2.51e+03
2003 10 30  1950    52942   71400      0    7.92e+03    0    3.16e+03
2003 10 30  1955    52942   71700      0    8.50e+03    0    3.73e+03
2003 10 30  2000    52942   72000      0    7.69e+03    0    2.92e+03
2003 10 30  2005    52942   72300      0    6.94e+03    0    2.17e+03
2003 10 30  2010    52942   72600      0    6.38e+03    0    1.61e+03
2003 10 30  2015    52942   72900      0    6.28e+03    0    1.52e+03
2003 10 30  2020    52942   73200      0    6.03e+03    0    1.26e+03
2003 10 30  2025    52942   73500      0    5.96e+03    0    1.19e+03
2003 10 30  2030    52942   73800      0    6.07e+03    0    1.30e+03
2003 10 30  2035    52942   74100      0    6.03e+03    0    1.27e+03
2003 10 30  2040    52942   74400      0    5.90e+03    0    1.14e+03
2003 10 30  2045    52942   74700      0    5.84e+03    0    1.07e+03
2003 10 30  2050    52942   75000      0    5.80e+03    0    1.04e+03
2003 10 30  2055    52942   75300      0    5.76e+03    0    9.95e+02
2003 10 30  2100    52942   75600      0    5.68e+03    0    9.17e+02
2003 10 30  2105    52942   75900      0    5.59e+03    0    8.29e+02
2003 10 30  2110    52942   76200      0    5.35e+03    0    6.62e+02
2003 10 30  2115    52942   76500      0    3.40e+03    0    4.09e+02
2003 10 30  2120    52942   76800      0    1.86e+03    0    2.54e+02
2003 10 30  2125    52942   77100      0    1.57e+03    0    2.17e+02
2003 10 30  2130    52942   77400      0    1.97e+03    0    2.71e+02
2003 10 30  2135    52942   77700      0    2.44e+03    0    3.13e+02
2003 10 30  2140    52942   78000      0    2.45e+03    0    3.21e+02
2003 10 30  2145    52942   78300      0    2.07e+03    0    2.74e+02
2003 10 30  2150    52942   78600      0    1.79e+03    0    2.45e+02
2003 10 30  2155    52942   78900      0    2.17e+03    0    2.89e+02
2003 10 30  2200    52942   79200      0    2.29e+03    0    2.90e+02
2003 10 30  2205    52942   79500      0    2.26e+03    0    2.83e+02
2003 10 30  2210    52942   79800      0    2.24e+03    0    2.94e+02
2003 10 30  2215    52942   80100      0    2.07e+03    0    2.58e+02
2003 10 30  2220    52942   80400      0    1.94e+03    0    2.52e+02
2003 10 30  2225    52942   80700      0    1.88e+03    0    2.45e+02
2003 10 30  2230    52942   81000      0    1.72e+03    0    2.18e+02
2003 10 30  2235    52942   81300      0    1.35e+03    0    1.84e+02
2003 10 30  2240    52942   81600      0    1.24e+03    0    1.68e+02
2003 10 30  2245    52942   81900      0    1.23e+03    0    1.73e+02
2003 10 30  2250    52942   82200      0    1.48e+03    0    1.97e+02
2003 10 30  2255    52942   82500      0    1.57e+03    0    1.98e+02
2003 10 30  2300    52942   82800      0    1.61e+03    0    2.20e+02
2003 10 30  2305    52942   83100      0    1.62e+03    0    2.18e+02
2003 10 30  2310    52942   83400      0    1.59e+03    0    2.07e+02
2003 10 30  2315    52942   83700      0    1.60e+03    0    1.96e+02
2003 10 30  2320    52942   84000      0    1.51e+03    0    1.86e+02
2003 10 30  2325    52942   84300      0    1.47e+03    0    1.72e+02
2003 10 30  2330    52942   84600      0    1.49e+03    0    1.80e+02
2003 10 30  2335    52942   84900      0    1.43e+03    0    1.74e+02
2003 10 30  2340    52942   85200      0    1.40e+03    0    1.65e+02
2003 10 30  2345    52942   85500      0    1.34e+03    0    1.57e+02
2003 10 30  2350    52942   85800      0    1.32e+03    0    1.53e+02
2003 10 30  2355    52942   86100      0    1.27e+03    0    1.52e+02
