:Data_list: 20031105_ace_sis_5m.txt
:Created: 2003 Nov 06 0011 UT
# Prepared by the U.S. Dept. of Commerce, NOAA, Space Environment Center.
# Please send comments and suggestions to SEC.Webmaster@noaa.gov 
# 
# Units: proton flux p/cs2-sec-ster
# Status(S): 0 = nominal data, 1 to 8 = bad data record, 9 = no data
# Missing data values: -1.00e+05
# Source: ACE Satellite - Solar Isotope Spectrometer
#
# 5-minute averaged Real-time Integral Flux of High-energy Solar Protons
# 
#                 Modified Seconds
# UT Date   Time   Julian  of the      ---- Integral Proton Flux ----
# YR MO DA  HHMM     Day     Day       S    > 10 MeV    S    > 30 MeV
#--------------------------------------------------------------------
2003 11 05  0000    52948       0      0    6.12e+01    0    7.00e+00
2003 11 05  0005    52948     300      0    6.48e+01    0    7.02e+00
2003 11 05  0010    52948     600      0    6.73e+01    0    7.50e+00
2003 11 05  0015    52948     900      0    6.84e+01    0    8.15e+00
2003 11 05  0020    52948    1200      0    7.19e+01    0    7.61e+00
2003 11 05  0025    52948    1500      0    7.73e+01    0    8.22e+00
2003 11 05  0030    52948    1800      0    7.98e+01    0    9.06e+00
2003 11 05  0035    52948    2100      0    8.41e+01    0    9.28e+00
2003 11 05  0040    52948    2400      0    7.64e+01    0    9.06e+00
2003 11 05  0045    52948    2700      0    7.19e+01    0    8.75e+00
2003 11 05  0050    52948    3000      0    8.07e+01    0    9.16e+00
2003 11 05  0055    52948    3300      0    7.66e+01    0    8.17e+00
2003 11 05  0100    52948    3600      0    7.26e+01    0    9.08e+00
2003 11 05  0105    52948    3900      0    7.18e+01    0    8.91e+00
2003 11 05  0110    52948    4200      0    7.06e+01    0    8.37e+00
2003 11 05  0115    52948    4500      0    7.38e+01    0    8.89e+00
2003 11 05  0120    52948    4800      0    7.42e+01    0    9.33e+00
2003 11 05  0125    52948    5100      0    7.31e+01    0    1.01e+01
2003 11 05  0130    52948    5400      0    7.51e+01    0    9.59e+00
2003 11 05  0135    52948    5700      0    7.38e+01    0    1.00e+01
2003 11 05  0140    52948    6000      0    7.61e+01    0    1.06e+01
2003 11 05  0145    52948    6300      0    7.25e+01    0    9.72e+00
2003 11 05  0150    52948    6600      0    7.07e+01    0    9.84e+00
2003 11 05  0155    52948    6900      0    7.19e+01    0    1.01e+01
2003 11 05  0200    52948    7200      0    7.76e+01    0    1.13e+01
2003 11 05  0205    52948    7500      0    8.01e+01    0    1.12e+01
2003 11 05  0210    52948    7800      0    8.14e+01    0    1.22e+01
2003 11 05  0215    52948    8100      0    8.70e+01    0    1.25e+01
2003 11 05  0220    52948    8400      0    9.61e+01    0    1.39e+01
2003 11 05  0225    52948    8700      0    1.12e+02    0    1.56e+01
2003 11 05  0230    52948    9000      0    1.35e+02    0    1.68e+01
2003 11 05  0235    52948    9300      0    1.18e+02    0    1.70e+01
2003 11 05  0240    52948    9600      0    9.97e+01    0    1.52e+01
2003 11 05  0245    52948    9900      0    1.05e+02    0    1.60e+01
2003 11 05  0250    52948   10200      0    1.07e+02    0    1.70e+01
2003 11 05  0255    52948   10500      0    1.08e+02    0    1.66e+01
2003 11 05  0300    52948   10800      0    1.05e+02    0    1.67e+01
2003 11 05  0305    52948   11100      0    1.09e+02    0    1.72e+01
2003 11 05  0310    52948   11400      0    1.19e+02    0    1.91e+01
2003 11 05  0315    52948   11700      0    1.27e+02    0    2.11e+01
2003 11 05  0320    52948   12000      0    1.29e+02    0    2.13e+01
2003 11 05  0325    52948   12300      0    1.29e+02    0    2.18e+01
2003 11 05  0330    52948   12600      0    1.27e+02    0    2.12e+01
2003 11 05  0335    52948   12900      0    1.25e+02    0    2.07e+01
2003 11 05  0340    52948   13200      0    1.20e+02    0    2.11e+01
2003 11 05  0345    52948   13500      0    1.28e+02    0    2.36e+01
2003 11 05  0350    52948   13800      0    1.23e+02    0    2.26e+01
2003 11 05  0355    52948   14100      0    1.27e+02    0    2.44e+01
2003 11 05  0400    52948   14400      0    1.42e+02    0    2.64e+01
2003 11 05  0405    52948   14700      0    1.47e+02    0    2.71e+01
2003 11 05  0410    52948   15000      0    1.40e+02    0    2.74e+01
2003 11 05  0415    52948   15300      0    1.44e+02    0    2.90e+01
2003 11 05  0420    52948   15600      0    1.52e+02    0    2.92e+01
2003 11 05  0425    52948   15900      0    1.58e+02    0    2.90e+01
2003 11 05  0430    52948   16200      0    1.68e+02    0    3.12e+01
2003 11 05  0435    52948   16500      0    1.78e+02    0    3.46e+01
2003 11 05  0440    52948   16800      0    1.89e+02    0    3.80e+01
2003 11 05  0445    52948   17100      0    1.88e+02    0    3.76e+01
2003 11 05  0450    52948   17400      0    1.97e+02    0    3.61e+01
2003 11 05  0455    52948   17700      0    1.91e+02    0    3.54e+01
2003 11 05  0500    52948   18000      0    1.83e+02    0    3.37e+01
2003 11 05  0505    52948   18300      0    1.73e+02    0    3.23e+01
2003 11 05  0510    52948   18600      0    1.70e+02    0    2.98e+01
2003 11 05  0515    52948   18900      0    1.58e+02    0    2.92e+01
2003 11 05  0520    52948   19200      0    1.57e+02    0    2.88e+01
2003 11 05  0525    52948   19500      0    1.90e+02    0    3.27e+01
2003 11 05  0530    52948   19800      0    2.35e+02    0    4.16e+01
2003 11 05  0535    52948   20100      0    2.24e+02    0    3.78e+01
2003 11 05  0540    52948   20400      0    2.04e+02    0    3.59e+01
2003 11 05  0545    52948   20700      0    2.27e+02    0    4.02e+01
2003 11 05  0550    52948   21000      0    2.45e+02    0    4.36e+01
2003 11 05  0555    52948   21300      0    2.35e+02    0    4.21e+01
2003 11 05  0600    52948   21600      0    2.26e+02    0    4.05e+01
2003 11 05  0605    52948   21900      0    2.33e+02    0    4.10e+01
2003 11 05  0610    52948   22200      0    2.35e+02    0    4.19e+01
2003 11 05  0615    52948   22500      0    2.25e+02    0    3.89e+01
2003 11 05  0620    52948   22800      0    2.19e+02    0    3.88e+01
2003 11 05  0625    52948   23100      0    2.35e+02    0    4.17e+01
2003 11 05  0630    52948   23400      0    2.30e+02    0    4.20e+01
2003 11 05  0635    52948   23700      0    2.35e+02    0    4.28e+01
2003 11 05  0640    52948   24000      0    2.37e+02    0    4.35e+01
2003 11 05  0645    52948   24300      0    2.33e+02    0    4.24e+01
2003 11 05  0650    52948   24600      0    2.33e+02    0    4.19e+01
2003 11 05  0655    52948   24900      0    2.27e+02    0    3.84e+01
2003 11 05  0700    52948   25200      0    2.32e+02    0    3.90e+01
2003 11 05  0705    52948   25500      0    2.48e+02    0    4.16e+01
2003 11 05  0710    52948   25800      0    2.48e+02    0    4.40e+01
2003 11 05  0715    52948   26100      9   -1.00e+05    9   -1.00e+05
2003 11 05  0720    52948   26400      9   -1.00e+05    9   -1.00e+05
2003 11 05  0725    52948   26700      9   -1.00e+05    9   -1.00e+05
2003 11 05  0730    52948   27000      9   -1.00e+05    9   -1.00e+05
2003 11 05  0735    52948   27300      0    2.47e+02    0    4.29e+01
2003 11 05  0740    52948   27600      0    2.65e+02    0    4.43e+01
2003 11 05  0745    52948   27900      0    3.07e+02    0    4.94e+01
2003 11 05  0750    52948   28200      0    2.70e+02    0    4.38e+01
2003 11 05  0755    52948   28500      0    2.89e+02    0    4.51e+01
2003 11 05  0800    52948   28800      0    2.96e+02    0    4.86e+01
2003 11 05  0805    52948   29100      0    2.93e+02    0    4.49e+01
2003 11 05  0810    52948   29400      9   -1.00e+05    9   -1.00e+05
2003 11 05  0815    52948   29700      9   -1.00e+05    9   -1.00e+05
2003 11 05  0820    52948   30000      9   -1.00e+05    9   -1.00e+05
2003 11 05  0825    52948   30300      0    2.63e+02    0    4.26e+01
2003 11 05  0830    52948   30600      0    2.45e+02    0    4.01e+01
2003 11 05  0835    52948   30900      0    2.48e+02    0    4.15e+01
2003 11 05  0840    52948   31200      0    2.69e+02    0    4.38e+01
2003 11 05  0845    52948   31500      0    2.73e+02    0    4.54e+01
2003 11 05  0850    52948   31800      0    2.83e+02    0    4.53e+01
2003 11 05  0855    52948   32100      0    2.81e+02    0    4.54e+01
2003 11 05  0900    52948   32400      0    2.62e+02    0    4.28e+01
2003 11 05  0905    52948   32700      0    2.72e+02    0    4.40e+01
2003 11 05  0910    52948   33000      0    2.83e+02    0    4.62e+01
2003 11 05  0915    52948   33300      0    2.91e+02    0    4.86e+01
2003 11 05  0920    52948   33600      0    2.80e+02    0    4.50e+01
2003 11 05  0925    52948   33900      0    2.76e+02    0    4.74e+01
2003 11 05  0930    52948   34200      0    2.71e+02    0    4.56e+01
2003 11 05  0935    52948   34500      0    2.58e+02    0    4.39e+01
2003 11 05  0940    52948   34800      0    2.46e+02    0    4.15e+01
2003 11 05  0945    52948   35100      0    2.28e+02    0    3.69e+01
2003 11 05  0950    52948   35400      0    2.27e+02    0    3.81e+01
2003 11 05  0955    52948   35700      0    2.22e+02    0    3.84e+01
2003 11 05  1000    52948   36000      0    2.19e+02    0    3.90e+01
2003 11 05  1005    52948   36300      0    2.02e+02    0    3.48e+01
2003 11 05  1010    52948   36600      0    1.92e+02    0    3.33e+01
2003 11 05  1015    52948   36900      0    2.03e+02    0    3.53e+01
2003 11 05  1020    52948   37200      0    2.00e+02    0    3.60e+01
2003 11 05  1025    52948   37500      0    2.04e+02    0    3.55e+01
2003 11 05  1030    52948   37800      0    2.03e+02    0    3.66e+01
2003 11 05  1035    52948   38100      0    1.93e+02    0    3.45e+01
2003 11 05  1040    52948   38400      0    1.96e+02    0    3.64e+01
2003 11 05  1045    52948   38700      0    1.93e+02    0    3.39e+01
2003 11 05  1050    52948   39000      0    2.02e+02    0    3.38e+01
2003 11 05  1055    52948   39300      0    1.90e+02    0    3.33e+01
2003 11 05  1100    52948   39600      0    1.64e+02    0    3.08e+01
2003 11 05  1105    52948   39900      0    1.79e+02    0    3.26e+01
2003 11 05  1110    52948   40200      0    1.75e+02    0    3.24e+01
2003 11 05  1115    52948   40500      0    1.68e+02    0    3.11e+01
2003 11 05  1120    52948   40800      0    1.53e+02    0    2.87e+01
2003 11 05  1125    52948   41100      0    1.60e+02    0    2.98e+01
2003 11 05  1130    52948   41400      0    1.69e+02    0    3.15e+01
2003 11 05  1135    52948   41700      0    1.43e+02    0    2.78e+01
2003 11 05  1140    52948   42000      0    1.45e+02    0    2.66e+01
2003 11 05  1145    52948   42300      0    1.55e+02    0    2.94e+01
2003 11 05  1150    52948   42600      0    1.80e+02    0    3.41e+01
2003 11 05  1155    52948   42900      0    1.87e+02    0    3.42e+01
2003 11 05  1200    52948   43200      0    1.85e+02    0    3.25e+01
2003 11 05  1205    52948   43500      0    1.76e+02    0    3.19e+01
2003 11 05  1210    52948   43800      0    1.76e+02    0    3.10e+01
2003 11 05  1215    52948   44100      0    1.83e+02    0    3.24e+01
2003 11 05  1220    52948   44400      0    1.71e+02    0    3.01e+01
2003 11 05  1225    52948   44700      0    1.63e+02    0    2.93e+01
2003 11 05  1230    52948   45000      0    1.56e+02    0    2.88e+01
2003 11 05  1235    52948   45300      0    1.52e+02    0    2.76e+01
2003 11 05  1240    52948   45600      0    1.60e+02    0    2.97e+01
2003 11 05  1245    52948   45900      0    1.58e+02    0    2.80e+01
2003 11 05  1250    52948   46200      0    1.54e+02    0    3.02e+01
2003 11 05  1255    52948   46500      0    1.52e+02    0    2.93e+01
2003 11 05  1300    52948   46800      0    1.44e+02    0    2.76e+01
2003 11 05  1305    52948   47100      0    1.47e+02    0    2.78e+01
2003 11 05  1310    52948   47400      0    1.44e+02    0    2.78e+01
2003 11 05  1315    52948   47700      0    1.43e+02    0    2.51e+01
2003 11 05  1320    52948   48000      0    1.33e+02    0    2.62e+01
2003 11 05  1325    52948   48300      0    1.36e+02    0    2.47e+01
2003 11 05  1330    52948   48600      0    1.32e+02    0    2.45e+01
2003 11 05  1335    52948   48900      0    1.28e+02    0    2.30e+01
2003 11 05  1340    52948   49200      0    1.23e+02    0    2.29e+01
2003 11 05  1345    52948   49500      0    1.20e+02    0    2.25e+01
2003 11 05  1350    52948   49800      0    1.21e+02    0    2.22e+01
2003 11 05  1355    52948   50100      0    1.20e+02    0    2.19e+01
2003 11 05  1400    52948   50400      0    1.18e+02    0    2.20e+01
2003 11 05  1405    52948   50700      0    1.21e+02    0    2.25e+01
2003 11 05  1410    52948   51000      0    1.24e+02    0    2.24e+01
2003 11 05  1415    52948   51300      0    1.28e+02    0    2.46e+01
2003 11 05  1420    52948   51600      0    1.27e+02    0    2.31e+01
2003 11 05  1425    52948   51900      0    1.26e+02    0    2.30e+01
2003 11 05  1430    52948   52200      0    1.21e+02    0    2.28e+01
2003 11 05  1435    52948   52500      0    1.25e+02    0    2.46e+01
2003 11 05  1440    52948   52800      0    1.25e+02    0    2.30e+01
2003 11 05  1445    52948   53100      0    1.27e+02    0    2.41e+01
2003 11 05  1450    52948   53400      0    1.26e+02    0    2.46e+01
2003 11 05  1455    52948   53700      0    1.28e+02    0    2.54e+01
2003 11 05  1500    52948   54000      0    1.30e+02    0    2.57e+01
2003 11 05  1505    52948   54300      0    1.31e+02    0    2.62e+01
2003 11 05  1510    52948   54600      0    1.32e+03    0    1.82e+01
2003 11 05  1515    52948   54900      0    1.24e+02    0    2.48e+01
2003 11 05  1520    52948   55200      0    1.27e+02    0    2.59e+01
2003 11 05  1525    52948   55500      0    1.32e+02    0    2.62e+01
2003 11 05  1530    52948   55800      0    1.30e+02    0    2.65e+01
2003 11 05  1535    52948   56100      0    1.27e+02    0    2.60e+01
2003 11 05  1540    52948   56400      0    1.25e+02    0    2.45e+01
2003 11 05  1545    52948   56700      0    1.26e+02    0    2.46e+01
2003 11 05  1550    52948   57000      0    1.25e+02    0    2.44e+01
2003 11 05  1555    52948   57300      0    1.25e+02    0    2.42e+01
2003 11 05  1600    52948   57600      0    1.24e+02    0    2.57e+01
2003 11 05  1605    52948   57900      0    1.20e+02    0    2.38e+01
2003 11 05  1610    52948   58200      0    1.19e+02    0    2.43e+01
2003 11 05  1615    52948   58500      0    1.13e+02    0    2.20e+01
2003 11 05  1620    52948   58800      0    1.14e+02    0    2.32e+01
2003 11 05  1625    52948   59100      0    1.26e+02    0    2.52e+01
2003 11 05  1630    52948   59400      0    1.19e+02    0    2.33e+01
2003 11 05  1635    52948   59700      0    1.10e+02    0    2.18e+01
2003 11 05  1640    52948   60000      0    1.13e+02    0    2.26e+01
2003 11 05  1645    52948   60300      0    1.16e+02    0    2.27e+01
2003 11 05  1650    52948   60600      0    1.16e+02    0    2.27e+01
2003 11 05  1655    52948   60900      0    1.11e+02    0    2.17e+01
2003 11 05  1700    52948   61200      0    1.06e+02    0    2.11e+01
2003 11 05  1705    52948   61500      0    1.13e+02    0    2.17e+01
2003 11 05  1710    52948   61800      0    1.14e+02    0    2.18e+01
2003 11 05  1715    52948   62100      0    1.14e+02    0    2.23e+01
2003 11 05  1720    52948   62400      0    1.15e+02    0    2.22e+01
2003 11 05  1725    52948   62700      0    1.16e+02    0    2.18e+01
2003 11 05  1730    52948   63000      0    1.15e+02    0    2.23e+01
2003 11 05  1735    52948   63300      0    1.14e+02    0    2.17e+01
2003 11 05  1740    52948   63600      0    1.10e+02    0    2.16e+01
2003 11 05  1745    52948   63900      0    1.12e+02    0    2.21e+01
2003 11 05  1750    52948   64200      0    1.11e+02    0    2.19e+01
2003 11 05  1755    52948   64500      0    1.04e+02    0    2.05e+01
2003 11 05  1800    52948   64800      0    1.05e+02    0    2.17e+01
2003 11 05  1805    52948   65100      0    1.01e+02    0    1.93e+01
2003 11 05  1810    52948   65400      0    1.02e+02    0    2.03e+01
2003 11 05  1815    52948   65700      0    1.04e+02    0    2.00e+01
2003 11 05  1820    52948   66000      0    1.05e+02    0    2.03e+01
2003 11 05  1825    52948   66300      0    1.04e+02    0    2.10e+01
2003 11 05  1830    52948   66600      0    1.02e+02    0    2.01e+01
2003 11 05  1835    52948   66900      0    1.05e+02    0    2.10e+01
2003 11 05  1840    52948   67200      0    1.12e+02    0    2.11e+01
2003 11 05  1845    52948   67500      0    1.13e+02    0    2.23e+01
2003 11 05  1850    52948   67800      0    1.19e+02    0    2.27e+01
2003 11 05  1855    52948   68100      0    1.19e+02    0    2.26e+01
2003 11 05  1900    52948   68400      0    1.19e+02    0    2.30e+01
2003 11 05  1905    52948   68700      0    1.21e+02    0    2.28e+01
2003 11 05  1910    52948   69000      0    1.18e+02    0    2.19e+01
2003 11 05  1915    52948   69300      0    1.15e+02    0    2.11e+01
2003 11 05  1920    52948   69600      0    1.13e+02    0    2.12e+01
2003 11 05  1925    52948   69900      0    1.13e+02    0    2.16e+01
2003 11 05  1930    52948   70200      0    1.08e+02    0    2.02e+01
2003 11 05  1935    52948   70500      0    1.08e+02    0    2.03e+01
2003 11 05  1940    52948   70800      0    1.06e+02    0    1.94e+01
2003 11 05  1945    52948   71100      0    1.07e+02    0    1.91e+01
2003 11 05  1950    52948   71400      0    1.09e+02    0    2.00e+01
2003 11 05  1955    52948   71700      0    1.09e+02    0    2.06e+01
2003 11 05  2000    52948   72000      0    1.10e+02    0    1.98e+01
2003 11 05  2005    52948   72300      0    1.12e+02    0    2.05e+01
2003 11 05  2010    52948   72600      0    1.12e+02    0    1.99e+01
2003 11 05  2015    52948   72900      0    1.12e+02    0    2.04e+01
2003 11 05  2020    52948   73200      0    1.15e+02    0    2.10e+01
2003 11 05  2025    52948   73500      0    1.17e+02    0    2.19e+01
2003 11 05  2030    52948   73800      0    1.17e+02    0    2.20e+01
2003 11 05  2035    52948   74100      0    1.16e+02    0    2.04e+01
2003 11 05  2040    52948   74400      0    1.15e+02    0    2.14e+01
2003 11 05  2045    52948   74700      0    1.17e+02    0    2.10e+01
2003 11 05  2050    52948   75000      0    1.13e+02    0    2.15e+01
2003 11 05  2055    52948   75300      0    1.19e+02    0    2.18e+01
2003 11 05  2100    52948   75600      0    1.26e+02    0    2.38e+01
2003 11 05  2105    52948   75900      0    1.25e+02    0    2.30e+01
2003 11 05  2110    52948   76200      0    1.23e+02    0    2.26e+01
2003 11 05  2115    52948   76500      0    1.21e+02    0    2.11e+01
2003 11 05  2120    52948   76800      0    1.22e+02    0    2.15e+01
2003 11 05  2125    52948   77100      0    1.27e+02    0    2.31e+01
2003 11 05  2130    52948   77400      0    1.30e+02    0    2.33e+01
2003 11 05  2135    52948   77700      0    1.29e+02    0    2.31e+01
2003 11 05  2140    52948   78000      0    1.26e+02    0    2.21e+01
2003 11 05  2145    52948   78300      0    1.23e+02    0    2.25e+01
2003 11 05  2150    52948   78600      0    1.19e+02    0    2.14e+01
2003 11 05  2155    52948   78900      0    1.18e+02    0    2.06e+01
2003 11 05  2200    52948   79200      0    1.20e+02    0    2.12e+01
2003 11 05  2205    52948   79500      0    1.17e+02    0    2.00e+01
2003 11 05  2210    52948   79800      0    1.13e+02    0    1.99e+01
2003 11 05  2215    52948   80100      0    1.12e+02    0    2.03e+01
2003 11 05  2220    52948   80400      0    1.10e+02    0    1.93e+01
2003 11 05  2225    52948   80700      0    1.10e+02    0    1.93e+01
2003 11 05  2230    52948   81000      0    1.09e+02    0    2.00e+01
2003 11 05  2235    52948   81300      0    1.08e+02    0    1.96e+01
2003 11 05  2240    52948   81600      0    1.07e+02    0    1.99e+01
2003 11 05  2245    52948   81900      0    1.07e+02    0    1.91e+01
2003 11 05  2250    52948   82200      0    1.05e+02    0    1.87e+01
2003 11 05  2255    52948   82500      0    1.03e+02    0    1.87e+01
2003 11 05  2300    52948   82800      0    1.05e+02    0    1.93e+01
2003 11 05  2305    52948   83100      0    1.06e+02    0    1.93e+01
2003 11 05  2310    52948   83400      0    1.06e+02    0    1.85e+01
2003 11 05  2315    52948   83700      0    1.08e+02    0    1.86e+01
2003 11 05  2320    52948   84000      0    1.06e+02    0    1.87e+01
2003 11 05  2325    52948   84300      0    1.05e+02    0    1.82e+01
2003 11 05  2330    52948   84600      0    1.04e+02    0    1.84e+01
2003 11 05  2335    52948   84900      0    1.02e+02    0    1.79e+01
2003 11 05  2340    52948   85200      0    1.01e+02    0    1.78e+01
2003 11 05  2345    52948   85500      0    9.98e+01    0    1.75e+01
2003 11 05  2350    52948   85800      0    1.00e+02    0    1.76e+01
2003 11 05  2355    52948   86100      0    9.67e+01    0    1.78e+01
