:Data_list: 20031121_ace_sis_5m.txt
:Created: 2003 Nov 22 0011 UT
# Prepared by the U.S. Dept. of Commerce, NOAA, Space Environment Center.
# Please send comments and suggestions to SEC.Webmaster@noaa.gov 
# 
# Units: proton flux p/cs2-sec-ster
# Status(S): 0 = nominal data, 1 to 8 = bad data record, 9 = no data
# Missing data values: -1.00e+05
# Source: ACE Satellite - Solar Isotope Spectrometer
#
# 5-minute averaged Real-time Integral Flux of High-energy Solar Protons
# 
#                 Modified Seconds
# UT Date   Time   Julian  of the      ---- Integral Proton Flux ----
# YR MO DA  HHMM     Day     Day       S    > 10 MeV    S    > 30 MeV
#--------------------------------------------------------------------
2003 11 21  0000    52964       0      9   -1.00e+05    9   -1.00e+05
2003 11 21  0005    52964     300      0    2.05e+00    0    6.77e-01
2003 11 21  0010    52964     600      0    2.09e+00    0    6.82e-01
2003 11 21  0015    52964     900      0    2.08e+00    0    6.54e-01
2003 11 21  0020    52964    1200      0    2.33e+00    0    7.10e-01
2003 11 21  0025    52964    1500      0    2.78e+00    0    6.90e-01
2003 11 21  0030    52964    1800      0    2.84e+00    0    6.98e-01
2003 11 21  0035    52964    2100      0    3.02e+00    0    7.47e-01
2003 11 21  0040    52964    2400      0    3.18e+00    0    7.87e-01
2003 11 21  0045    52964    2700      0    3.60e+00    0    8.66e-01
2003 11 21  0050    52964    3000      0    3.46e+00    0    8.06e-01
2003 11 21  0055    52964    3300      0    3.32e+00    0    7.70e-01
2003 11 21  0100    52964    3600      0    3.33e+00    0    8.32e-01
2003 11 21  0105    52964    3900      0    3.50e+00    0    8.61e-01
2003 11 21  0110    52964    4200      0    3.49e+00    0    8.83e-01
2003 11 21  0115    52964    4500      0    3.42e+00    0    8.33e-01
2003 11 21  0120    52964    4800      0    3.34e+00    0    8.02e-01
2003 11 21  0125    52964    5100      0    3.66e+00    0    8.71e-01
2003 11 21  0130    52964    5400      0    3.84e+00    0    9.08e-01
2003 11 21  0135    52964    5700      0    3.78e+00    0    8.94e-01
2003 11 21  0140    52964    6000      0    3.56e+00    0    8.52e-01
2003 11 21  0145    52964    6300      0    4.08e+00    0    8.30e-01
2003 11 21  0150    52964    6600      0    4.04e+00    0    8.01e-01
2003 11 21  0155    52964    6900      0    4.08e+00    0    8.28e-01
2003 11 21  0200    52964    7200      0    3.23e+00    0    8.12e-01
2003 11 21  0205    52964    7500      0    2.82e+00    0    7.41e-01
2003 11 21  0210    52964    7800      0    2.74e+00    0    7.58e-01
2003 11 21  0215    52964    8100      0    2.79e+00    0    7.50e-01
2003 11 21  0220    52964    8400      0    2.63e+00    0    7.03e-01
2003 11 21  0225    52964    8700      0    2.66e+00    0    7.28e-01
2003 11 21  0230    52964    9000      0    2.84e+00    0    7.63e-01
2003 11 21  0235    52964    9300      0    2.65e+00    0    6.96e-01
2003 11 21  0240    52964    9600      0    2.51e+00    0    7.24e-01
2003 11 21  0245    52964    9900      0    2.46e+00    0    6.91e-01
2003 11 21  0250    52964   10200      0    2.46e+00    0    7.28e-01
2003 11 21  0255    52964   10500      0    2.28e+00    0    6.82e-01
2003 11 21  0300    52964   10800      0    2.25e+00    0    6.96e-01
2003 11 21  0305    52964   11100      0    2.19e+00    0    6.60e-01
2003 11 21  0310    52964   11400      0    2.20e+00    0    6.74e-01
2003 11 21  0315    52964   11700      0    2.20e+00    0    6.82e-01
2003 11 21  0320    52964   12000      0    2.48e+00    0    7.29e-01
2003 11 21  0325    52964   12300      0    2.50e+00    0    7.30e-01
2003 11 21  0330    52964   12600      0    2.40e+00    0    6.96e-01
2003 11 21  0335    52964   12900      0    2.29e+00    0    6.84e-01
2003 11 21  0340    52964   13200      0    2.32e+00    0    6.89e-01
2003 11 21  0345    52964   13500      0    2.57e+00    0    6.86e-01
2003 11 21  0350    52964   13800      0    2.63e+00    0    7.22e-01
2003 11 21  0355    52964   14100      0    2.53e+00    0    7.07e-01
2003 11 21  0400    52964   14400      0    2.58e+00    0    6.95e-01
2003 11 21  0405    52964   14700      0    2.52e+00    0    7.21e-01
2003 11 21  0410    52964   15000      0    2.53e+00    0    6.86e-01
2003 11 21  0415    52964   15300      0    2.52e+00    0    7.00e-01
2003 11 21  0420    52964   15600      0    2.54e+00    0    7.17e-01
2003 11 21  0425    52964   15900      0    2.54e+00    0    6.97e-01
2003 11 21  0430    52964   16200      0    2.51e+00    0    7.12e-01
2003 11 21  0435    52964   16500      0    2.45e+00    0    6.79e-01
2003 11 21  0440    52964   16800      0    2.46e+00    0    6.77e-01
2003 11 21  0445    52964   17100      0    2.39e+00    0    6.66e-01
2003 11 21  0450    52964   17400      0    2.43e+00    0    7.02e-01
2003 11 21  0455    52964   17700      0    2.49e+00    0    6.90e-01
2003 11 21  0500    52964   18000      0    2.48e+00    0    6.96e-01
2003 11 21  0505    52964   18300      0    2.51e+00    0    6.73e-01
2003 11 21  0510    52964   18600      0    2.56e+00    0    6.82e-01
2003 11 21  0515    52964   18900      0    2.70e+00    0    7.04e-01
2003 11 21  0520    52964   19200      0    2.91e+00    0    7.21e-01
2003 11 21  0525    52964   19500      0    2.93e+00    0    6.97e-01
2003 11 21  0530    52964   19800      0    3.13e+00    0    7.06e-01
2003 11 21  0535    52964   20100      0    2.96e+00    0    7.26e-01
2003 11 21  0540    52964   20400      0    3.11e+00    0    7.46e-01
2003 11 21  0545    52964   20700      0    3.46e+00    0    7.40e-01
2003 11 21  0550    52964   21000      0    3.63e+00    0    7.37e-01
2003 11 21  0555    52964   21300      0    3.63e+00    0    7.46e-01
2003 11 21  0600    52964   21600      0    3.66e+00    0    7.62e-01
2003 11 21  0605    52964   21900      0    3.80e+00    0    7.83e-01
2003 11 21  0610    52964   22200      0    3.98e+00    0    8.10e-01
2003 11 21  0615    52964   22500      0    3.86e+00    0    8.01e-01
2003 11 21  0620    52964   22800      0    3.84e+00    0    7.82e-01
2003 11 21  0625    52964   23100      0    3.79e+00    0    7.98e-01
2003 11 21  0630    52964   23400      0    3.91e+00    0    7.71e-01
2003 11 21  0635    52964   23700      0    3.87e+00    0    7.72e-01
2003 11 21  0640    52964   24000      0    3.81e+00    0    7.65e-01
2003 11 21  0645    52964   24300      0    3.82e+00    0    7.62e-01
2003 11 21  0650    52964   24600      0    3.76e+00    0    7.93e-01
2003 11 21  0655    52964   24900      0    3.62e+00    0    7.52e-01
2003 11 21  0700    52964   25200      0    3.50e+00    0    7.37e-01
2003 11 21  0705    52964   25500      0    3.54e+00    0    7.19e-01
2003 11 21  0710    52964   25800      0    3.57e+00    0    7.53e-01
2003 11 21  0715    52964   26100      0    3.63e+00    0    7.17e-01
2003 11 21  0720    52964   26400      0    3.51e+00    0    7.43e-01
2003 11 21  0725    52964   26700      0    3.57e+00    0    7.80e-01
2003 11 21  0730    52964   27000      0    3.63e+00    0    7.39e-01
2003 11 21  0735    52964   27300      0    3.80e+00    0    7.91e-01
2003 11 21  0740    52964   27600      0    3.85e+00    0    7.49e-01
2003 11 21  0745    52964   27900      0    3.69e+00    0    7.31e-01
2003 11 21  0750    52964   28200      0    3.84e+00    0    7.30e-01
2003 11 21  0755    52964   28500      0    3.91e+00    0    7.64e-01
2003 11 21  0800    52964   28800      0    3.94e+00    0    7.78e-01
2003 11 21  0805    52964   29100      0    3.97e+00    0    7.67e-01
2003 11 21  0810    52964   29400      0    3.92e+00    0    7.66e-01
2003 11 21  0815    52964   29700      0    3.85e+00    0    7.54e-01
2003 11 21  0820    52964   30000      0    3.91e+00    0    7.79e-01
2003 11 21  0825    52964   30300      0    4.08e+00    0    7.80e-01
2003 11 21  0830    52964   30600      0    4.25e+00    0    8.43e-01
2003 11 21  0835    52964   30900      0    4.58e+00    0    8.35e-01
2003 11 21  0840    52964   31200      0    4.67e+00    0    8.29e-01
2003 11 21  0845    52964   31500      0    4.47e+00    0    7.92e-01
2003 11 21  0850    52964   31800      0    4.41e+00    0    8.05e-01
2003 11 21  0855    52964   32100      0    4.51e+00    0    8.27e-01
2003 11 21  0900    52964   32400      0    4.55e+00    0    8.23e-01
2003 11 21  0905    52964   32700      0    4.39e+00    0    7.46e-01
2003 11 21  0910    52964   33000      0    4.37e+00    0    8.12e-01
2003 11 21  0915    52964   33300      0    4.18e+00    0    7.57e-01
2003 11 21  0920    52964   33600      0    4.38e+00    0    7.79e-01
2003 11 21  0925    52964   33900      0    4.48e+00    0    8.17e-01
2003 11 21  0930    52964   34200      0    4.51e+00    0    8.12e-01
2003 11 21  0935    52964   34500      0    4.34e+00    0    7.98e-01
2003 11 21  0940    52964   34800      0    4.19e+00    0    7.52e-01
2003 11 21  0945    52964   35100      0    4.19e+00    0    7.60e-01
2003 11 21  0950    52964   35400      0    4.27e+00    0    7.72e-01
2003 11 21  0955    52964   35700      0    4.33e+00    0    7.74e-01
2003 11 21  1000    52964   36000      0    4.22e+00    0    7.44e-01
2003 11 21  1005    52964   36300      0    4.47e+00    0    7.54e-01
2003 11 21  1010    52964   36600      0    4.49e+00    0    7.34e-01
2003 11 21  1015    52964   36900      0    4.56e+00    0    7.69e-01
2003 11 21  1020    52964   37200      0    4.61e+00    0    7.70e-01
2003 11 21  1025    52964   37500      0    4.65e+00    0    8.37e-01
2003 11 21  1030    52964   37800      0    4.60e+00    0    7.97e-01
2003 11 21  1035    52964   38100      0    4.71e+00    0    8.09e-01
2003 11 21  1040    52964   38400      0    4.69e+00    0    7.43e-01
2003 11 21  1045    52964   38700      0    4.85e+00    0    7.94e-01
2003 11 21  1050    52964   39000      0    4.84e+00    0    8.30e-01
2003 11 21  1055    52964   39300      0    4.75e+00    0    8.09e-01
2003 11 21  1100    52964   39600      0    4.76e+00    0    7.56e-01
2003 11 21  1105    52964   39900      0    4.70e+00    0    7.81e-01
2003 11 21  1110    52964   40200      0    4.52e+00    0    8.03e-01
2003 11 21  1115    52964   40500      0    4.72e+00    0    8.09e-01
2003 11 21  1120    52964   40800      0    4.97e+00    0    8.25e-01
2003 11 21  1125    52964   41100      0    5.04e+00    0    7.97e-01
2003 11 21  1130    52964   41400      0    4.86e+00    0    7.91e-01
2003 11 21  1135    52964   41700      0    4.87e+00    0    7.74e-01
2003 11 21  1140    52964   42000      0    5.07e+00    0    7.99e-01
2003 11 21  1145    52964   42300      0    4.82e+00    0    8.18e-01
2003 11 21  1150    52964   42600      0    4.82e+00    0    7.62e-01
2003 11 21  1155    52964   42900      0    4.72e+00    0    7.78e-01
2003 11 21  1200    52964   43200      0    4.66e+00    0    7.29e-01
2003 11 21  1205    52964   43500      0    4.60e+00    0    7.70e-01
2003 11 21  1210    52964   43800      0    4.54e+00    0    7.59e-01
2003 11 21  1215    52964   44100      0    4.65e+00    0    7.45e-01
2003 11 21  1220    52964   44400      0    4.81e+00    0    7.58e-01
2003 11 21  1225    52964   44700      0    4.98e+00    0    7.64e-01
2003 11 21  1230    52964   45000      0    4.94e+00    0    7.46e-01
2003 11 21  1235    52964   45300      0    4.76e+00    0    8.20e-01
2003 11 21  1240    52964   45600      0    4.89e+00    0    7.82e-01
2003 11 21  1245    52964   45900      0    4.90e+00    0    8.54e-01
2003 11 21  1250    52964   46200      0    4.84e+00    0    7.87e-01
2003 11 21  1255    52964   46500      0    4.94e+00    0    8.08e-01
2003 11 21  1300    52964   46800      0    4.90e+00    0    7.64e-01
2003 11 21  1305    52964   47100      0    4.99e+00    0    7.80e-01
2003 11 21  1310    52964   47400      0    5.20e+00    0    8.10e-01
2003 11 21  1315    52964   47700      0    5.27e+00    0    7.82e-01
2003 11 21  1320    52964   48000      0    5.52e+00    0    8.06e-01
2003 11 21  1325    52964   48300      0    5.77e+00    0    8.23e-01
2003 11 21  1330    52964   48600      0    5.65e+00    0    8.59e-01
2003 11 21  1335    52964   48900      0    5.53e+00    0    8.37e-01
2003 11 21  1340    52964   49200      0    5.62e+00    0    8.06e-01
2003 11 21  1345    52964   49500      0    5.23e+00    0    7.50e-01
2003 11 21  1350    52964   49800      0    5.50e+00    0    7.89e-01
2003 11 21  1355    52964   50100      0    5.37e+00    0    8.00e-01
2003 11 21  1400    52964   50400      0    5.30e+00    0    7.92e-01
2003 11 21  1405    52964   50700      0    5.30e+00    0    7.63e-01
2003 11 21  1410    52964   51000      0    5.34e+00    0    8.06e-01
2003 11 21  1415    52964   51300      0    5.09e+00    0    7.78e-01
2003 11 21  1420    52964   51600      0    5.15e+00    0    7.59e-01
2003 11 21  1425    52964   51900      0    5.38e+00    0    7.65e-01
2003 11 21  1430    52964   52200      0    5.52e+00    0    8.32e-01
2003 11 21  1435    52964   52500      0    5.37e+00    0    7.82e-01
2003 11 21  1440    52964   52800      0    5.44e+00    0    7.78e-01
2003 11 21  1445    52964   53100      0    6.08e+00    0    8.43e-01
2003 11 21  1450    52964   53400      0    6.43e+00    0    8.63e-01
2003 11 21  1455    52964   53700      0    6.53e+00    0    8.70e-01
2003 11 21  1500    52964   54000      0    6.86e+00    0    7.86e-01
2003 11 21  1505    52964   54300      0    6.87e+00    0    8.15e-01
2003 11 21  1510    52964   54600      0    7.16e+00    0    8.29e-01
2003 11 21  1515    52964   54900      0    7.40e+00    0    8.69e-01
2003 11 21  1520    52964   55200      0    7.54e+00    0    9.06e-01
2003 11 21  1525    52964   55500      0    7.57e+00    0    8.83e-01
2003 11 21  1530    52964   55800      0    7.57e+00    0    8.95e-01
2003 11 21  1535    52964   56100      0    7.77e+00    0    8.92e-01
2003 11 21  1540    52964   56400      9   -1.00e+05    9   -1.00e+05
2003 11 21  1545    52964   56700      0    7.54e+00    0    8.14e-01
2003 11 21  1550    52964   57000      0    7.48e+00    0    9.07e-01
2003 11 21  1555    52964   57300      0    7.27e+00    0    8.48e-01
2003 11 21  1600    52964   57600      0    7.31e+00    0    8.45e-01
2003 11 21  1605    52964   57900      0    7.37e+00    0    8.54e-01
2003 11 21  1610    52964   58200      0    7.59e+00    0    8.45e-01
2003 11 21  1615    52964   58500      0    7.98e+00    0    8.72e-01
2003 11 21  1620    52964   58800      0    7.78e+00    0    8.74e-01
2003 11 21  1625    52964   59100      0    7.67e+00    0    8.91e-01
2003 11 21  1630    52964   59400      0    7.76e+00    0    8.59e-01
2003 11 21  1635    52964   59700      0    8.31e+00    0    9.13e-01
2003 11 21  1640    52964   60000      0    7.99e+00    0    8.59e-01
2003 11 21  1645    52964   60300      0    8.16e+00    0    9.20e-01
2003 11 21  1650    52964   60600      0    7.92e+00    0    8.39e-01
2003 11 21  1655    52964   60900      0    8.03e+00    0    8.83e-01
2003 11 21  1700    52964   61200      0    8.46e+00    0    9.37e-01
2003 11 21  1705    52964   61500      0    9.47e+00    0    1.00e+00
2003 11 21  1710    52964   61800      0    1.07e+01    0    9.30e-01
2003 11 21  1715    52964   62100      0    1.07e+01    0    9.24e-01
2003 11 21  1720    52964   62400      0    1.10e+01    0    9.55e-01
2003 11 21  1725    52964   62700      0    1.11e+01    0    1.01e+00
2003 11 21  1730    52964   63000      0    1.06e+01    0    9.70e-01
2003 11 21  1735    52964   63300      0    1.17e+01    0    9.53e-01
2003 11 21  1740    52964   63600      0    1.16e+01    0    8.82e-01
2003 11 21  1745    52964   63900      0    1.22e+01    0    1.02e+00
2003 11 21  1750    52964   64200      0    1.17e+01    0    9.77e-01
2003 11 21  1755    52964   64500      0    1.26e+01    0    9.50e-01
2003 11 21  1800    52964   64800      0    1.32e+01    0    1.03e+00
2003 11 21  1805    52964   65100      0    1.29e+01    0    1.01e+00
2003 11 21  1810    52964   65400      0    1.26e+01    0    1.05e+00
2003 11 21  1815    52964   65700      0    1.31e+01    0    9.86e-01
2003 11 21  1820    52964   66000      0    1.25e+01    0    1.01e+00
2003 11 21  1825    52964   66300      0    1.22e+01    0    9.29e-01
2003 11 21  1830    52964   66600      0    1.23e+01    0    1.02e+00
2003 11 21  1835    52964   66900      0    1.45e+01    0    2.81e+00
2003 11 21  1840    52964   67200      0    1.24e+01    0    9.64e-01
2003 11 21  1845    52964   67500      0    1.25e+01    0    9.64e-01
2003 11 21  1850    52964   67800      0    1.26e+01    0    1.05e+00
2003 11 21  1855    52964   68100      0    1.25e+01    0    9.69e-01
2003 11 21  1900    52964   68400      0    1.21e+01    0    9.39e-01
2003 11 21  1905    52964   68700      0    1.25e+01    0    1.01e+00
2003 11 21  1910    52964   69000      0    1.30e+01    0    9.96e-01
2003 11 21  1915    52964   69300      0    1.54e+01    0    1.09e+00
2003 11 21  1920    52964   69600      0    1.63e+01    0    1.10e+00
2003 11 21  1925    52964   69900      0    1.59e+01    0    1.07e+00
2003 11 21  1930    52964   70200      0    1.51e+01    0    1.05e+00
2003 11 21  1935    52964   70500      0    1.47e+01    0    1.09e+00
2003 11 21  1940    52964   70800      0    1.58e+01    0    1.10e+00
2003 11 21  1945    52964   71100      0    1.53e+01    0    1.12e+00
2003 11 21  1950    52964   71400      0    1.38e+01    0    1.07e+00
2003 11 21  1955    52964   71700      0    1.43e+01    0    1.06e+00
2003 11 21  2000    52964   72000      0    1.53e+01    0    1.01e+00
2003 11 21  2005    52964   72300      0    1.67e+01    0    1.03e+00
2003 11 21  2010    52964   72600      0    1.65e+01    0    1.04e+00
2003 11 21  2015    52964   72900      0    1.62e+01    0    1.05e+00
2003 11 21  2020    52964   73200      0    1.65e+01    0    1.14e+00
2003 11 21  2025    52964   73500      0    1.68e+01    0    1.10e+00
2003 11 21  2030    52964   73800      0    1.59e+01    0    9.37e-01
2003 11 21  2035    52964   74100      0    1.59e+01    0    1.07e+00
2003 11 21  2040    52964   74400      0    1.60e+01    0    1.05e+00
2003 11 21  2045    52964   74700      0    1.67e+01    0    1.12e+00
2003 11 21  2050    52964   75000      0    1.71e+01    0    1.08e+00
2003 11 21  2055    52964   75300      0    1.73e+01    0    1.12e+00
2003 11 21  2100    52964   75600      0    1.77e+01    0    1.07e+00
2003 11 21  2105    52964   75900      0    1.81e+01    0    1.04e+00
2003 11 21  2110    52964   76200      0    1.78e+01    0    1.14e+00
2003 11 21  2115    52964   76500      0    1.81e+01    0    1.14e+00
2003 11 21  2120    52964   76800      0    1.71e+01    0    1.03e+00
2003 11 21  2125    52964   77100      0    1.68e+01    0    1.07e+00
2003 11 21  2130    52964   77400      0    1.86e+01    0    1.16e+00
2003 11 21  2135    52964   77700      0    1.95e+01    0    1.30e+00
2003 11 21  2140    52964   78000      0    1.86e+01    0    1.19e+00
2003 11 21  2145    52964   78300      0    1.84e+01    0    9.88e-01
2003 11 21  2150    52964   78600      0    1.93e+01    0    1.16e+00
2003 11 21  2155    52964   78900      0    1.76e+01    0    1.17e+00
2003 11 21  2200    52964   79200      0    1.74e+01    0    1.09e+00
2003 11 21  2205    52964   79500      0    1.74e+01    0    1.12e+00
2003 11 21  2210    52964   79800      0    1.75e+01    0    9.99e-01
2003 11 21  2215    52964   80100      0    1.75e+01    0    1.12e+00
2003 11 21  2220    52964   80400      0    1.71e+01    0    1.06e+00
2003 11 21  2225    52964   80700      0    1.74e+01    0    1.22e+00
2003 11 21  2230    52964   81000      0    1.71e+01    0    1.02e+00
2003 11 21  2235    52964   81300      0    1.73e+01    0    1.13e+00
2003 11 21  2240    52964   81600      0    1.71e+01    0    1.10e+00
2003 11 21  2245    52964   81900      0    1.75e+01    0    1.01e+00
2003 11 21  2250    52964   82200      0    1.75e+01    0    1.14e+00
2003 11 21  2255    52964   82500      0    1.74e+01    0    1.18e+00
2003 11 21  2300    52964   82800      0    1.80e+01    0    1.02e+00
2003 11 21  2305    52964   83100      0    1.74e+01    0    1.07e+00
2003 11 21  2310    52964   83400      0    1.71e+01    0    1.03e+00
2003 11 21  2315    52964   83700      0    1.75e+01    0    1.09e+00
2003 11 21  2320    52964   84000      0    1.74e+01    0    1.07e+00
2003 11 21  2325    52964   84300      0    1.70e+01    0    1.08e+00
2003 11 21  2330    52964   84600      0    1.66e+01    0    1.01e+00
2003 11 21  2335    52964   84900      0    1.68e+01    0    1.02e+00
2003 11 21  2340    52964   85200      0    1.80e+01    0    9.71e-01
2003 11 21  2345    52964   85500      0    1.72e+01    0    9.87e-01
2003 11 21  2350    52964   85800      0    1.62e+01    0    1.09e+00
2003 11 21  2355    52964   86100      0    1.65e+01    0    1.05e+00
