:Data_list: 20030531_ace_sis_5m.txt
:Created: 2003 Jun 01 0011 UT
# Prepared by the U.S. Dept. of Commerce, NOAA, Space Environment Center.
# Please send comments and suggestions to sec@sec.noaa.gov 
# 
# Units: proton flux p/cs2-sec-ster
# Status(S): 0 = nominal data, 1 to 8 = bad data record, 9 = no data
# Missing data values: -1.00e+05
# Source: ACE Satellite - Solar Isotope Spectrometer
#
# 5-minute averaged Real-time Integral Flux of High-energy Solar Protons
# 
#                 Modified Seconds
# UT Date   Time   Julian  of the      ---- Integral Proton Flux ----
# YR MO DA  HHMM     Day     Day       S    > 10 MeV    S    > 30 MeV
#--------------------------------------------------------------------
2003 05 31  0000    52790       0      0    1.37e+00    0    5.82e-01
2003 05 31  0005    52790     300      0    1.31e+00    0    5.85e-01
2003 05 31  0010    52790     600      0    1.30e+00    0    6.03e-01
2003 05 31  0015    52790     900      0    1.23e+00    0    5.60e-01
2003 05 31  0020    52790    1200      0    1.25e+00    0    5.85e-01
2003 05 31  0025    52790    1500      0    1.28e+00    0    5.97e-01
2003 05 31  0030    52790    1800      0    1.26e+00    0    5.88e-01
2003 05 31  0035    52790    2100      0    1.26e+00    0    5.59e-01
2003 05 31  0040    52790    2400      0    1.38e+00    0    5.81e-01
2003 05 31  0045    52790    2700      0    1.45e+00    0    5.70e-01
2003 05 31  0050    52790    3000      0    1.42e+00    0    5.89e-01
2003 05 31  0055    52790    3300      0    1.29e+00    0    5.50e-01
2003 05 31  0100    52790    3600      0    1.30e+00    0    5.48e-01
2003 05 31  0105    52790    3900      0    1.36e+00    0    5.86e-01
2003 05 31  0110    52790    4200      0    1.31e+00    0    5.81e-01
2003 05 31  0115    52790    4500      0    1.24e+00    0    5.79e-01
2003 05 31  0120    52790    4800      0    1.29e+00    0    5.71e-01
2003 05 31  0125    52790    5100      0    1.23e+00    0    5.72e-01
2003 05 31  0130    52790    5400      0    1.25e+00    0    5.59e-01
2003 05 31  0135    52790    5700      0    1.21e+00    0    5.58e-01
2003 05 31  0140    52790    6000      0    1.17e+00    0    5.56e-01
2003 05 31  0145    52790    6300      0    1.14e+00    0    5.50e-01
2003 05 31  0150    52790    6600      0    1.17e+00    0    5.70e-01
2003 05 31  0155    52790    6900      0    1.16e+00    0    5.43e-01
2003 05 31  0200    52790    7200      0    1.15e+00    0    5.72e-01
2003 05 31  0205    52790    7500      0    1.19e+00    0    5.80e-01
2003 05 31  0210    52790    7800      0    1.21e+00    0    5.94e-01
2003 05 31  0215    52790    8100      0    1.12e+00    0    5.23e-01
2003 05 31  0220    52790    8400      0    1.16e+00    0    5.60e-01
2003 05 31  0225    52790    8700      0    1.12e+00    0    5.47e-01
2003 05 31  0230    52790    9000      0    1.16e+00    0    5.62e-01
2003 05 31  0235    52790    9300      0    1.13e+00    0    5.56e-01
2003 05 31  0240    52790    9600      0    1.12e+00    0    5.39e-01
2003 05 31  0245    52790    9900      0    1.11e+00    0    5.42e-01
2003 05 31  0250    52790   10200      0    1.14e+00    0    5.79e-01
2003 05 31  0255    52790   10500      0    1.29e+00    0    6.61e-01
2003 05 31  0300    52790   10800      0    1.75e+00    0    1.02e+00
2003 05 31  0305    52790   11100      0    2.13e+00    0    1.32e+00
2003 05 31  0310    52790   11400      0    4.22e+00    0    2.84e+00
2003 05 31  0315    52790   11700      0    6.95e+00    0    4.61e+00
2003 05 31  0320    52790   12000      0    9.68e+00    0    6.54e+00
2003 05 31  0325    52790   12300      0    1.19e+01    0    8.07e+00
2003 05 31  0330    52790   12600      0    1.10e+01    0    7.44e+00
2003 05 31  0335    52790   12900      0    1.19e+01    0    8.11e+00
2003 05 31  0340    52790   13200      0    1.33e+01    0    9.45e+00
2003 05 31  0345    52790   13500      0    1.24e+01    0    8.75e+00
2003 05 31  0350    52790   13800      0    1.14e+01    0    7.92e+00
2003 05 31  0355    52790   14100      0    9.91e+00    0    6.79e+00
2003 05 31  0400    52790   14400      0    9.11e+00    0    6.23e+00
2003 05 31  0405    52790   14700      0    9.17e+00    0    6.24e+00
2003 05 31  0410    52790   15000      0    9.52e+00    0    6.48e+00
2003 05 31  0415    52790   15300      0    1.10e+01    0    7.40e+00
2003 05 31  0420    52790   15600      0    1.15e+01    0    7.79e+00
2003 05 31  0425    52790   15900      0    1.21e+01    0    8.12e+00
2003 05 31  0430    52790   16200      0    1.35e+01    0    8.75e+00
2003 05 31  0435    52790   16500      0    1.71e+01    0    9.49e+00
2003 05 31  0440    52790   16800      0    1.72e+01    0    9.24e+00
2003 05 31  0445    52790   17100      0    1.82e+01    0    9.44e+00
2003 05 31  0450    52790   17400      0    2.08e+01    0    9.90e+00
2003 05 31  0455    52790   17700      0    2.34e+01    0    1.07e+01
2003 05 31  0500    52790   18000      0    2.52e+01    0    1.11e+01
2003 05 31  0505    52790   18300      0    2.48e+01    0    1.09e+01
2003 05 31  0510    52790   18600      0    2.48e+01    0    1.06e+01
2003 05 31  0515    52790   18900      0    2.57e+01    0    1.10e+01
2003 05 31  0520    52790   19200      0    2.59e+01    0    1.08e+01
2003 05 31  0525    52790   19500      0    2.58e+01    0    1.05e+01
2003 05 31  0530    52790   19800      0    2.84e+01    0    1.06e+01
2003 05 31  0535    52790   20100      0    2.76e+01    0    1.03e+01
2003 05 31  0540    52790   20400      0    2.66e+01    0    1.01e+01
2003 05 31  0545    52790   20700      0    2.57e+01    0    9.96e+00
2003 05 31  0550    52790   21000      0    2.47e+01    0    9.66e+00
2003 05 31  0555    52790   21300      0    2.45e+01    0    9.48e+00
2003 05 31  0600    52790   21600      0    2.43e+01    0    9.59e+00
2003 05 31  0605    52790   21900      0    2.44e+01    0    9.39e+00
2003 05 31  0610    52790   22200      0    2.44e+01    0    9.42e+00
2003 05 31  0615    52790   22500      0    2.38e+01    0    9.15e+00
2003 05 31  0620    52790   22800      0    2.34e+01    0    9.35e+00
2003 05 31  0625    52790   23100      0    2.30e+01    0    9.30e+00
2003 05 31  0630    52790   23400      0    2.24e+01    0    9.22e+00
2003 05 31  0635    52790   23700      0    2.29e+01    0    9.20e+00
2003 05 31  0640    52790   24000      0    2.30e+01    0    8.95e+00
2003 05 31  0645    52790   24300      0    2.26e+01    0    8.85e+00
2003 05 31  0650    52790   24600      0    2.28e+01    0    8.80e+00
2003 05 31  0655    52790   24900      0    2.25e+01    0    8.99e+00
2003 05 31  0700    52790   25200      0    2.18e+01    0    8.51e+00
2003 05 31  0705    52790   25500      0    2.18e+01    0    8.62e+00
2003 05 31  0710    52790   25800      0    2.19e+01    0    8.64e+00
2003 05 31  0715    52790   26100      0    2.16e+01    0    8.31e+00
2003 05 31  0720    52790   26400      0    2.18e+01    0    8.07e+00
2003 05 31  0725    52790   26700      0    2.20e+01    0    8.26e+00
2003 05 31  0730    52790   27000      0    2.23e+01    0    8.17e+00
2003 05 31  0735    52790   27300      0    2.24e+01    0    8.30e+00
2003 05 31  0740    52790   27600      0    2.20e+01    0    8.22e+00
2003 05 31  0745    52790   27900      0    2.14e+01    0    7.87e+00
2003 05 31  0750    52790   28200      0    2.13e+01    0    7.86e+00
2003 05 31  0755    52790   28500      0    2.15e+01    0    7.87e+00
2003 05 31  0800    52790   28800      0    2.12e+01    0    7.57e+00
2003 05 31  0805    52790   29100      0    2.16e+01    0    7.62e+00
2003 05 31  0810    52790   29400      0    2.14e+01    0    7.26e+00
2003 05 31  0815    52790   29700      0    2.07e+01    0    6.83e+00
2003 05 31  0820    52790   30000      0    2.09e+01    0    7.08e+00
2003 05 31  0825    52790   30300      0    2.05e+01    0    6.57e+00
2003 05 31  0830    52790   30600      0    2.01e+01    0    6.38e+00
2003 05 31  0835    52790   30900      0    1.99e+01    0    6.11e+00
2003 05 31  0840    52790   31200      0    1.97e+01    0    6.29e+00
2003 05 31  0845    52790   31500      0    2.00e+01    0    6.30e+00
2003 05 31  0850    52790   31800      0    1.98e+01    0    6.42e+00
2003 05 31  0855    52790   32100      0    1.98e+01    0    6.22e+00
2003 05 31  0900    52790   32400      0    1.94e+01    0    5.97e+00
2003 05 31  0905    52790   32700      0    1.83e+01    0    5.48e+00
2003 05 31  0910    52790   33000      0    1.87e+01    0    5.66e+00
2003 05 31  0915    52790   33300      0    1.87e+01    0    5.51e+00
2003 05 31  0920    52790   33600      0    1.82e+01    0    5.37e+00
2003 05 31  0925    52790   33900      0    1.83e+01    0    5.46e+00
2003 05 31  0930    52790   34200      0    1.78e+01    0    5.28e+00
2003 05 31  0935    52790   34500      0    1.83e+01    0    5.28e+00
2003 05 31  0940    52790   34800      0    1.79e+01    0    4.94e+00
2003 05 31  0945    52790   35100      0    1.83e+01    0    5.37e+00
2003 05 31  0950    52790   35400      0    1.79e+01    0    4.84e+00
2003 05 31  0955    52790   35700      0    1.76e+01    0    4.77e+00
2003 05 31  1000    52790   36000      0    1.78e+01    0    4.90e+00
2003 05 31  1005    52790   36300      0    1.75e+01    0    4.84e+00
2003 05 31  1010    52790   36600      0    1.69e+01    0    4.53e+00
2003 05 31  1015    52790   36900      0    1.67e+01    0    4.50e+00
2003 05 31  1020    52790   37200      0    1.67e+01    0    4.71e+00
2003 05 31  1025    52790   37500      0    1.68e+01    0    4.60e+00
2003 05 31  1030    52790   37800      0    1.63e+01    0    4.44e+00
2003 05 31  1035    52790   38100      0    1.67e+01    0    4.40e+00
2003 05 31  1040    52790   38400      0    1.61e+01    0    4.14e+00
2003 05 31  1045    52790   38700      0    1.59e+01    0    4.20e+00
2003 05 31  1050    52790   39000      0    1.59e+01    0    4.15e+00
2003 05 31  1055    52790   39300      0    1.57e+01    0    3.98e+00
2003 05 31  1100    52790   39600      0    1.55e+01    0    3.95e+00
2003 05 31  1105    52790   39900      0    1.48e+01    0    3.84e+00
2003 05 31  1110    52790   40200      0    1.45e+01    0    3.75e+00
2003 05 31  1115    52790   40500      0    1.45e+01    0    3.69e+00
2003 05 31  1120    52790   40800      0    1.45e+01    0    3.74e+00
2003 05 31  1125    52790   41100      0    1.39e+01    0    3.57e+00
2003 05 31  1130    52790   41400      0    1.37e+01    0    3.70e+00
2003 05 31  1135    52790   41700      0    1.38e+01    0    3.61e+00
2003 05 31  1140    52790   42000      0    1.37e+01    0    3.62e+00
2003 05 31  1145    52790   42300      0    1.34e+01    0    3.55e+00
2003 05 31  1150    52790   42600      0    1.32e+01    0    3.42e+00
2003 05 31  1155    52790   42900      0    1.33e+01    0    3.53e+00
2003 05 31  1200    52790   43200      0    1.30e+01    0    3.37e+00
2003 05 31  1205    52790   43500      0    1.24e+01    0    3.19e+00
2003 05 31  1210    52790   43800      0    1.24e+01    0    3.35e+00
2003 05 31  1215    52790   44100      0    1.22e+01    0    3.43e+00
2003 05 31  1220    52790   44400      0    1.21e+01    0    3.31e+00
2003 05 31  1225    52790   44700      0    1.23e+01    0    3.40e+00
2003 05 31  1230    52790   45000      0    1.16e+01    0    3.19e+00
2003 05 31  1235    52790   45300      0    1.15e+01    0    3.10e+00
2003 05 31  1240    52790   45600      0    1.13e+01    0    3.13e+00
2003 05 31  1245    52790   45900      0    1.13e+01    0    3.07e+00
2003 05 31  1250    52790   46200      0    1.16e+01    0    3.11e+00
2003 05 31  1255    52790   46500      0    1.13e+01    0    3.12e+00
2003 05 31  1300    52790   46800      0    1.14e+01    0    3.04e+00
2003 05 31  1305    52790   47100      0    1.12e+01    0    3.13e+00
2003 05 31  1310    52790   47400      0    1.09e+01    0    2.89e+00
2003 05 31  1315    52790   47700      0    1.08e+01    0    2.89e+00
2003 05 31  1320    52790   48000      0    1.04e+01    0    2.81e+00
2003 05 31  1325    52790   48300      0    1.03e+01    0    2.93e+00
2003 05 31  1330    52790   48600      0    1.04e+01    0    2.80e+00
2003 05 31  1335    52790   48900      0    1.03e+01    0    2.76e+00
2003 05 31  1340    52790   49200      0    1.06e+01    0    3.04e+00
2003 05 31  1345    52790   49500      0    1.01e+01    0    2.77e+00
2003 05 31  1350    52790   49800      0    1.00e+01    0    2.68e+00
2003 05 31  1355    52790   50100      0    1.01e+01    0    2.86e+00
2003 05 31  1400    52790   50400      9   -1.00e+05    9   -1.00e+05
2003 05 31  1405    52790   50700      0    9.47e+00    0    2.54e+00
2003 05 31  1410    52790   51000      0    9.35e+00    0    2.62e+00
2003 05 31  1415    52790   51300      0    9.34e+00    0    2.61e+00
2003 05 31  1420    52790   51600      0    9.40e+00    0    2.69e+00
2003 05 31  1425    52790   51900      0    9.04e+00    0    2.52e+00
2003 05 31  1430    52790   52200      0    8.84e+00    0    2.43e+00
2003 05 31  1435    52790   52500      0    8.86e+00    0    2.46e+00
2003 05 31  1440    52790   52800      0    8.87e+00    0    2.51e+00
2003 05 31  1445    52790   53100      0    8.83e+00    0    2.30e+00
2003 05 31  1450    52790   53400      0    8.41e+00    0    2.41e+00
2003 05 31  1455    52790   53700      0    8.35e+00    0    2.39e+00
2003 05 31  1500    52790   54000      0    8.24e+00    0    2.38e+00
2003 05 31  1505    52790   54300      0    7.93e+00    0    2.30e+00
2003 05 31  1510    52790   54600      0    7.83e+00    0    2.26e+00
2003 05 31  1515    52790   54900      0    8.11e+00    0    2.42e+00
2003 05 31  1520    52790   55200      0    8.18e+00    0    2.33e+00
2003 05 31  1525    52790   55500      0    7.92e+00    0    2.38e+00
2003 05 31  1530    52790   55800      0    7.84e+00    0    2.29e+00
2003 05 31  1535    52790   56100      0    7.64e+00    0    2.21e+00
2003 05 31  1540    52790   56400      0    7.65e+00    0    2.19e+00
2003 05 31  1545    52790   56700      0    7.36e+00    0    2.17e+00
2003 05 31  1550    52790   57000      0    7.45e+00    0    2.23e+00
2003 05 31  1555    52790   57300      0    7.33e+00    0    2.17e+00
2003 05 31  1600    52790   57600      0    7.13e+00    0    2.17e+00
2003 05 31  1605    52790   57900      0    7.21e+00    0    2.18e+00
2003 05 31  1610    52790   58200      0    6.90e+00    0    2.05e+00
2003 05 31  1615    52790   58500      0    6.82e+00    0    2.10e+00
2003 05 31  1620    52790   58800      0    6.88e+00    0    2.09e+00
2003 05 31  1625    52790   59100      0    6.71e+00    0    1.99e+00
2003 05 31  1630    52790   59400      0    6.72e+00    0    2.09e+00
2003 05 31  1635    52790   59700      0    6.77e+00    0    2.16e+00
2003 05 31  1640    52790   60000      0    6.49e+00    0    1.97e+00
2003 05 31  1645    52790   60300      0    6.55e+00    0    2.08e+00
2003 05 31  1650    52790   60600      0    6.43e+00    0    2.01e+00
2003 05 31  1655    52790   60900      0    6.41e+00    0    1.99e+00
2003 05 31  1700    52790   61200      0    6.30e+00    0    1.86e+00
2003 05 31  1705    52790   61500      0    6.27e+00    0    1.99e+00
2003 05 31  1710    52790   61800      0    6.08e+00    0    1.93e+00
2003 05 31  1715    52790   62100      0    6.15e+00    0    2.01e+00
2003 05 31  1720    52790   62400      0    6.02e+00    0    1.90e+00
2003 05 31  1725    52790   62700      0    6.05e+00    0    1.96e+00
2003 05 31  1730    52790   63000      0    5.81e+00    0    1.87e+00
2003 05 31  1735    52790   63300      0    5.83e+00    0    1.86e+00
2003 05 31  1740    52790   63600      0    5.78e+00    0    1.85e+00
2003 05 31  1745    52790   63900      0    5.78e+00    0    1.85e+00
2003 05 31  1750    52790   64200      0    5.68e+00    0    1.81e+00
2003 05 31  1755    52790   64500      0    5.69e+00    0    1.80e+00
2003 05 31  1800    52790   64800      0    5.66e+00    0    1.83e+00
2003 05 31  1805    52790   65100      0    5.54e+00    0    1.80e+00
2003 05 31  1810    52790   65400      0    5.58e+00    0    1.82e+00
2003 05 31  1815    52790   65700      0    5.40e+00    0    1.70e+00
2003 05 31  1820    52790   66000      0    5.45e+00    0    1.77e+00
2003 05 31  1825    52790   66300      0    5.31e+00    0    1.76e+00
2003 05 31  1830    52790   66600      0    5.34e+00    0    1.75e+00
2003 05 31  1835    52790   66900      0    5.19e+00    0    1.68e+00
2003 05 31  1840    52790   67200      0    5.09e+00    0    1.63e+00
2003 05 31  1845    52790   67500      0    5.18e+00    0    1.66e+00
2003 05 31  1850    52790   67800      0    5.24e+00    0    1.68e+00
2003 05 31  1855    52790   68100      0    4.97e+00    0    1.63e+00
2003 05 31  1900    52790   68400      0    5.08e+00    0    1.64e+00
2003 05 31  1905    52790   68700      0    4.86e+00    0    1.57e+00
2003 05 31  1910    52790   69000      0    4.97e+00    0    1.60e+00
2003 05 31  1915    52790   69300      0    4.83e+00    0    1.57e+00
2003 05 31  1920    52790   69600      0    4.93e+00    0    1.59e+00
2003 05 31  1925    52790   69900      0    4.89e+00    0    1.59e+00
2003 05 31  1930    52790   70200      0    4.80e+00    0    1.51e+00
2003 05 31  1935    52790   70500      0    4.76e+00    0    1.55e+00
2003 05 31  1940    52790   70800      0    4.69e+00    0    1.53e+00
2003 05 31  1945    52790   71100      0    4.64e+00    0    1.52e+00
2003 05 31  1950    52790   71400      0    4.67e+00    0    1.55e+00
2003 05 31  1955    52790   71700      0    4.62e+00    0    1.57e+00
2003 05 31  2000    52790   72000      0    4.50e+00    0    1.50e+00
2003 05 31  2005    52790   72300      0    4.51e+00    0    1.46e+00
2003 05 31  2010    52790   72600      0    4.43e+00    0    1.48e+00
2003 05 31  2015    52790   72900      0    4.44e+00    0    1.49e+00
2003 05 31  2020    52790   73200      0    4.41e+00    0    1.48e+00
2003 05 31  2025    52790   73500      0    4.40e+00    0    1.46e+00
2003 05 31  2030    52790   73800      0    4.26e+00    0    1.40e+00
2003 05 31  2035    52790   74100      0    4.25e+00    0    1.44e+00
2003 05 31  2040    52790   74400      0    4.24e+00    0    1.43e+00
2003 05 31  2045    52790   74700      0    4.18e+00    0    1.40e+00
2003 05 31  2050    52790   75000      0    4.20e+00    0    1.44e+00
2003 05 31  2055    52790   75300      0    4.23e+00    0    1.41e+00
2003 05 31  2100    52790   75600      0    4.28e+00    0    1.46e+00
2003 05 31  2105    52790   75900      0    4.12e+00    0    1.39e+00
2003 05 31  2110    52790   76200      0    4.19e+00    0    1.41e+00
2003 05 31  2115    52790   76500      0    4.17e+00    0    1.40e+00
2003 05 31  2120    52790   76800      0    4.31e+00    0    1.46e+00
2003 05 31  2125    52790   77100      0    4.11e+00    0    1.39e+00
2003 05 31  2130    52790   77400      0    4.11e+00    0    1.41e+00
2003 05 31  2135    52790   77700      0    4.02e+00    0    1.35e+00
2003 05 31  2140    52790   78000      0    4.02e+00    0    1.37e+00
2003 05 31  2145    52790   78300      0    3.92e+00    0    1.35e+00
2003 05 31  2150    52790   78600      0    3.95e+00    0    1.34e+00
2003 05 31  2155    52790   78900      0    3.87e+00    0    1.31e+00
2003 05 31  2200    52790   79200      0    3.93e+00    0    1.35e+00
2003 05 31  2205    52790   79500      0    3.84e+00    0    1.32e+00
2003 05 31  2210    52790   79800      0    3.77e+00    0    1.25e+00
2003 05 31  2215    52790   80100      0    3.75e+00    0    1.28e+00
2003 05 31  2220    52790   80400      0    3.80e+00    0    1.33e+00
2003 05 31  2225    52790   80700      0    3.64e+00    0    1.28e+00
2003 05 31  2230    52790   81000      0    3.65e+00    0    1.31e+00
2003 05 31  2235    52790   81300      0    3.56e+00    0    1.29e+00
2003 05 31  2240    52790   81600      0    3.55e+00    0    1.29e+00
2003 05 31  2245    52790   81900      0    3.60e+00    0    1.29e+00
2003 05 31  2250    52790   82200      0    3.63e+00    0    1.26e+00
2003 05 31  2255    52790   82500      0    3.53e+00    0    1.24e+00
2003 05 31  2300    52790   82800      0    3.52e+00    0    1.26e+00
2003 05 31  2305    52790   83100      0    3.50e+00    0    1.25e+00
2003 05 31  2310    52790   83400      0    3.54e+00    0    1.26e+00
2003 05 31  2315    52790   83700      0    3.53e+00    0    1.24e+00
2003 05 31  2320    52790   84000      0    3.42e+00    0    1.19e+00
2003 05 31  2325    52790   84300      0    3.38e+00    0    1.18e+00
2003 05 31  2330    52790   84600      0    3.33e+00    0    1.19e+00
2003 05 31  2335    52790   84900      0    3.37e+00    0    1.22e+00
2003 05 31  2340    52790   85200      0    3.33e+00    0    1.20e+00
2003 05 31  2345    52790   85500      0    3.27e+00    0    1.20e+00
2003 05 31  2350    52790   85800      0    3.25e+00    0    1.14e+00
2003 05 31  2355    52790   86100      0    3.30e+00    0    1.20e+00
