:Data_list: 20031114_ace_sis_5m.txt
:Created: 2003 Nov 15 0011 UT
# Prepared by the U.S. Dept. of Commerce, NOAA, Space Environment Center.
# Please send comments and suggestions to SEC.Webmaster@noaa.gov 
# 
# Units: proton flux p/cs2-sec-ster
# Status(S): 0 = nominal data, 1 to 8 = bad data record, 9 = no data
# Missing data values: -1.00e+05
# Source: ACE Satellite - Solar Isotope Spectrometer
#
# 5-minute averaged Real-time Integral Flux of High-energy Solar Protons
# 
#                 Modified Seconds
# UT Date   Time   Julian  of the      ---- Integral Proton Flux ----
# YR MO DA  HHMM     Day     Day       S    > 10 MeV    S    > 30 MeV
#--------------------------------------------------------------------
2003 11 14  0000    52957       0      0    1.50e+00    0    6.69e-01
2003 11 14  0005    52957     300      0    1.47e+00    0    6.72e-01
2003 11 14  0010    52957     600      0    1.55e+00    0    7.13e-01
2003 11 14  0015    52957     900      0    1.49e+00    0    6.92e-01
2003 11 14  0020    52957    1200      0    1.47e+00    0    6.69e-01
2003 11 14  0025    52957    1500      0    1.50e+00    0    6.79e-01
2003 11 14  0030    52957    1800      0    1.51e+00    0    6.98e-01
2003 11 14  0035    52957    2100      0    1.47e+00    0    6.72e-01
2003 11 14  0040    52957    2400      0    1.52e+00    0    6.85e-01
2003 11 14  0045    52957    2700      0    1.50e+00    0    6.77e-01
2003 11 14  0050    52957    3000      0    1.51e+00    0    6.81e-01
2003 11 14  0055    52957    3300      0    1.48e+00    0    6.57e-01
2003 11 14  0100    52957    3600      0    1.51e+00    0    6.91e-01
2003 11 14  0105    52957    3900      0    1.50e+00    0    6.80e-01
2003 11 14  0110    52957    4200      0    1.47e+00    0    6.66e-01
2003 11 14  0115    52957    4500      0    1.50e+00    0    6.73e-01
2003 11 14  0120    52957    4800      0    1.50e+00    0    6.88e-01
2003 11 14  0125    52957    5100      0    1.47e+00    0    6.63e-01
2003 11 14  0130    52957    5400      0    1.51e+00    0    6.80e-01
2003 11 14  0135    52957    5700      0    1.54e+00    0    7.07e-01
2003 11 14  0140    52957    6000      0    1.53e+00    0    6.86e-01
2003 11 14  0145    52957    6300      0    1.47e+00    0    6.59e-01
2003 11 14  0150    52957    6600      0    1.49e+00    0    6.92e-01
2003 11 14  0155    52957    6900      0    1.47e+00    0    6.63e-01
2003 11 14  0200    52957    7200      0    1.53e+00    0    6.87e-01
2003 11 14  0205    52957    7500      0    1.51e+00    0    6.76e-01
2003 11 14  0210    52957    7800      0    1.51e+00    0    6.76e-01
2003 11 14  0215    52957    8100      0    1.50e+00    0    6.72e-01
2003 11 14  0220    52957    8400      0    1.49e+00    0    6.72e-01
2003 11 14  0225    52957    8700      0    1.52e+00    0    6.86e-01
2003 11 14  0230    52957    9000      0    1.50e+00    0    6.66e-01
2003 11 14  0235    52957    9300      0    1.49e+00    0    6.73e-01
2003 11 14  0240    52957    9600      0    1.46e+00    0    6.52e-01
2003 11 14  0245    52957    9900      0    1.48e+00    0    6.57e-01
2003 11 14  0250    52957   10200      0    1.47e+00    0    6.65e-01
2003 11 14  0255    52957   10500      0    1.44e+00    0    6.42e-01
2003 11 14  0300    52957   10800      0    1.51e+00    0    6.74e-01
2003 11 14  0305    52957   11100      0    1.51e+00    0    6.89e-01
2003 11 14  0310    52957   11400      0    1.52e+00    0    6.64e-01
2003 11 14  0315    52957   11700      0    1.52e+00    0    6.93e-01
2003 11 14  0320    52957   12000      0    1.53e+00    0    6.77e-01
2003 11 14  0325    52957   12300      0    1.57e+00    0    6.99e-01
2003 11 14  0330    52957   12600      0    1.53e+00    0    6.76e-01
2003 11 14  0335    52957   12900      0    1.53e+00    0    6.73e-01
2003 11 14  0340    52957   13200      0    1.54e+00    0    6.86e-01
2003 11 14  0345    52957   13500      0    1.53e+00    0    6.98e-01
2003 11 14  0350    52957   13800      0    1.51e+00    0    6.63e-01
2003 11 14  0355    52957   14100      0    1.50e+00    0    6.62e-01
2003 11 14  0400    52957   14400      0    1.47e+00    0    6.46e-01
2003 11 14  0405    52957   14700      0    1.51e+00    0    6.71e-01
2003 11 14  0410    52957   15000      0    1.52e+00    0    6.74e-01
2003 11 14  0415    52957   15300      0    1.56e+00    0    7.07e-01
2003 11 14  0420    52957   15600      0    1.50e+00    0    6.64e-01
2003 11 14  0425    52957   15900      0    1.52e+00    0    6.68e-01
2003 11 14  0430    52957   16200      0    1.54e+00    0    6.98e-01
2003 11 14  0435    52957   16500      0    1.51e+00    0    6.72e-01
2003 11 14  0440    52957   16800      0    1.51e+00    0    6.57e-01
2003 11 14  0445    52957   17100      0    1.54e+00    0    6.81e-01
2003 11 14  0450    52957   17400      0    1.52e+00    0    6.73e-01
2003 11 14  0455    52957   17700      0    1.53e+00    0    6.76e-01
2003 11 14  0500    52957   18000      0    1.52e+00    0    6.61e-01
2003 11 14  0505    52957   18300      0    1.55e+00    0    6.98e-01
2003 11 14  0510    52957   18600      0    1.51e+00    0    6.47e-01
2003 11 14  0515    52957   18900      0    1.51e+00    0    6.77e-01
2003 11 14  0520    52957   19200      0    1.50e+00    0    6.57e-01
2003 11 14  0525    52957   19500      0    1.56e+00    0    6.92e-01
2003 11 14  0530    52957   19800      0    1.52e+00    0    6.86e-01
2003 11 14  0535    52957   20100      0    1.52e+00    0    6.66e-01
2003 11 14  0540    52957   20400      0    1.46e+00    0    6.53e-01
2003 11 14  0545    52957   20700      0    1.50e+00    0    6.80e-01
2003 11 14  0550    52957   21000      0    1.46e+00    0    6.67e-01
2003 11 14  0555    52957   21300      0    1.47e+00    0    6.70e-01
2003 11 14  0600    52957   21600      0    1.45e+00    0    6.54e-01
2003 11 14  0605    52957   21900      0    1.47e+00    0    6.59e-01
2003 11 14  0610    52957   22200      0    1.48e+00    0    6.68e-01
2003 11 14  0615    52957   22500      0    1.47e+00    0    6.49e-01
2003 11 14  0620    52957   22800      0    1.49e+00    0    6.69e-01
2003 11 14  0625    52957   23100      0    1.51e+00    0    6.86e-01
2003 11 14  0630    52957   23400      0    1.44e+00    0    6.34e-01
2003 11 14  0635    52957   23700      0    1.46e+00    0    6.71e-01
2003 11 14  0640    52957   24000      0    1.45e+00    0    6.52e-01
2003 11 14  0645    52957   24300      0    1.46e+00    0    6.66e-01
2003 11 14  0650    52957   24600      0    1.43e+00    0    6.44e-01
2003 11 14  0655    52957   24900      0    1.47e+00    0    6.69e-01
2003 11 14  0700    52957   25200      0    1.46e+00    0    6.58e-01
2003 11 14  0705    52957   25500      0    1.45e+00    0    6.40e-01
2003 11 14  0710    52957   25800      0    1.46e+00    0    6.60e-01
2003 11 14  0715    52957   26100      0    1.45e+00    0    6.52e-01
2003 11 14  0720    52957   26400      0    1.46e+00    0    6.55e-01
2003 11 14  0725    52957   26700      0    1.47e+00    0    6.49e-01
2003 11 14  0730    52957   27000      0    1.48e+00    0    6.60e-01
2003 11 14  0735    52957   27300      0    1.49e+00    0    6.80e-01
2003 11 14  0740    52957   27600      0    1.46e+00    0    6.51e-01
2003 11 14  0745    52957   27900      0    1.46e+00    0    6.60e-01
2003 11 14  0750    52957   28200      9   -1.00e+05    9   -1.00e+05
2003 11 14  0755    52957   28500      9   -1.00e+05    9   -1.00e+05
2003 11 14  0800    52957   28800      9   -1.00e+05    9   -1.00e+05
2003 11 14  0805    52957   29100      9   -1.00e+05    9   -1.00e+05
2003 11 14  0810    52957   29400      9   -1.00e+05    9   -1.00e+05
2003 11 14  0815    52957   29700      9   -1.00e+05    9   -1.00e+05
2003 11 14  0820    52957   30000      9   -1.00e+05    9   -1.00e+05
2003 11 14  0825    52957   30300      9   -1.00e+05    9   -1.00e+05
2003 11 14  0830    52957   30600      0    1.44e+00    0    6.72e-01
2003 11 14  0835    52957   30900      0    1.45e+00    0    6.45e-01
2003 11 14  0840    52957   31200      0    1.46e+00    0    6.46e-01
2003 11 14  0845    52957   31500      0    1.46e+00    0    6.66e-01
2003 11 14  0850    52957   31800      0    1.46e+00    0    6.59e-01
2003 11 14  0855    52957   32100      0    1.47e+00    0    6.60e-01
2003 11 14  0900    52957   32400      0    1.43e+00    0    6.60e-01
2003 11 14  0905    52957   32700      0    1.48e+00    0    6.59e-01
2003 11 14  0910    52957   33000      0    1.49e+00    0    6.73e-01
2003 11 14  0915    52957   33300      0    1.46e+00    0    6.79e-01
2003 11 14  0920    52957   33600      0    1.46e+00    0    6.61e-01
2003 11 14  0925    52957   33900      0    1.45e+00    0    6.57e-01
2003 11 14  0930    52957   34200      0    1.45e+00    0    6.71e-01
2003 11 14  0935    52957   34500      0    1.43e+00    0    6.50e-01
2003 11 14  0940    52957   34800      0    1.42e+00    0    6.47e-01
2003 11 14  0945    52957   35100      0    1.43e+00    0    6.31e-01
2003 11 14  0950    52957   35400      0    1.48e+00    0    6.63e-01
2003 11 14  0955    52957   35700      0    1.48e+00    0    6.78e-01
2003 11 14  1000    52957   36000      0    1.43e+00    0    6.48e-01
2003 11 14  1005    52957   36300      0    1.46e+00    0    6.57e-01
2003 11 14  1010    52957   36600      0    1.49e+00    0    6.77e-01
2003 11 14  1015    52957   36900      0    1.50e+00    0    6.81e-01
2003 11 14  1020    52957   37200      0    1.50e+00    0    6.74e-01
2003 11 14  1025    52957   37500      0    1.51e+00    0    6.57e-01
2003 11 14  1030    52957   37800      0    1.51e+00    0    6.63e-01
2003 11 14  1035    52957   38100      0    1.48e+00    0    6.47e-01
2003 11 14  1040    52957   38400      0    1.46e+00    0    6.53e-01
2003 11 14  1045    52957   38700      0    1.45e+00    0    6.62e-01
2003 11 14  1050    52957   39000      0    1.36e+00    0    6.00e-01
2003 11 14  1055    52957   39300      0    1.51e+00    0    6.71e-01
2003 11 14  1100    52957   39600      0    1.44e+00    0    6.52e-01
2003 11 14  1105    52957   39900      0    1.47e+00    0    6.60e-01
2003 11 14  1110    52957   40200      0    1.45e+00    0    6.51e-01
2003 11 14  1115    52957   40500      0    1.47e+00    0    6.53e-01
2003 11 14  1120    52957   40800      0    1.47e+00    0    6.54e-01
2003 11 14  1125    52957   41100      0    1.47e+00    0    6.56e-01
2003 11 14  1130    52957   41400      0    1.45e+00    0    6.47e-01
2003 11 14  1135    52957   41700      0    1.44e+00    0    6.47e-01
2003 11 14  1140    52957   42000      0    1.48e+00    0    6.59e-01
2003 11 14  1145    52957   42300      0    1.43e+00    0    6.28e-01
2003 11 14  1150    52957   42600      0    1.45e+00    0    6.43e-01
2003 11 14  1155    52957   42900      0    1.45e+00    0    6.38e-01
2003 11 14  1200    52957   43200      0    1.44e+00    0    6.43e-01
2003 11 14  1205    52957   43500      0    1.44e+00    0    6.46e-01
2003 11 14  1210    52957   43800      0    1.46e+00    0    6.70e-01
2003 11 14  1215    52957   44100      0    1.47e+00    0    6.63e-01
2003 11 14  1220    52957   44400      0    1.47e+00    0    6.50e-01
2003 11 14  1225    52957   44700      0    1.47e+00    0    6.54e-01
2003 11 14  1230    52957   45000      0    1.45e+00    0    6.37e-01
2003 11 14  1235    52957   45300      0    1.44e+00    0    6.40e-01
2003 11 14  1240    52957   45600      0    1.43e+00    0    6.46e-01
2003 11 14  1245    52957   45900      0    1.42e+00    0    6.40e-01
2003 11 14  1250    52957   46200      0    1.43e+00    0    6.51e-01
2003 11 14  1255    52957   46500      0    1.43e+00    0    6.51e-01
2003 11 14  1300    52957   46800      0    1.42e+00    0    6.57e-01
2003 11 14  1305    52957   47100      0    1.41e+00    0    6.40e-01
2003 11 14  1310    52957   47400      0    1.41e+00    0    6.49e-01
2003 11 14  1315    52957   47700      0    1.44e+00    0    6.68e-01
2003 11 14  1320    52957   48000      0    1.41e+00    0    6.44e-01
2003 11 14  1325    52957   48300      0    1.42e+00    0    6.41e-01
2003 11 14  1330    52957   48600      0    1.37e+00    0    6.35e-01
2003 11 14  1335    52957   48900      0    1.40e+00    0    6.53e-01
2003 11 14  1340    52957   49200      0    1.42e+00    0    6.44e-01
2003 11 14  1345    52957   49500      0    1.38e+00    0    6.32e-01
2003 11 14  1350    52957   49800      0    1.38e+00    0    6.28e-01
2003 11 14  1355    52957   50100      0    1.40e+00    0    6.27e-01
2003 11 14  1400    52957   50400      0    1.38e+00    0    6.21e-01
2003 11 14  1405    52957   50700      0    1.42e+00    0    6.41e-01
2003 11 14  1410    52957   51000      0    1.39e+00    0    6.39e-01
2003 11 14  1415    52957   51300      0    1.38e+00    0    6.31e-01
2003 11 14  1420    52957   51600      0    1.40e+00    0    6.33e-01
2003 11 14  1425    52957   51900      0    1.42e+00    0    6.42e-01
2003 11 14  1430    52957   52200      0    1.42e+00    0    6.58e-01
2003 11 14  1435    52957   52500      0    1.36e+00    0    6.36e-01
2003 11 14  1440    52957   52800      0    1.42e+00    0    6.60e-01
2003 11 14  1445    52957   53100      0    1.39e+00    0    6.52e-01
2003 11 14  1450    52957   53400      0    1.36e+00    0    6.44e-01
2003 11 14  1455    52957   53700      0    1.35e+00    0    6.29e-01
2003 11 14  1500    52957   54000      0    1.37e+00    0    6.52e-01
2003 11 14  1505    52957   54300      0    1.38e+00    0    6.47e-01
2003 11 14  1510    52957   54600      0    1.32e+00    0    6.23e-01
2003 11 14  1515    52957   54900      0    1.34e+00    0    6.31e-01
2003 11 14  1520    52957   55200      0    1.35e+00    0    6.29e-01
2003 11 14  1525    52957   55500      0    1.40e+00    0    6.56e-01
2003 11 14  1530    52957   55800      0    1.35e+00    0    6.26e-01
2003 11 14  1535    52957   56100      0    1.36e+00    0    6.25e-01
2003 11 14  1540    52957   56400      0    1.40e+00    0    6.50e-01
2003 11 14  1545    52957   56700      0    1.36e+00    0    6.30e-01
2003 11 14  1550    52957   57000      0    1.34e+00    0    6.37e-01
2003 11 14  1555    52957   57300      0    1.34e+00    0    6.40e-01
2003 11 14  1600    52957   57600      0    1.33e+00    0    6.10e-01
2003 11 14  1605    52957   57900      0    1.32e+00    0    6.27e-01
2003 11 14  1610    52957   58200      0    1.34e+00    0    6.37e-01
2003 11 14  1615    52957   58500      0    1.31e+00    0    6.21e-01
2003 11 14  1620    52957   58800      0    1.34e+00    0    6.28e-01
2003 11 14  1625    52957   59100      0    1.32e+00    0    6.30e-01
2003 11 14  1630    52957   59400      0    1.34e+00    0    6.49e-01
2003 11 14  1635    52957   59700      0    1.33e+00    0    6.36e-01
2003 11 14  1640    52957   60000      0    1.32e+00    0    6.26e-01
2003 11 14  1645    52957   60300      0    1.35e+00    0    6.36e-01
2003 11 14  1650    52957   60600      0    1.36e+00    0    6.57e-01
2003 11 14  1655    52957   60900      0    1.36e+00    0    6.53e-01
2003 11 14  1700    52957   61200      0    1.40e+00    0    6.34e-01
2003 11 14  1705    52957   61500      0    1.40e+00    0    6.45e-01
2003 11 14  1710    52957   61800      0    1.36e+00    0    6.38e-01
2003 11 14  1715    52957   62100      0    1.37e+00    0    6.31e-01
2003 11 14  1720    52957   62400      0    1.36e+00    0    6.38e-01
2003 11 14  1725    52957   62700      0    1.42e+00    0    6.71e-01
2003 11 14  1730    52957   63000      0    1.37e+00    0    6.43e-01
2003 11 14  1735    52957   63300      0    1.36e+00    0    6.43e-01
2003 11 14  1740    52957   63600      0    1.38e+00    0    6.51e-01
2003 11 14  1745    52957   63900      0    1.38e+00    0    6.46e-01
2003 11 14  1750    52957   64200      0    1.37e+00    0    6.52e-01
2003 11 14  1755    52957   64500      0    1.27e+00    0    5.98e-01
2003 11 14  1800    52957   64800      0    1.36e+00    0    6.34e-01
2003 11 14  1805    52957   65100      0    1.35e+00    0    6.26e-01
2003 11 14  1810    52957   65400      0    1.34e+00    0    6.22e-01
2003 11 14  1815    52957   65700      0    1.36e+00    0    6.23e-01
2003 11 14  1820    52957   66000      0    1.36e+00    0    6.48e-01
2003 11 14  1825    52957   66300      0    1.35e+00    0    6.31e-01
2003 11 14  1830    52957   66600      0    1.34e+00    0    6.14e-01
2003 11 14  1835    52957   66900      0    1.34e+00    0    6.21e-01
2003 11 14  1840    52957   67200      0    1.37e+00    0    6.49e-01
2003 11 14  1845    52957   67500      0    1.35e+00    0    6.36e-01
2003 11 14  1850    52957   67800      0    1.39e+00    0    6.34e-01
2003 11 14  1855    52957   68100      0    1.31e+00    0    6.13e-01
2003 11 14  1900    52957   68400      0    1.36e+00    0    6.38e-01
2003 11 14  1905    52957   68700      0    1.39e+00    0    6.48e-01
2003 11 14  1910    52957   69000      0    1.40e+00    0    6.40e-01
2003 11 14  1915    52957   69300      0    1.36e+00    0    6.49e-01
2003 11 14  1920    52957   69600      0    1.34e+00    0    6.41e-01
2003 11 14  1925    52957   69900      0    1.33e+00    0    6.28e-01
2003 11 14  1930    52957   70200      0    1.34e+00    0    6.22e-01
2003 11 14  1935    52957   70500      0    1.30e+00    0    6.22e-01
2003 11 14  1940    52957   70800      0    1.32e+00    0    6.25e-01
2003 11 14  1945    52957   71100      0    1.35e+00    0    6.27e-01
2003 11 14  1950    52957   71400      0    1.35e+00    0    6.31e-01
2003 11 14  1955    52957   71700      0    1.34e+00    0    6.24e-01
2003 11 14  2000    52957   72000      0    1.36e+00    0    6.40e-01
2003 11 14  2005    52957   72300      0    1.36e+00    0    6.22e-01
2003 11 14  2010    52957   72600      0    1.38e+00    0    6.51e-01
2003 11 14  2015    52957   72900      0    1.36e+00    0    6.28e-01
2003 11 14  2020    52957   73200      0    1.35e+00    0    6.24e-01
2003 11 14  2025    52957   73500      0    1.31e+00    0    6.06e-01
2003 11 14  2030    52957   73800      0    1.33e+00    0    6.24e-01
2003 11 14  2035    52957   74100      0    1.37e+00    0    6.22e-01
2003 11 14  2040    52957   74400      0    1.37e+00    0    6.25e-01
2003 11 14  2045    52957   74700      0    1.37e+00    0    6.43e-01
2003 11 14  2050    52957   75000      0    1.37e+00    0    6.33e-01
2003 11 14  2055    52957   75300      0    1.41e+00    0    6.57e-01
2003 11 14  2100    52957   75600      0    1.35e+00    0    6.24e-01
2003 11 14  2105    52957   75900      0    1.35e+00    0    6.24e-01
2003 11 14  2110    52957   76200      0    1.37e+00    0    6.42e-01
2003 11 14  2115    52957   76500      0    1.38e+00    0    6.40e-01
2003 11 14  2120    52957   76800      0    1.34e+00    0    6.17e-01
2003 11 14  2125    52957   77100      0    1.37e+00    0    6.39e-01
2003 11 14  2130    52957   77400      0    1.35e+00    0    6.18e-01
2003 11 14  2135    52957   77700      0    1.41e+00    0    6.48e-01
2003 11 14  2140    52957   78000      0    1.36e+00    0    6.33e-01
2003 11 14  2145    52957   78300      0    1.37e+00    0    6.34e-01
2003 11 14  2150    52957   78600      0    1.36e+00    0    6.23e-01
2003 11 14  2155    52957   78900      0    1.35e+00    0    6.20e-01
2003 11 14  2200    52957   79200      0    1.36e+00    0    6.28e-01
2003 11 14  2205    52957   79500      0    1.35e+00    0    6.32e-01
2003 11 14  2210    52957   79800      0    1.34e+00    0    6.21e-01
2003 11 14  2215    52957   80100      0    1.32e+00    0    6.23e-01
2003 11 14  2220    52957   80400      0    1.33e+00    0    6.24e-01
2003 11 14  2225    52957   80700      0    1.34e+00    0    6.37e-01
2003 11 14  2230    52957   81000      0    1.35e+00    0    6.20e-01
2003 11 14  2235    52957   81300      0    1.34e+00    0    6.29e-01
2003 11 14  2240    52957   81600      0    1.32e+00    0    6.09e-01
2003 11 14  2245    52957   81900      0    1.34e+00    0    6.28e-01
2003 11 14  2250    52957   82200      0    1.33e+00    0    6.21e-01
2003 11 14  2255    52957   82500      0    1.34e+00    0    6.30e-01
2003 11 14  2300    52957   82800      0    1.33e+00    0    6.32e-01
2003 11 14  2305    52957   83100      0    1.35e+00    0    6.29e-01
2003 11 14  2310    52957   83400      0    1.34e+00    0    6.26e-01
2003 11 14  2315    52957   83700      0    1.35e+00    0    6.53e-01
2003 11 14  2320    52957   84000      0    1.34e+00    0    6.19e-01
2003 11 14  2325    52957   84300      0    1.36e+00    0    6.34e-01
2003 11 14  2330    52957   84600      0    1.38e+00    0    6.31e-01
2003 11 14  2335    52957   84900      0    1.39e+00    0    6.47e-01
2003 11 14  2340    52957   85200      0    1.35e+00    0    6.20e-01
2003 11 14  2345    52957   85500      0    1.39e+00    0    6.34e-01
2003 11 14  2350    52957   85800      0    1.37e+00    0    6.30e-01
2003 11 14  2355    52957   86100      0    1.38e+00    0    6.38e-01
