:Data_list: 20030528_ace_sis_5m.txt
:Created: 2003 May 29 0011 UT
# Prepared by the U.S. Dept. of Commerce, NOAA, Space Environment Center.
# Please send comments and suggestions to sec@sec.noaa.gov 
# 
# Units: proton flux p/cs2-sec-ster
# Status(S): 0 = nominal data, 1 to 8 = bad data record, 9 = no data
# Missing data values: -1.00e+05
# Source: ACE Satellite - Solar Isotope Spectrometer
#
# 5-minute averaged Real-time Integral Flux of High-energy Solar Protons
# 
#                 Modified Seconds
# UT Date   Time   Julian  of the      ---- Integral Proton Flux ----
# YR MO DA  HHMM     Day     Day       S    > 10 MeV    S    > 30 MeV
#--------------------------------------------------------------------
2003 05 28  0000    52787       0      9   -1.00e+05    9   -1.00e+05
2003 05 28  0005    52787     300      9   -1.00e+05    9   -1.00e+05
2003 05 28  0010    52787     600      9   -1.00e+05    9   -1.00e+05
2003 05 28  0015    52787     900      9   -1.00e+05    9   -1.00e+05
2003 05 28  0020    52787    1200      9   -1.00e+05    9   -1.00e+05
2003 05 28  0025    52787    1500      9   -1.00e+05    9   -1.00e+05
2003 05 28  0030    52787    1800      9   -1.00e+05    9   -1.00e+05
2003 05 28  0035    52787    2100      9   -1.00e+05    9   -1.00e+05
2003 05 28  0040    52787    2400      9   -1.00e+05    9   -1.00e+05
2003 05 28  0045    52787    2700      9   -1.00e+05    9   -1.00e+05
2003 05 28  0050    52787    3000      9   -1.00e+05    9   -1.00e+05
2003 05 28  0055    52787    3300      9   -1.00e+05    9   -1.00e+05
2003 05 28  0100    52787    3600      9   -1.00e+05    9   -1.00e+05
2003 05 28  0105    52787    3900      9   -1.00e+05    9   -1.00e+05
2003 05 28  0110    52787    4200      9   -1.00e+05    9   -1.00e+05
2003 05 28  0115    52787    4500      9   -1.00e+05    9   -1.00e+05
2003 05 28  0120    52787    4800      9   -1.00e+05    9   -1.00e+05
2003 05 28  0125    52787    5100      9   -1.00e+05    9   -1.00e+05
2003 05 28  0130    52787    5400      9   -1.00e+05    9   -1.00e+05
2003 05 28  0135    52787    5700      9   -1.00e+05    9   -1.00e+05
2003 05 28  0140    52787    6000      9   -1.00e+05    9   -1.00e+05
2003 05 28  0145    52787    6300      9   -1.00e+05    9   -1.00e+05
2003 05 28  0150    52787    6600      9   -1.00e+05    9   -1.00e+05
2003 05 28  0155    52787    6900      9   -1.00e+05    9   -1.00e+05
2003 05 28  0200    52787    7200      9   -1.00e+05    9   -1.00e+05
2003 05 28  0205    52787    7500      9   -1.00e+05    9   -1.00e+05
2003 05 28  0210    52787    7800      9   -1.00e+05    9   -1.00e+05
2003 05 28  0215    52787    8100      9   -1.00e+05    9   -1.00e+05
2003 05 28  0220    52787    8400      9   -1.00e+05    9   -1.00e+05
2003 05 28  0225    52787    8700      9   -1.00e+05    9   -1.00e+05
2003 05 28  0230    52787    9000      9   -1.00e+05    9   -1.00e+05
2003 05 28  0235    52787    9300      9   -1.00e+05    9   -1.00e+05
2003 05 28  0240    52787    9600      9   -1.00e+05    9   -1.00e+05
2003 05 28  0245    52787    9900      9   -1.00e+05    9   -1.00e+05
2003 05 28  0250    52787   10200      9   -1.00e+05    9   -1.00e+05
2003 05 28  0255    52787   10500      9   -1.00e+05    9   -1.00e+05
2003 05 28  0300    52787   10800      9   -1.00e+05    9   -1.00e+05
2003 05 28  0305    52787   11100      9   -1.00e+05    9   -1.00e+05
2003 05 28  0310    52787   11400      9   -1.00e+05    9   -1.00e+05
2003 05 28  0315    52787   11700      9   -1.00e+05    9   -1.00e+05
2003 05 28  0320    52787   12000      9   -1.00e+05    9   -1.00e+05
2003 05 28  0325    52787   12300      9   -1.00e+05    9   -1.00e+05
2003 05 28  0330    52787   12600      9   -1.00e+05    9   -1.00e+05
2003 05 28  0335    52787   12900      9   -1.00e+05    9   -1.00e+05
2003 05 28  0340    52787   13200      9   -1.00e+05    9   -1.00e+05
2003 05 28  0345    52787   13500      9   -1.00e+05    9   -1.00e+05
2003 05 28  0350    52787   13800      9   -1.00e+05    9   -1.00e+05
2003 05 28  0355    52787   14100      9   -1.00e+05    9   -1.00e+05
2003 05 28  0400    52787   14400      9   -1.00e+05    9   -1.00e+05
2003 05 28  0405    52787   14700      9   -1.00e+05    9   -1.00e+05
2003 05 28  0410    52787   15000      9   -1.00e+05    9   -1.00e+05
2003 05 28  0415    52787   15300      9   -1.00e+05    9   -1.00e+05
2003 05 28  0420    52787   15600      9   -1.00e+05    9   -1.00e+05
2003 05 28  0425    52787   15900      9   -1.00e+05    9   -1.00e+05
2003 05 28  0430    52787   16200      0    1.17e+00    0    8.07e-01
2003 05 28  0435    52787   16500      0    1.15e+00    0    8.06e-01
2003 05 28  0440    52787   16800      0    1.17e+00    0    8.14e-01
2003 05 28  0445    52787   17100      0    1.20e+00    0    8.44e-01
2003 05 28  0450    52787   17400      0    1.21e+00    0    8.47e-01
2003 05 28  0455    52787   17700      0    1.25e+00    0    8.76e-01
2003 05 28  0500    52787   18000      0    1.28e+00    0    8.91e-01
2003 05 28  0505    52787   18300      0    1.33e+00    0    9.29e-01
2003 05 28  0510    52787   18600      0    1.46e+00    0    1.01e+00
2003 05 28  0515    52787   18900      0    1.43e+00    0    9.91e-01
2003 05 28  0520    52787   19200      0    1.46e+00    0    1.00e+00
2003 05 28  0525    52787   19500      0    1.49e+00    0    1.02e+00
2003 05 28  0530    52787   19800      0    1.49e+00    0    1.03e+00
2003 05 28  0535    52787   20100      0    1.43e+00    0    9.82e-01
2003 05 28  0540    52787   20400      0    1.44e+00    0    9.98e-01
2003 05 28  0545    52787   20700      0    1.50e+00    0    1.02e+00
2003 05 28  0550    52787   21000      0    1.60e+00    0    1.10e+00
2003 05 28  0555    52787   21300      0    1.64e+00    0    1.13e+00
2003 05 28  0600    52787   21600      0    1.62e+00    0    1.11e+00
2003 05 28  0605    52787   21900      0    1.74e+00    0    1.18e+00
2003 05 28  0610    52787   22200      0    1.67e+00    0    1.14e+00
2003 05 28  0615    52787   22500      0    1.69e+00    0    1.15e+00
2003 05 28  0620    52787   22800      0    1.72e+00    0    1.16e+00
2003 05 28  0625    52787   23100      0    1.74e+00    0    1.16e+00
2003 05 28  0630    52787   23400      0    1.78e+00    0    1.20e+00
2003 05 28  0635    52787   23700      0    1.75e+00    0    1.18e+00
2003 05 28  0640    52787   24000      0    1.73e+00    0    1.17e+00
2003 05 28  0645    52787   24300      0    1.86e+00    0    1.22e+00
2003 05 28  0650    52787   24600      0    1.78e+00    0    1.18e+00
2003 05 28  0655    52787   24900      0    1.81e+00    0    1.18e+00
2003 05 28  0700    52787   25200      0    1.88e+00    0    1.24e+00
2003 05 28  0705    52787   25500      0    1.96e+00    0    1.27e+00
2003 05 28  0710    52787   25800      0    1.98e+00    0    1.29e+00
2003 05 28  0715    52787   26100      0    1.97e+00    0    1.26e+00
2003 05 28  0720    52787   26400      0    1.93e+00    0    1.27e+00
2003 05 28  0725    52787   26700      0    2.05e+00    0    1.32e+00
2003 05 28  0730    52787   27000      0    2.04e+00    0    1.29e+00
2003 05 28  0735    52787   27300      0    2.03e+00    0    1.30e+00
2003 05 28  0740    52787   27600      0    2.07e+00    0    1.32e+00
2003 05 28  0745    52787   27900      0    2.00e+00    0    1.28e+00
2003 05 28  0750    52787   28200      0    2.03e+00    0    1.28e+00
2003 05 28  0755    52787   28500      0    2.11e+00    0    1.36e+00
2003 05 28  0800    52787   28800      0    2.10e+00    0    1.34e+00
2003 05 28  0805    52787   29100      0    2.15e+00    0    1.34e+00
2003 05 28  0810    52787   29400      0    2.16e+00    0    1.35e+00
2003 05 28  0815    52787   29700      0    2.24e+00    0    1.44e+00
2003 05 28  0820    52787   30000      0    2.25e+00    0    1.42e+00
2003 05 28  0825    52787   30300      0    2.09e+00    0    1.28e+00
2003 05 28  0830    52787   30600      9   -1.00e+05    9   -1.00e+05
2003 05 28  0835    52787   30900      9   -1.00e+05    9   -1.00e+05
2003 05 28  0840    52787   31200      0    2.31e+00    0    1.39e+00
2003 05 28  0845    52787   31500      0    2.52e+00    0    1.57e+00
2003 05 28  0850    52787   31800      0    2.49e+00    0    1.53e+00
2003 05 28  0855    52787   32100      0    2.63e+00    0    1.62e+00
2003 05 28  0900    52787   32400      0    2.64e+00    0    1.58e+00
2003 05 28  0905    52787   32700      0    2.67e+00    0    1.60e+00
2003 05 28  0910    52787   33000      0    2.70e+00    0    1.64e+00
2003 05 28  0915    52787   33300      0    2.66e+00    0    1.63e+00
2003 05 28  0920    52787   33600      0    2.73e+00    0    1.68e+00
2003 05 28  0925    52787   33900      0    2.75e+00    0    1.66e+00
2003 05 28  0930    52787   34200      0    2.81e+00    0    1.67e+00
2003 05 28  0935    52787   34500      0    2.85e+00    0    1.66e+00
2003 05 28  0940    52787   34800      0    2.81e+00    0    1.66e+00
2003 05 28  0945    52787   35100      0    2.89e+00    0    1.70e+00
2003 05 28  0950    52787   35400      0    2.99e+00    0    1.75e+00
2003 05 28  0955    52787   35700      0    3.12e+00    0    1.81e+00
2003 05 28  1000    52787   36000      0    3.16e+00    0    1.78e+00
2003 05 28  1005    52787   36300      0    3.09e+00    0    1.72e+00
2003 05 28  1010    52787   36600      0    3.19e+00    0    1.85e+00
2003 05 28  1015    52787   36900      0    3.18e+00    0    1.80e+00
2003 05 28  1020    52787   37200      0    3.18e+00    0    1.74e+00
2003 05 28  1025    52787   37500      0    3.34e+00    0    1.87e+00
2003 05 28  1030    52787   37800      0    3.46e+00    0    1.86e+00
2003 05 28  1035    52787   38100      0    3.38e+00    0    1.90e+00
2003 05 28  1040    52787   38400      0    3.22e+00    0    1.75e+00
2003 05 28  1045    52787   38700      0    3.16e+00    0    1.73e+00
2003 05 28  1050    52787   39000      0    3.20e+00    0    1.76e+00
2003 05 28  1055    52787   39300      0    3.19e+00    0    1.76e+00
2003 05 28  1100    52787   39600      0    3.32e+00    0    1.79e+00
2003 05 28  1105    52787   39900      0    3.16e+00    0    1.75e+00
2003 05 28  1110    52787   40200      0    3.29e+00    0    1.75e+00
2003 05 28  1115    52787   40500      0    3.40e+00    0    1.84e+00
2003 05 28  1120    52787   40800      0    3.40e+00    0    1.82e+00
2003 05 28  1125    52787   41100      0    3.25e+00    0    1.73e+00
2003 05 28  1130    52787   41400      0    3.30e+00    0    1.76e+00
2003 05 28  1135    52787   41700      0    3.27e+00    0    1.76e+00
2003 05 28  1140    52787   42000      0    3.25e+00    0    1.77e+00
2003 05 28  1145    52787   42300      0    3.28e+00    0    1.75e+00
2003 05 28  1150    52787   42600      0    3.33e+00    0    1.77e+00
2003 05 28  1155    52787   42900      0    3.45e+00    0    1.82e+00
2003 05 28  1200    52787   43200      0    3.55e+00    0    1.88e+00
2003 05 28  1205    52787   43500      0    3.64e+00    0    1.81e+00
2003 05 28  1210    52787   43800      0    3.55e+00    0    1.76e+00
2003 05 28  1215    52787   44100      0    3.67e+00    0    1.80e+00
2003 05 28  1220    52787   44400      0    3.56e+00    0    1.79e+00
2003 05 28  1225    52787   44700      0    3.54e+00    0    1.76e+00
2003 05 28  1230    52787   45000      0    3.69e+00    0    1.88e+00
2003 05 28  1235    52787   45300      0    3.77e+00    0    1.88e+00
2003 05 28  1240    52787   45600      0    3.68e+00    0    1.81e+00
2003 05 28  1245    52787   45900      0    3.76e+00    0    1.86e+00
2003 05 28  1250    52787   46200      0    3.67e+00    0    1.78e+00
2003 05 28  1255    52787   46500      0    3.73e+00    0    1.79e+00
2003 05 28  1300    52787   46800      0    3.81e+00    0    1.83e+00
2003 05 28  1305    52787   47100      0    3.68e+00    0    1.70e+00
2003 05 28  1310    52787   47400      0    3.72e+00    0    1.72e+00
2003 05 28  1315    52787   47700      0    3.77e+00    0    1.70e+00
2003 05 28  1320    52787   48000      0    3.73e+00    0    1.78e+00
2003 05 28  1325    52787   48300      0    3.62e+00    0    1.70e+00
2003 05 28  1330    52787   48600      0    3.64e+00    0    1.74e+00
2003 05 28  1335    52787   48900      0    3.87e+00    0    1.79e+00
2003 05 28  1340    52787   49200      0    3.69e+00    0    1.71e+00
2003 05 28  1345    52787   49500      0    3.74e+00    0    1.69e+00
2003 05 28  1350    52787   49800      0    3.66e+00    0    1.69e+00
2003 05 28  1355    52787   50100      0    3.90e+00    0    1.76e+00
2003 05 28  1400    52787   50400      0    3.79e+00    0    1.76e+00
2003 05 28  1405    52787   50700      0    3.85e+00    0    1.72e+00
2003 05 28  1410    52787   51000      0    4.35e+00    0    1.87e+00
2003 05 28  1415    52787   51300      0    5.00e+00    0    1.93e+00
2003 05 28  1420    52787   51600      0    4.98e+00    0    1.98e+00
2003 05 28  1425    52787   51900      0    4.51e+00    0    1.77e+00
2003 05 28  1430    52787   52200      0    4.86e+00    0    1.90e+00
2003 05 28  1435    52787   52500      0    5.03e+00    0    1.96e+00
2003 05 28  1440    52787   52800      0    4.94e+00    0    1.90e+00
2003 05 28  1445    52787   53100      0    4.87e+00    0    1.91e+00
2003 05 28  1450    52787   53400      0    4.83e+00    0    1.84e+00
2003 05 28  1455    52787   53700      0    5.00e+00    0    1.93e+00
2003 05 28  1500    52787   54000      0    5.00e+00    0    1.91e+00
2003 05 28  1505    52787   54300      0    5.17e+00    0    1.91e+00
2003 05 28  1510    52787   54600      0    5.15e+00    0    1.89e+00
2003 05 28  1515    52787   54900      0    5.10e+00    0    1.84e+00
2003 05 28  1520    52787   55200      0    5.07e+00    0    1.92e+00
2003 05 28  1525    52787   55500      0    5.30e+00    0    1.93e+00
2003 05 28  1530    52787   55800      0    5.58e+00    0    1.84e+00
2003 05 28  1535    52787   56100      0    5.71e+00    0    1.91e+00
2003 05 28  1540    52787   56400      0    5.53e+00    0    1.91e+00
2003 05 28  1545    52787   56700      0    5.49e+00    0    1.90e+00
2003 05 28  1550    52787   57000      0    5.40e+00    0    1.87e+00
2003 05 28  1555    52787   57300      0    5.36e+00    0    1.83e+00
2003 05 28  1600    52787   57600      0    5.48e+00    0    1.92e+00
2003 05 28  1605    52787   57900      0    5.35e+00    0    1.81e+00
2003 05 28  1610    52787   58200      0    5.26e+00    0    1.81e+00
2003 05 28  1615    52787   58500      0    5.55e+00    0    1.85e+00
2003 05 28  1620    52787   58800      0    5.48e+00    0    1.81e+00
2003 05 28  1625    52787   59100      0    5.47e+00    0    1.84e+00
2003 05 28  1630    52787   59400      0    5.45e+00    0    1.79e+00
2003 05 28  1635    52787   59700      0    5.63e+00    0    1.84e+00
2003 05 28  1640    52787   60000      0    5.38e+00    0    1.83e+00
2003 05 28  1645    52787   60300      0    5.44e+00    0    1.74e+00
2003 05 28  1650    52787   60600      0    5.78e+00    0    1.97e+00
2003 05 28  1655    52787   60900      0    5.76e+00    0    1.91e+00
2003 05 28  1700    52787   61200      0    5.69e+00    0    1.85e+00
2003 05 28  1705    52787   61500      0    5.69e+00    0    1.85e+00
2003 05 28  1710    52787   61800      0    5.73e+00    0    1.79e+00
2003 05 28  1715    52787   62100      0    5.73e+00    0    1.75e+00
2003 05 28  1720    52787   62400      0    5.94e+00    0    1.89e+00
2003 05 28  1725    52787   62700      0    5.86e+00    0    1.81e+00
2003 05 28  1730    52787   63000      0    5.97e+00    0    1.83e+00
2003 05 28  1735    52787   63300      0    5.97e+00    0    1.83e+00
2003 05 28  1740    52787   63600      0    6.13e+00    0    1.83e+00
2003 05 28  1745    52787   63900      0    5.86e+00    0    1.72e+00
2003 05 28  1750    52787   64200      0    6.09e+00    0    1.81e+00
2003 05 28  1755    52787   64500      0    6.21e+00    0    1.82e+00
2003 05 28  1800    52787   64800      0    6.45e+00    0    1.77e+00
2003 05 28  1805    52787   65100      0    6.66e+00    0    1.90e+00
2003 05 28  1810    52787   65400      0    6.77e+00    0    1.89e+00
2003 05 28  1815    52787   65700      0    6.10e+00    0    1.74e+00
2003 05 28  1820    52787   66000      0    6.19e+00    0    1.75e+00
2003 05 28  1825    52787   66300      0    6.56e+00    0    1.75e+00
2003 05 28  1830    52787   66600      0    6.85e+00    0    1.81e+00
2003 05 28  1835    52787   66900      0    6.84e+00    0    1.77e+00
2003 05 28  1840    52787   67200      0    6.79e+00    0    1.75e+00
2003 05 28  1845    52787   67500      0    6.80e+00    0    1.75e+00
2003 05 28  1850    52787   67800      0    6.81e+00    0    1.81e+00
2003 05 28  1855    52787   68100      0    6.84e+00    0    1.81e+00
2003 05 28  1900    52787   68400      0    7.43e+00    0    1.75e+00
2003 05 28  1905    52787   68700      0    7.28e+00    0    1.80e+00
2003 05 28  1910    52787   69000      0    7.08e+00    0    1.78e+00
2003 05 28  1915    52787   69300      0    8.20e+00    0    1.88e+00
2003 05 28  1920    52787   69600      0    8.88e+00    0    1.82e+00
2003 05 28  1925    52787   69900      0    9.19e+00    0    1.86e+00
2003 05 28  1930    52787   70200      0    9.35e+00    0    1.82e+00
2003 05 28  1935    52787   70500      0    8.89e+00    0    1.84e+00
2003 05 28  1940    52787   70800      0    9.56e+00    0    1.90e+00
2003 05 28  1945    52787   71100      0    9.54e+00    0    1.83e+00
2003 05 28  1950    52787   71400      0    9.52e+00    0    1.81e+00
2003 05 28  1955    52787   71700      0    9.76e+00    0    1.78e+00
2003 05 28  2000    52787   72000      0    9.38e+00    0    1.76e+00
2003 05 28  2005    52787   72300      0    9.57e+00    0    1.82e+00
2003 05 28  2010    52787   72600      0    9.39e+00    0    1.83e+00
2003 05 28  2015    52787   72900      0    7.95e+00    0    1.72e+00
2003 05 28  2020    52787   73200      0    7.29e+00    0    1.59e+00
2003 05 28  2025    52787   73500      0    7.11e+00    0    1.63e+00
2003 05 28  2030    52787   73800      0    7.04e+00    0    1.71e+00
2003 05 28  2035    52787   74100      0    7.31e+00    0    1.62e+00
2003 05 28  2040    52787   74400      0    7.56e+00    0    1.71e+00
2003 05 28  2045    52787   74700      0    7.57e+00    0    1.67e+00
2003 05 28  2050    52787   75000      0    7.47e+00    0    1.69e+00
2003 05 28  2055    52787   75300      0    7.68e+00    0    1.66e+00
2003 05 28  2100    52787   75600      0    7.76e+00    0    1.72e+00
2003 05 28  2105    52787   75900      0    7.50e+00    0    1.58e+00
2003 05 28  2110    52787   76200      0    7.61e+00    0    1.63e+00
2003 05 28  2115    52787   76500      0    7.62e+00    0    1.61e+00
2003 05 28  2120    52787   76800      0    7.60e+00    0    1.59e+00
2003 05 28  2125    52787   77100      0    7.56e+00    0    1.61e+00
2003 05 28  2130    52787   77400      0    7.84e+00    0    1.58e+00
2003 05 28  2135    52787   77700      0    8.09e+00    0    1.77e+00
2003 05 28  2140    52787   78000      0    7.90e+00    0    1.68e+00
2003 05 28  2145    52787   78300      0    7.96e+00    0    1.60e+00
2003 05 28  2150    52787   78600      0    7.86e+00    0    1.58e+00
2003 05 28  2155    52787   78900      0    7.73e+00    0    1.66e+00
2003 05 28  2200    52787   79200      0    7.75e+00    0    1.59e+00
2003 05 28  2205    52787   79500      0    8.19e+00    0    1.60e+00
2003 05 28  2210    52787   79800      0    8.12e+00    0    1.58e+00
2003 05 28  2215    52787   80100      0    8.01e+00    0    1.55e+00
2003 05 28  2220    52787   80400      0    8.14e+00    0    1.53e+00
2003 05 28  2225    52787   80700      0    8.62e+00    0    1.58e+00
2003 05 28  2230    52787   81000      0    9.36e+00    0    1.60e+00
2003 05 28  2235    52787   81300      0    9.51e+00    0    1.65e+00
2003 05 28  2240    52787   81600      0    9.38e+00    0    1.59e+00
2003 05 28  2245    52787   81900      0    9.60e+00    0    1.73e+00
2003 05 28  2250    52787   82200      0    9.60e+00    0    1.69e+00
2003 05 28  2255    52787   82500      0    9.27e+00    0    1.60e+00
2003 05 28  2300    52787   82800      0    9.45e+00    0    1.70e+00
2003 05 28  2305    52787   83100      0    9.27e+00    0    1.61e+00
2003 05 28  2310    52787   83400      0    8.95e+00    0    1.57e+00
2003 05 28  2315    52787   83700      0    9.21e+00    0    1.59e+00
2003 05 28  2320    52787   84000      0    9.39e+00    0    1.65e+00
2003 05 28  2325    52787   84300      0    9.35e+00    0    1.59e+00
2003 05 28  2330    52787   84600      0    9.32e+00    0    1.59e+00
2003 05 28  2335    52787   84900      0    9.20e+00    0    1.57e+00
2003 05 28  2340    52787   85200      0    9.63e+00    0    1.56e+00
2003 05 28  2345    52787   85500      0    9.87e+00    0    1.61e+00
2003 05 28  2350    52787   85800      0    1.00e+01    0    1.67e+00
2003 05 28  2355    52787   86100      0    9.84e+00    0    1.54e+00
