:Data_list: 20041115_ace_sis_5m.txt
:Created: 2004 Nov 16 0011 UT
# Prepared by the U.S. Dept. of Commerce, NOAA, Space Environment Center.
# Please send comments and suggestions to SEC.Webmaster@noaa.gov 
# 
# Units: proton flux p/cs2-sec-ster
# Status(S): 0 = nominal data, 1 to 8 = bad data record, 9 = no data
# Missing data values: -1.00e+05
# Source: ACE Satellite - Solar Isotope Spectrometer
#
# 5-minute averaged Real-time Integral Flux of High-energy Solar Protons
# 
#                 Modified Seconds
# UT Date   Time   Julian  of the      ---- Integral Proton Flux ----
# YR MO DA  HHMM     Day     Day       S    > 10 MeV    S    > 30 MeV
#--------------------------------------------------------------------
2004 11 15  0000    53324       0      0    6.58e+00    0    1.18e+00
2004 11 15  0005    53324     300      0    6.68e+00    0    1.16e+00
2004 11 15  0010    53324     600      0    6.65e+00    0    1.21e+00
2004 11 15  0015    53324     900      0    6.78e+00    0    1.22e+00
2004 11 15  0020    53324    1200      0    6.80e+00    0    1.26e+00
2004 11 15  0025    53324    1500      0    6.55e+00    0    1.25e+00
2004 11 15  0030    53324    1800      0    6.40e+00    0    1.11e+00
2004 11 15  0035    53324    2100      0    6.43e+00    0    1.21e+00
2004 11 15  0040    53324    2400      0    6.45e+00    0    1.16e+00
2004 11 15  0045    53324    2700      0    6.47e+00    0    1.22e+00
2004 11 15  0050    53324    3000      0    6.21e+00    0    1.15e+00
2004 11 15  0055    53324    3300      0    6.18e+00    0    1.17e+00
2004 11 15  0100    53324    3600      0    6.04e+00    0    1.16e+00
2004 11 15  0105    53324    3900      0    6.12e+00    0    1.16e+00
2004 11 15  0110    53324    4200      0    6.21e+00    0    1.20e+00
2004 11 15  0115    53324    4500      0    6.08e+00    0    1.13e+00
2004 11 15  0120    53324    4800      0    6.17e+00    0    1.18e+00
2004 11 15  0125    53324    5100      0    6.15e+00    0    1.16e+00
2004 11 15  0130    53324    5400      0    6.27e+00    0    1.23e+00
2004 11 15  0135    53324    5700      0    6.26e+00    0    1.17e+00
2004 11 15  0140    53324    6000      0    6.13e+00    0    1.18e+00
2004 11 15  0145    53324    6300      0    6.06e+00    0    1.15e+00
2004 11 15  0150    53324    6600      0    6.07e+00    0    1.17e+00
2004 11 15  0155    53324    6900      0    6.08e+00    0    1.18e+00
2004 11 15  0200    53324    7200      0    5.83e+00    0    1.11e+00
2004 11 15  0205    53324    7500      0    6.16e+00    0    1.25e+00
2004 11 15  0210    53324    7800      0    6.10e+00    0    1.18e+00
2004 11 15  0215    53324    8100      0    6.17e+00    0    1.17e+00
2004 11 15  0220    53324    8400      0    6.09e+00    0    1.12e+00
2004 11 15  0225    53324    8700      0    6.26e+00    0    1.25e+00
2004 11 15  0230    53324    9000      0    6.39e+00    0    1.21e+00
2004 11 15  0235    53324    9300      0    6.17e+00    0    1.16e+00
2004 11 15  0240    53324    9600      0    6.13e+00    0    1.18e+00
2004 11 15  0245    53324    9900      0    5.80e+00    0    1.09e+00
2004 11 15  0250    53324   10200      0    6.03e+00    0    1.21e+00
2004 11 15  0255    53324   10500      0    6.11e+00    0    1.14e+00
2004 11 15  0300    53324   10800      0    6.22e+00    0    1.23e+00
2004 11 15  0305    53324   11100      0    6.03e+00    0    1.15e+00
2004 11 15  0310    53324   11400      0    5.93e+00    0    1.17e+00
2004 11 15  0315    53324   11700      0    5.86e+00    0    1.14e+00
2004 11 15  0320    53324   12000      0    5.81e+00    0    1.14e+00
2004 11 15  0325    53324   12300      0    5.78e+00    0    1.14e+00
2004 11 15  0330    53324   12600      0    5.74e+00    0    1.13e+00
2004 11 15  0335    53324   12900      0    5.69e+00    0    1.12e+00
2004 11 15  0340    53324   13200      0    5.64e+00    0    1.08e+00
2004 11 15  0345    53324   13500      0    5.69e+00    0    1.12e+00
2004 11 15  0350    53324   13800      0    5.65e+00    0    1.14e+00
2004 11 15  0355    53324   14100      0    5.67e+00    0    1.16e+00
2004 11 15  0400    53324   14400      0    5.60e+00    0    1.13e+00
2004 11 15  0405    53324   14700      0    5.70e+00    0    1.14e+00
2004 11 15  0410    53324   15000      0    5.81e+00    0    1.15e+00
2004 11 15  0415    53324   15300      0    5.68e+00    0    1.14e+00
2004 11 15  0420    53324   15600      0    5.66e+00    0    1.13e+00
2004 11 15  0425    53324   15900      0    5.68e+00    0    1.12e+00
2004 11 15  0430    53324   16200      0    5.61e+00    0    1.14e+00
2004 11 15  0435    53324   16500      0    5.74e+00    0    1.19e+00
2004 11 15  0440    53324   16800      0    5.78e+00    0    1.15e+00
2004 11 15  0445    53324   17100      0    5.62e+00    0    1.12e+00
2004 11 15  0450    53324   17400      0    5.67e+00    0    1.16e+00
2004 11 15  0455    53324   17700      0    5.77e+00    0    1.17e+00
2004 11 15  0500    53324   18000      0    5.74e+00    0    1.12e+00
2004 11 15  0505    53324   18300      0    5.64e+00    0    1.17e+00
2004 11 15  0510    53324   18600      0    5.81e+00    0    1.19e+00
2004 11 15  0515    53324   18900      0    5.85e+00    0    1.18e+00
2004 11 15  0520    53324   19200      0    5.94e+00    0    1.17e+00
2004 11 15  0525    53324   19500      0    5.98e+00    0    1.18e+00
2004 11 15  0530    53324   19800      0    5.98e+00    0    1.13e+00
2004 11 15  0535    53324   20100      0    6.05e+00    0    1.21e+00
2004 11 15  0540    53324   20400      0    6.03e+00    0    1.18e+00
2004 11 15  0545    53324   20700      0    5.76e+00    0    1.14e+00
2004 11 15  0550    53324   21000      0    5.79e+00    0    1.13e+00
2004 11 15  0555    53324   21300      0    5.88e+00    0    1.16e+00
2004 11 15  0600    53324   21600      0    6.06e+00    0    1.17e+00
2004 11 15  0605    53324   21900      0    6.11e+00    0    1.21e+00
2004 11 15  0610    53324   22200      0    6.16e+00    0    1.20e+00
2004 11 15  0615    53324   22500      0    6.08e+00    0    1.16e+00
2004 11 15  0620    53324   22800      0    6.10e+00    0    1.21e+00
2004 11 15  0625    53324   23100      0    5.90e+00    0    1.14e+00
2004 11 15  0630    53324   23400      0    5.82e+00    0    1.12e+00
2004 11 15  0635    53324   23700      0    5.89e+00    0    1.20e+00
2004 11 15  0640    53324   24000      0    5.96e+00    0    1.15e+00
2004 11 15  0645    53324   24300      0    5.93e+00    0    1.17e+00
2004 11 15  0650    53324   24600      0    5.81e+00    0    1.16e+00
2004 11 15  0655    53324   24900      9   -1.00e+05    9   -1.00e+05
2004 11 15  0700    53324   25200      9   -1.00e+05    9   -1.00e+05
2004 11 15  0705    53324   25500      9   -1.00e+05    9   -1.00e+05
2004 11 15  0710    53324   25800      9   -1.00e+05    9   -1.00e+05
2004 11 15  0715    53324   26100      9   -1.00e+05    9   -1.00e+05
2004 11 15  0720    53324   26400      9   -1.00e+05    9   -1.00e+05
2004 11 15  0725    53324   26700      9   -1.00e+05    9   -1.00e+05
2004 11 15  0730    53324   27000      9   -1.00e+05    9   -1.00e+05
2004 11 15  0735    53324   27300      9   -1.00e+05    9   -1.00e+05
2004 11 15  0740    53324   27600      9   -1.00e+05    9   -1.00e+05
2004 11 15  0745    53324   27900      9   -1.00e+05    9   -1.00e+05
2004 11 15  0750    53324   28200      9   -1.00e+05    9   -1.00e+05
2004 11 15  0755    53324   28500      9   -1.00e+05    9   -1.00e+05
2004 11 15  0800    53324   28800      9   -1.00e+05    9   -1.00e+05
2004 11 15  0805    53324   29100      0    6.21e+00    0    1.30e+00
2004 11 15  0810    53324   29400      0    6.07e+00    0    1.15e+00
2004 11 15  0815    53324   29700      0    6.05e+00    0    1.14e+00
2004 11 15  0820    53324   30000      0    6.11e+00    0    1.15e+00
2004 11 15  0825    53324   30300      0    6.00e+00    0    1.20e+00
2004 11 15  0830    53324   30600      0    5.78e+00    0    1.16e+00
2004 11 15  0835    53324   30900      0    5.50e+00    0    1.16e+00
2004 11 15  0840    53324   31200      0    5.60e+00    0    1.14e+00
2004 11 15  0845    53324   31500      0    5.47e+00    0    1.13e+00
2004 11 15  0850    53324   31800      0    5.52e+00    0    1.10e+00
2004 11 15  0855    53324   32100      0    5.63e+00    0    1.13e+00
2004 11 15  0900    53324   32400      0    5.57e+00    0    1.14e+00
2004 11 15  0905    53324   32700      0    5.45e+00    0    1.14e+00
2004 11 15  0910    53324   33000      0    5.47e+00    0    1.18e+00
2004 11 15  0915    53324   33300      0    5.45e+00    0    1.16e+00
2004 11 15  0920    53324   33600      0    5.43e+00    0    1.14e+00
2004 11 15  0925    53324   33900      0    5.43e+00    0    1.17e+00
2004 11 15  0930    53324   34200      0    5.39e+00    0    1.14e+00
2004 11 15  0935    53324   34500      0    5.30e+00    0    1.10e+00
2004 11 15  0940    53324   34800      0    5.43e+00    0    1.13e+00
2004 11 15  0945    53324   35100      0    5.31e+00    0    1.12e+00
2004 11 15  0950    53324   35400      0    5.41e+00    0    1.11e+00
2004 11 15  0955    53324   35700      0    5.35e+00    0    1.15e+00
2004 11 15  1000    53324   36000      0    5.47e+00    0    1.17e+00
2004 11 15  1005    53324   36300      0    5.35e+00    0    1.11e+00
2004 11 15  1010    53324   36600      0    5.35e+00    0    1.14e+00
2004 11 15  1015    53324   36900      0    5.25e+00    0    1.13e+00
2004 11 15  1020    53324   37200      0    5.19e+00    0    1.12e+00
2004 11 15  1025    53324   37500      0    5.25e+00    0    1.12e+00
2004 11 15  1030    53324   37800      0    5.19e+00    0    1.11e+00
2004 11 15  1035    53324   38100      0    5.16e+00    0    1.09e+00
2004 11 15  1040    53324   38400      0    5.23e+00    0    1.11e+00
2004 11 15  1045    53324   38700      0    5.24e+00    0    1.16e+00
2004 11 15  1050    53324   39000      0    5.36e+00    0    1.15e+00
2004 11 15  1055    53324   39300      0    5.09e+00    0    1.09e+00
2004 11 15  1100    53324   39600      0    5.08e+00    0    1.12e+00
2004 11 15  1105    53324   39900      0    5.12e+00    0    1.10e+00
2004 11 15  1110    53324   40200      0    5.29e+00    0    1.17e+00
2004 11 15  1115    53324   40500      0    5.17e+00    0    1.10e+00
2004 11 15  1120    53324   40800      0    5.18e+00    0    1.09e+00
2004 11 15  1125    53324   41100      0    5.09e+00    0    1.11e+00
2004 11 15  1130    53324   41400      0    5.04e+00    0    1.10e+00
2004 11 15  1135    53324   41700      0    5.06e+00    0    1.11e+00
2004 11 15  1140    53324   42000      0    5.05e+00    0    1.09e+00
2004 11 15  1145    53324   42300      0    5.07e+00    0    1.16e+00
2004 11 15  1150    53324   42600      0    5.05e+00    0    1.11e+00
2004 11 15  1155    53324   42900      0    5.04e+00    0    1.10e+00
2004 11 15  1200    53324   43200      0    4.96e+00    0    1.12e+00
2004 11 15  1205    53324   43500      0    4.92e+00    0    1.11e+00
2004 11 15  1210    53324   43800      0    4.88e+00    0    1.10e+00
2004 11 15  1215    53324   44100      0    5.00e+00    0    1.10e+00
2004 11 15  1220    53324   44400      0    4.90e+00    0    1.06e+00
2004 11 15  1225    53324   44700      0    5.08e+00    0    1.13e+00
2004 11 15  1230    53324   45000      0    5.04e+00    0    1.09e+00
2004 11 15  1235    53324   45300      0    4.87e+00    0    1.07e+00
2004 11 15  1240    53324   45600      0    5.11e+00    0    1.10e+00
2004 11 15  1245    53324   45900      0    4.97e+00    0    1.08e+00
2004 11 15  1250    53324   46200      0    4.87e+00    0    1.09e+00
2004 11 15  1255    53324   46500      0    4.95e+00    0    1.09e+00
2004 11 15  1300    53324   46800      0    5.01e+00    0    1.14e+00
2004 11 15  1305    53324   47100      0    5.07e+00    0    1.14e+00
2004 11 15  1310    53324   47400      0    4.95e+00    0    1.14e+00
2004 11 15  1315    53324   47700      0    4.94e+00    0    1.11e+00
2004 11 15  1320    53324   48000      0    4.88e+00    0    1.09e+00
2004 11 15  1325    53324   48300      0    4.93e+00    0    1.08e+00
2004 11 15  1330    53324   48600      0    4.90e+00    0    1.09e+00
2004 11 15  1335    53324   48900      0    4.95e+00    0    1.10e+00
2004 11 15  1340    53324   49200      0    4.90e+00    0    1.09e+00
2004 11 15  1345    53324   49500      0    4.94e+00    0    1.14e+00
2004 11 15  1350    53324   49800      0    4.95e+00    0    1.13e+00
2004 11 15  1355    53324   50100      0    4.87e+00    0    1.08e+00
2004 11 15  1400    53324   50400      0    4.89e+00    0    1.10e+00
2004 11 15  1405    53324   50700      0    4.78e+00    0    1.15e+00
2004 11 15  1410    53324   51000      0    4.75e+00    0    1.08e+00
2004 11 15  1415    53324   51300      0    4.87e+00    0    1.13e+00
2004 11 15  1420    53324   51600      0    4.91e+00    0    1.11e+00
2004 11 15  1425    53324   51900      0    4.91e+00    0    1.10e+00
2004 11 15  1430    53324   52200      0    4.91e+00    0    1.09e+00
2004 11 15  1435    53324   52500      0    4.83e+00    0    1.13e+00
2004 11 15  1440    53324   52800      0    4.88e+00    0    1.09e+00
2004 11 15  1445    53324   53100      0    4.76e+00    0    1.11e+00
2004 11 15  1450    53324   53400      0    4.70e+00    0    1.12e+00
2004 11 15  1455    53324   53700      0    4.71e+00    0    1.07e+00
2004 11 15  1500    53324   54000      0    4.81e+00    0    1.08e+00
2004 11 15  1505    53324   54300      0    4.72e+00    0    1.11e+00
2004 11 15  1510    53324   54600      0    4.73e+00    0    1.07e+00
2004 11 15  1515    53324   54900      0    4.74e+00    0    1.10e+00
2004 11 15  1520    53324   55200      9   -1.00e+05    9   -1.00e+05
2004 11 15  1525    53324   55500      9   -1.00e+05    9   -1.00e+05
2004 11 15  1530    53324   55800      9   -1.00e+05    9   -1.00e+05
2004 11 15  1535    53324   56100      9   -1.00e+05    9   -1.00e+05
2004 11 15  1540    53324   56400      9   -1.00e+05    9   -1.00e+05
2004 11 15  1545    53324   56700      9   -1.00e+05    9   -1.00e+05
2004 11 15  1550    53324   57000      9   -1.00e+05    9   -1.00e+05
2004 11 15  1555    53324   57300      9   -1.00e+05    9   -1.00e+05
2004 11 15  1600    53324   57600      9   -1.00e+05    9   -1.00e+05
2004 11 15  1605    53324   57900      9   -1.00e+05    9   -1.00e+05
2004 11 15  1610    53324   58200      9   -1.00e+05    9   -1.00e+05
2004 11 15  1615    53324   58500      0    4.54e+00    0    1.07e+00
2004 11 15  1620    53324   58800      0    4.62e+00    0    1.08e+00
2004 11 15  1625    53324   59100      0    4.63e+00    0    1.09e+00
2004 11 15  1630    53324   59400      0    4.56e+00    0    1.09e+00
2004 11 15  1635    53324   59700      0    4.58e+00    0    1.10e+00
2004 11 15  1640    53324   60000      0    4.57e+00    0    1.08e+00
2004 11 15  1645    53324   60300      0    4.61e+00    0    1.07e+00
2004 11 15  1650    53324   60600      0    4.55e+00    0    1.06e+00
2004 11 15  1655    53324   60900      0    4.59e+00    0    1.06e+00
2004 11 15  1700    53324   61200      0    4.75e+00    0    1.06e+00
2004 11 15  1705    53324   61500      0    4.79e+00    0    1.07e+00
2004 11 15  1710    53324   61800      0    4.89e+00    0    1.14e+00
2004 11 15  1715    53324   62100      0    4.76e+00    0    1.10e+00
2004 11 15  1720    53324   62400      0    4.82e+00    0    1.07e+00
2004 11 15  1725    53324   62700      0    4.85e+00    0    1.10e+00
2004 11 15  1730    53324   63000      0    4.90e+00    0    1.06e+00
2004 11 15  1735    53324   63300      0    4.89e+00    0    1.09e+00
2004 11 15  1740    53324   63600      0    4.90e+00    0    1.08e+00
2004 11 15  1745    53324   63900      0    4.89e+00    0    1.10e+00
2004 11 15  1750    53324   64200      0    4.78e+00    0    1.07e+00
2004 11 15  1755    53324   64500      0    4.78e+00    0    1.10e+00
2004 11 15  1800    53324   64800      0    4.82e+00    0    1.15e+00
2004 11 15  1805    53324   65100      0    4.78e+00    0    1.07e+00
2004 11 15  1810    53324   65400      0    4.70e+00    0    1.08e+00
2004 11 15  1815    53324   65700      0    4.78e+00    0    1.10e+00
2004 11 15  1820    53324   66000      0    4.70e+00    0    1.05e+00
2004 11 15  1825    53324   66300      0    4.71e+00    0    1.07e+00
2004 11 15  1830    53324   66600      0    4.73e+00    0    1.08e+00
2004 11 15  1835    53324   66900      0    4.77e+00    0    1.10e+00
2004 11 15  1840    53324   67200      0    4.85e+00    0    1.14e+00
2004 11 15  1845    53324   67500      0    4.87e+00    0    1.11e+00
2004 11 15  1850    53324   67800      0    4.86e+00    0    1.11e+00
2004 11 15  1855    53324   68100      0    4.84e+00    0    1.10e+00
2004 11 15  1900    53324   68400      0    4.75e+00    0    1.07e+00
2004 11 15  1905    53324   68700      0    4.81e+00    0    1.10e+00
2004 11 15  1910    53324   69000      0    4.69e+00    0    1.07e+00
2004 11 15  1915    53324   69300      0    4.61e+00    0    1.07e+00
2004 11 15  1920    53324   69600      0    4.72e+00    0    1.09e+00
2004 11 15  1925    53324   69900      0    4.67e+00    0    1.08e+00
2004 11 15  1930    53324   70200      0    4.66e+00    0    1.07e+00
2004 11 15  1935    53324   70500      0    4.59e+00    0    1.12e+00
2004 11 15  1940    53324   70800      0    4.57e+00    0    1.06e+00
2004 11 15  1945    53324   71100      0    4.64e+00    0    1.08e+00
2004 11 15  1950    53324   71400      0    4.55e+00    0    1.05e+00
2004 11 15  1955    53324   71700      0    4.55e+00    0    1.08e+00
2004 11 15  2000    53324   72000      0    4.56e+00    0    1.10e+00
2004 11 15  2005    53324   72300      0    4.52e+00    0    1.06e+00
2004 11 15  2010    53324   72600      0    4.48e+00    0    1.04e+00
2004 11 15  2015    53324   72900      0    4.46e+00    0    1.07e+00
2004 11 15  2020    53324   73200      0    4.52e+00    0    1.08e+00
2004 11 15  2025    53324   73500      0    4.53e+00    0    1.06e+00
2004 11 15  2030    53324   73800      0    4.54e+00    0    1.08e+00
2004 11 15  2035    53324   74100      0    4.49e+00    0    1.06e+00
2004 11 15  2040    53324   74400      0    4.56e+00    0    1.08e+00
2004 11 15  2045    53324   74700      0    4.49e+00    0    1.06e+00
2004 11 15  2050    53324   75000      0    4.58e+00    0    1.09e+00
2004 11 15  2055    53324   75300      0    4.50e+00    0    1.03e+00
2004 11 15  2100    53324   75600      0    4.48e+00    0    1.07e+00
2004 11 15  2105    53324   75900      0    4.60e+00    0    1.07e+00
2004 11 15  2110    53324   76200      0    4.55e+00    0    1.05e+00
2004 11 15  2115    53324   76500      0    4.61e+00    0    1.08e+00
2004 11 15  2120    53324   76800      0    4.48e+00    0    1.07e+00
2004 11 15  2125    53324   77100      0    4.51e+00    0    1.06e+00
2004 11 15  2130    53324   77400      0    4.47e+00    0    1.08e+00
2004 11 15  2135    53324   77700      0    4.49e+00    0    1.08e+00
2004 11 15  2140    53324   78000      0    4.51e+00    0    1.09e+00
2004 11 15  2145    53324   78300      0    4.48e+00    0    1.04e+00
2004 11 15  2150    53324   78600      0    4.49e+00    0    1.07e+00
2004 11 15  2155    53324   78900      0    4.58e+00    0    1.07e+00
2004 11 15  2200    53324   79200      0    4.59e+00    0    1.11e+00
2004 11 15  2205    53324   79500      0    4.52e+00    0    1.04e+00
2004 11 15  2210    53324   79800      0    4.58e+00    0    1.12e+00
2004 11 15  2215    53324   80100      0    4.45e+00    0    1.05e+00
2004 11 15  2220    53324   80400      0    4.48e+00    0    1.08e+00
2004 11 15  2225    53324   80700      0    4.52e+00    0    1.07e+00
2004 11 15  2230    53324   81000      0    4.70e+00    0    1.12e+00
2004 11 15  2235    53324   81300      0    4.74e+00    0    1.11e+00
2004 11 15  2240    53324   81600      0    4.84e+00    0    1.08e+00
2004 11 15  2245    53324   81900      0    4.82e+00    0    1.14e+00
2004 11 15  2250    53324   82200      0    4.69e+00    0    1.05e+00
2004 11 15  2255    53324   82500      0    4.87e+00    0    1.06e+00
2004 11 15  2300    53324   82800      0    4.85e+00    0    1.09e+00
2004 11 15  2305    53324   83100      0    4.95e+00    0    1.11e+00
2004 11 15  2310    53324   83400      0    4.89e+00    0    1.10e+00
2004 11 15  2315    53324   83700      0    4.94e+00    0    1.09e+00
2004 11 15  2320    53324   84000      0    4.93e+00    0    1.10e+00
2004 11 15  2325    53324   84300      0    4.93e+00    0    1.08e+00
2004 11 15  2330    53324   84600      0    4.93e+00    0    1.09e+00
2004 11 15  2335    53324   84900      0    4.93e+00    0    1.10e+00
2004 11 15  2340    53324   85200      0    4.82e+00    0    1.08e+00
2004 11 15  2345    53324   85500      0    4.74e+00    0    1.09e+00
2004 11 15  2350    53324   85800      0    4.68e+00    0    1.10e+00
2004 11 15  2355    53324   86100      0    4.72e+00    0    1.03e+00
