:Data_list: 20041109_ace_sis_5m.txt
:Created: 2004 Nov 10 0011 UT
# Prepared by the U.S. Dept. of Commerce, NOAA, Space Environment Center.
# Please send comments and suggestions to SEC.Webmaster@noaa.gov 
# 
# Units: proton flux p/cs2-sec-ster
# Status(S): 0 = nominal data, 1 to 8 = bad data record, 9 = no data
# Missing data values: -1.00e+05
# Source: ACE Satellite - Solar Isotope Spectrometer
#
# 5-minute averaged Real-time Integral Flux of High-energy Solar Protons
# 
#                 Modified Seconds
# UT Date   Time   Julian  of the      ---- Integral Proton Flux ----
# YR MO DA  HHMM     Day     Day       S    > 10 MeV    S    > 30 MeV
#--------------------------------------------------------------------
2004 11 09  0000    53318       0      0    6.61e+01    0    3.26e+00
2004 11 09  0005    53318     300      0    6.48e+01    0    2.96e+00
2004 11 09  0010    53318     600      0    6.62e+01    0    2.93e+00
2004 11 09  0015    53318     900      0    7.03e+01    0    3.06e+00
2004 11 09  0020    53318    1200      0    7.25e+01    0    2.69e+00
2004 11 09  0025    53318    1500      0    7.21e+01    0    3.50e+00
2004 11 09  0030    53318    1800      0    6.68e+01    0    2.92e+00
2004 11 09  0035    53318    2100      0    6.36e+01    0    2.88e+00
2004 11 09  0040    53318    2400      0    7.89e+01    0    3.34e+00
2004 11 09  0045    53318    2700      0    8.27e+01    0    3.92e+00
2004 11 09  0050    53318    3000      0    7.97e+01    0    4.04e+00
2004 11 09  0055    53318    3300      0    7.67e+01    0    3.46e+00
2004 11 09  0100    53318    3600      0    7.25e+01    0    3.07e+00
2004 11 09  0105    53318    3900      0    7.56e+01    0    3.51e+00
2004 11 09  0110    53318    4200      0    7.48e+01    0    3.55e+00
2004 11 09  0115    53318    4500      0    7.13e+01    0    3.34e+00
2004 11 09  0120    53318    4800      0    7.14e+01    0    2.62e+00
2004 11 09  0125    53318    5100      0    6.69e+01    0    2.66e+00
2004 11 09  0130    53318    5400      0    6.05e+01    0    3.00e+00
2004 11 09  0135    53318    5700      0    5.84e+01    0    2.54e+00
2004 11 09  0140    53318    6000      0    5.25e+01    0    2.32e+00
2004 11 09  0145    53318    6300      0    5.46e+01    0    2.62e+00
2004 11 09  0150    53318    6600      0    5.66e+01    0    2.71e+00
2004 11 09  0155    53318    6900      0    5.67e+01    0    2.76e+00
2004 11 09  0200    53318    7200      0    5.56e+01    0    2.51e+00
2004 11 09  0205    53318    7500      0    5.49e+01    0    2.45e+00
2004 11 09  0210    53318    7800      0    5.36e+01    0    2.66e+00
2004 11 09  0215    53318    8100      0    5.42e+01    0    2.50e+00
2004 11 09  0220    53318    8400      0    5.20e+01    0    2.42e+00
2004 11 09  0225    53318    8700      0    5.48e+01    0    2.94e+00
2004 11 09  0230    53318    9000      0    5.58e+01    0    2.65e+00
2004 11 09  0235    53318    9300      0    5.53e+01    0    2.67e+00
2004 11 09  0240    53318    9600      0    5.29e+01    0    2.52e+00
2004 11 09  0245    53318    9900      0    5.42e+01    0    2.42e+00
2004 11 09  0250    53318   10200      0    6.03e+01    0    2.52e+00
2004 11 09  0255    53318   10500      0    7.70e+01    0    3.35e+00
2004 11 09  0300    53318   10800      0    7.33e+01    0    3.46e+00
2004 11 09  0305    53318   11100      0    7.83e+01    0    3.06e+00
2004 11 09  0310    53318   11400      0    7.42e+01    0    3.00e+00
2004 11 09  0315    53318   11700      0    6.57e+01    0    2.93e+00
2004 11 09  0320    53318   12000      0    6.83e+01    0    3.03e+00
2004 11 09  0325    53318   12300      0    6.73e+01    0    2.87e+00
2004 11 09  0330    53318   12600      0    6.07e+01    0    2.82e+00
2004 11 09  0335    53318   12900      0    5.90e+01    0    2.64e+00
2004 11 09  0340    53318   13200      0    5.95e+01    0    2.80e+00
2004 11 09  0345    53318   13500      0    5.74e+01    0    2.72e+00
2004 11 09  0350    53318   13800      0    5.80e+01    0    2.60e+00
2004 11 09  0355    53318   14100      0    5.92e+01    0    2.63e+00
2004 11 09  0400    53318   14400      0    6.53e+01    0    2.74e+00
2004 11 09  0405    53318   14700      0    6.84e+01    0    2.92e+00
2004 11 09  0410    53318   15000      0    6.42e+01    0    2.50e+00
2004 11 09  0415    53318   15300      0    6.49e+01    0    3.29e+00
2004 11 09  0420    53318   15600      0    6.28e+01    0    2.30e+00
2004 11 09  0425    53318   15900      0    6.34e+01    0    2.89e+00
2004 11 09  0430    53318   16200      0    6.32e+01    0    2.66e+00
2004 11 09  0435    53318   16500      0    6.02e+01    0    2.61e+00
2004 11 09  0440    53318   16800      0    5.69e+01    0    2.71e+00
2004 11 09  0445    53318   17100      0    5.70e+01    0    2.32e+00
2004 11 09  0450    53318   17400      0    5.68e+01    0    2.47e+00
2004 11 09  0455    53318   17700      0    5.39e+01    0    2.44e+00
2004 11 09  0500    53318   18000      0    5.21e+01    0    2.70e+00
2004 11 09  0505    53318   18300      0    5.25e+01    0    2.70e+00
2004 11 09  0510    53318   18600      0    5.20e+01    0    2.24e+00
2004 11 09  0515    53318   18900      0    5.33e+01    0    2.35e+00
2004 11 09  0520    53318   19200      0    5.70e+01    0    2.49e+00
2004 11 09  0525    53318   19500      0    5.71e+01    0    2.65e+00
2004 11 09  0530    53318   19800      0    5.59e+01    0    2.52e+00
2004 11 09  0535    53318   20100      0    5.56e+01    0    2.23e+00
2004 11 09  0540    53318   20400      0    5.28e+01    0    2.09e+00
2004 11 09  0545    53318   20700      0    5.26e+01    0    2.48e+00
2004 11 09  0550    53318   21000      0    5.23e+01    0    2.44e+00
2004 11 09  0555    53318   21300      0    5.23e+01    0    2.27e+00
2004 11 09  0600    53318   21600      0    5.10e+01    0    2.84e+00
2004 11 09  0605    53318   21900      0    5.11e+01    0    2.53e+00
2004 11 09  0610    53318   22200      0    4.94e+01    0    2.35e+00
2004 11 09  0615    53318   22500      0    5.07e+01    0    2.23e+00
2004 11 09  0620    53318   22800      0    5.16e+01    0    2.26e+00
2004 11 09  0625    53318   23100      0    4.97e+01    0    2.31e+00
2004 11 09  0630    53318   23400      0    5.01e+01    0    2.00e+00
2004 11 09  0635    53318   23700      0    5.26e+01    0    2.43e+00
2004 11 09  0640    53318   24000      0    5.24e+01    0    2.48e+00
2004 11 09  0645    53318   24300      0    5.29e+01    0    2.43e+00
2004 11 09  0650    53318   24600      0    5.26e+01    0    2.53e+00
2004 11 09  0655    53318   24900      0    5.22e+01    0    2.58e+00
2004 11 09  0700    53318   25200      0    4.81e+01    0    2.06e+00
2004 11 09  0705    53318   25500      0    4.63e+01    0    2.20e+00
2004 11 09  0710    53318   25800      0    4.59e+01    0    2.17e+00
2004 11 09  0715    53318   26100      0    4.14e+01    0    2.07e+00
2004 11 09  0720    53318   26400      0    4.05e+01    0    2.15e+00
2004 11 09  0725    53318   26700      0    4.39e+01    0    2.12e+00
2004 11 09  0730    53318   27000      0    4.34e+01    0    2.14e+00
2004 11 09  0735    53318   27300      0    4.46e+01    0    2.56e+00
2004 11 09  0740    53318   27600      9   -1.00e+05    9   -1.00e+05
2004 11 09  0745    53318   27900      9   -1.00e+05    9   -1.00e+05
2004 11 09  0750    53318   28200      9   -1.00e+05    9   -1.00e+05
2004 11 09  0755    53318   28500      9   -1.00e+05    9   -1.00e+05
2004 11 09  0800    53318   28800      9   -1.00e+05    9   -1.00e+05
2004 11 09  0805    53318   29100      0    4.00e+01    0    2.51e+00
2004 11 09  0810    53318   29400      0    4.33e+01    0    2.30e+00
2004 11 09  0815    53318   29700      0    4.28e+01    0    2.52e+00
2004 11 09  0820    53318   30000      0    4.30e+01    0    2.58e+00
2004 11 09  0825    53318   30300      0    4.48e+01    0    2.46e+00
2004 11 09  0830    53318   30600      0    4.48e+01    0    2.32e+00
2004 11 09  0835    53318   30900      0    4.64e+01    0    2.34e+00
2004 11 09  0840    53318   31200      0    4.68e+01    0    2.48e+00
2004 11 09  0845    53318   31500      0    4.67e+01    0    2.79e+00
2004 11 09  0850    53318   31800      0    4.65e+01    0    2.57e+00
2004 11 09  0855    53318   32100      0    4.52e+01    0    2.62e+00
2004 11 09  0900    53318   32400      0    4.44e+01    0    2.27e+00
2004 11 09  0905    53318   32700      0    4.44e+01    0    2.40e+00
2004 11 09  0910    53318   33000      0    4.35e+01    0    2.34e+00
2004 11 09  0915    53318   33300      0    4.18e+01    0    2.42e+00
2004 11 09  0920    53318   33600      0    4.22e+01    0    2.20e+00
2004 11 09  0925    53318   33900      0    3.94e+01    0    2.01e+00
2004 11 09  0930    53318   34200      0    3.95e+01    0    2.19e+00
2004 11 09  0935    53318   34500      0    3.67e+01    0    1.81e+00
2004 11 09  0940    53318   34800      0    3.64e+01    0    1.80e+00
2004 11 09  0945    53318   35100      0    3.69e+01    0    1.75e+00
2004 11 09  0950    53318   35400      0    3.80e+01    0    1.88e+00
2004 11 09  0955    53318   35700      0    4.09e+01    0    1.90e+00
2004 11 09  1000    53318   36000      0    4.09e+01    0    2.26e+00
2004 11 09  1005    53318   36300      0    3.81e+01    0    2.32e+00
2004 11 09  1010    53318   36600      0    3.93e+01    0    1.89e+00
2004 11 09  1015    53318   36900      0    4.27e+01    0    2.09e+00
2004 11 09  1020    53318   37200      0    4.40e+01    0    2.08e+00
2004 11 09  1025    53318   37500      0    5.02e+01    0    2.54e+00
2004 11 09  1030    53318   37800      0    5.19e+01    0    2.29e+00
2004 11 09  1035    53318   38100      0    5.44e+01    0    1.82e+00
2004 11 09  1040    53318   38400      0    5.79e+01    0    2.40e+00
2004 11 09  1045    53318   38700      0    5.13e+01    0    2.27e+00
2004 11 09  1050    53318   39000      0    5.20e+01    0    2.51e+00
2004 11 09  1055    53318   39300      0    5.87e+01    0    2.65e+00
2004 11 09  1100    53318   39600      0    5.90e+01    0    2.36e+00
2004 11 09  1105    53318   39900      0    5.59e+01    0    2.30e+00
2004 11 09  1110    53318   40200      0    5.15e+01    0    2.51e+00
2004 11 09  1115    53318   40500      0    5.27e+01    0    2.46e+00
2004 11 09  1120    53318   40800      0    5.06e+01    0    2.29e+00
2004 11 09  1125    53318   41100      0    5.03e+01    0    2.28e+00
2004 11 09  1130    53318   41400      0    5.25e+01    0    2.25e+00
2004 11 09  1135    53318   41700      0    5.06e+01    0    2.38e+00
2004 11 09  1140    53318   42000      0    4.41e+01    0    2.31e+00
2004 11 09  1145    53318   42300      0    4.21e+01    0    1.87e+00
2004 11 09  1150    53318   42600      0    4.04e+01    0    2.08e+00
2004 11 09  1155    53318   42900      0    4.27e+01    0    2.09e+00
2004 11 09  1200    53318   43200      0    4.31e+01    0    2.04e+00
2004 11 09  1205    53318   43500      0    4.08e+01    0    2.26e+00
2004 11 09  1210    53318   43800      0    4.22e+01    0    2.09e+00
2004 11 09  1215    53318   44100      0    4.13e+01    0    2.17e+00
2004 11 09  1220    53318   44400      0    4.17e+01    0    1.99e+00
2004 11 09  1225    53318   44700      0    4.25e+01    0    2.02e+00
2004 11 09  1230    53318   45000      0    4.23e+01    0    2.13e+00
2004 11 09  1235    53318   45300      0    4.25e+01    0    2.10e+00
2004 11 09  1240    53318   45600      0    4.35e+01    0    2.16e+00
2004 11 09  1245    53318   45900      0    4.27e+01    0    1.93e+00
2004 11 09  1250    53318   46200      0    3.85e+01    0    2.41e+00
2004 11 09  1255    53318   46500      0    4.17e+01    0    2.18e+00
2004 11 09  1300    53318   46800      0    3.93e+01    0    1.97e+00
2004 11 09  1305    53318   47100      0    3.64e+01    0    1.91e+00
2004 11 09  1310    53318   47400      0    3.98e+01    0    2.02e+00
2004 11 09  1315    53318   47700      0    3.93e+01    0    2.07e+00
2004 11 09  1320    53318   48000      0    4.16e+01    0    2.10e+00
2004 11 09  1325    53318   48300      0    4.60e+01    0    2.40e+00
2004 11 09  1330    53318   48600      0    4.43e+01    0    2.21e+00
2004 11 09  1335    53318   48900      0    4.69e+01    0    2.03e+00
2004 11 09  1340    53318   49200      0    4.80e+01    0    2.43e+00
2004 11 09  1345    53318   49500      0    4.63e+01    0    2.21e+00
2004 11 09  1350    53318   49800      0    4.36e+01    0    2.26e+00
2004 11 09  1355    53318   50100      0    4.23e+01    0    2.01e+00
2004 11 09  1400    53318   50400      0    3.77e+01    0    1.96e+00
2004 11 09  1405    53318   50700      0    3.89e+01    0    2.03e+00
2004 11 09  1410    53318   51000      0    4.20e+01    0    1.98e+00
2004 11 09  1415    53318   51300      0    4.48e+01    0    2.23e+00
2004 11 09  1420    53318   51600      0    4.26e+01    0    2.03e+00
2004 11 09  1425    53318   51900      0    4.17e+01    0    2.16e+00
2004 11 09  1430    53318   52200      0    3.91e+01    0    2.14e+00
2004 11 09  1435    53318   52500      0    4.06e+01    0    2.07e+00
2004 11 09  1440    53318   52800      0    4.05e+01    0    2.09e+00
2004 11 09  1445    53318   53100      0    3.79e+01    0    1.95e+00
2004 11 09  1450    53318   53400      0    3.86e+01    0    1.95e+00
2004 11 09  1455    53318   53700      0    3.70e+01    0    1.87e+00
2004 11 09  1500    53318   54000      0    3.28e+01    0    1.68e+00
2004 11 09  1505    53318   54300      0    3.26e+01    0    1.90e+00
2004 11 09  1510    53318   54600      0    3.20e+01    0    1.74e+00
2004 11 09  1515    53318   54900      0    3.08e+01    0    1.79e+00
2004 11 09  1520    53318   55200      0    3.01e+01    0    1.67e+00
2004 11 09  1525    53318   55500      0    2.89e+01    0    1.78e+00
2004 11 09  1530    53318   55800      0    2.99e+01    0    1.78e+00
2004 11 09  1535    53318   56100      0    2.72e+01    0    1.65e+00
2004 11 09  1540    53318   56400      0    2.83e+01    0    1.83e+00
2004 11 09  1545    53318   56700      0    2.71e+01    0    1.94e+00
2004 11 09  1550    53318   57000      0    2.63e+01    0    1.59e+00
2004 11 09  1555    53318   57300      0    2.66e+01    0    1.71e+00
2004 11 09  1600    53318   57600      0    2.63e+01    0    1.82e+00
2004 11 09  1605    53318   57900      0    2.72e+01    0    1.83e+00
2004 11 09  1610    53318   58200      0    3.15e+01    0    1.78e+00
2004 11 09  1615    53318   58500      0    3.16e+01    0    1.91e+00
2004 11 09  1620    53318   58800      0    3.15e+01    0    1.72e+00
2004 11 09  1625    53318   59100      0    3.21e+01    0    1.95e+00
2004 11 09  1630    53318   59400      0    2.92e+01    0    1.78e+00
2004 11 09  1635    53318   59700      0    3.16e+01    0    1.84e+00
2004 11 09  1640    53318   60000      0    3.19e+01    0    1.67e+00
2004 11 09  1645    53318   60300      0    3.38e+01    0    2.09e+00
2004 11 09  1650    53318   60600      0    3.18e+01    0    1.96e+00
2004 11 09  1655    53318   60900      0    3.27e+01    0    2.06e+00
2004 11 09  1700    53318   61200      0    3.34e+01    0    2.02e+00
2004 11 09  1705    53318   61500      0    3.24e+01    0    1.75e+00
2004 11 09  1710    53318   61800      0    3.35e+01    0    2.18e+00
2004 11 09  1715    53318   62100      0    3.31e+01    0    1.87e+00
2004 11 09  1720    53318   62400      0    3.16e+01    0    2.05e+00
2004 11 09  1725    53318   62700      0    3.18e+01    0    2.17e+00
2004 11 09  1730    53318   63000      0    3.17e+01    0    1.75e+00
2004 11 09  1735    53318   63300      0    3.00e+01    0    1.80e+00
2004 11 09  1740    53318   63600      0    3.14e+01    0    1.94e+00
2004 11 09  1745    53318   63900      0    3.29e+01    0    1.97e+00
2004 11 09  1750    53318   64200      0    3.31e+01    0    1.78e+00
2004 11 09  1755    53318   64500      0    3.42e+01    0    2.11e+00
2004 11 09  1800    53318   64800      0    3.47e+01    0    2.21e+00
2004 11 09  1805    53318   65100      0    3.40e+01    0    2.21e+00
2004 11 09  1810    53318   65400      0    3.34e+01    0    1.88e+00
2004 11 09  1815    53318   65700      0    3.28e+01    0    1.80e+00
2004 11 09  1820    53318   66000      0    3.22e+01    0    1.84e+00
2004 11 09  1825    53318   66300      0    3.38e+01    0    1.91e+00
2004 11 09  1830    53318   66600      0    3.27e+01    0    2.06e+00
2004 11 09  1835    53318   66900      0    2.76e+01    0    1.83e+00
2004 11 09  1840    53318   67200      0    2.81e+01    0    1.90e+00
2004 11 09  1845    53318   67500      0    3.17e+01    0    1.90e+00
2004 11 09  1850    53318   67800      0    2.78e+01    0    1.82e+00
2004 11 09  1855    53318   68100      0    2.58e+01    0    1.87e+00
2004 11 09  1900    53318   68400      0    2.49e+01    0    1.85e+00
2004 11 09  1905    53318   68700      0    2.53e+01    0    2.08e+00
2004 11 09  1910    53318   69000      0    2.69e+01    0    2.05e+00
2004 11 09  1915    53318   69300      0    2.65e+01    0    2.32e+00
2004 11 09  1920    53318   69600      0    2.42e+01    0    2.23e+00
2004 11 09  1925    53318   69900      0    2.31e+01    0    2.31e+00
2004 11 09  1930    53318   70200      0    2.40e+01    0    2.87e+00
2004 11 09  1935    53318   70500      0    2.40e+01    0    3.40e+00
2004 11 09  1940    53318   70800      0    2.52e+01    0    3.57e+00
2004 11 09  1945    53318   71100      0    2.72e+01    0    3.68e+00
2004 11 09  1950    53318   71400      0    2.81e+01    0    3.87e+00
2004 11 09  1955    53318   71700      0    2.74e+01    0    3.36e+00
2004 11 09  2000    53318   72000      0    2.78e+01    0    4.04e+00
2004 11 09  2005    53318   72300      0    3.74e+01    0    5.61e+00
2004 11 09  2010    53318   72600      0    5.41e+01    0    6.89e+00
2004 11 09  2015    53318   72900      0    6.23e+01    0    6.31e+00
2004 11 09  2020    53318   73200      0    6.06e+01    0    6.46e+00
2004 11 09  2025    53318   73500      0    7.23e+01    0    5.99e+00
2004 11 09  2030    53318   73800      0    7.85e+01    0    5.26e+00
2004 11 09  2035    53318   74100      0    1.18e+02    0    7.38e+00
2004 11 09  2040    53318   74400      0    1.00e+02    0    9.13e+00
2004 11 09  2045    53318   74700      0    9.83e+01    0    7.59e+00
2004 11 09  2050    53318   75000      0    1.06e+02    0    7.31e+00
2004 11 09  2055    53318   75300      0    9.56e+01    0    6.83e+00
2004 11 09  2100    53318   75600      0    9.20e+01    0    6.80e+00
2004 11 09  2105    53318   75900      0    8.64e+01    0    6.30e+00
2004 11 09  2110    53318   76200      0    6.05e+01    0    5.54e+00
2004 11 09  2115    53318   76500      0    4.80e+01    0    5.42e+00
2004 11 09  2120    53318   76800      0    6.80e+01    0    6.33e+00
2004 11 09  2125    53318   77100      0    6.22e+01    0    5.45e+00
2004 11 09  2130    53318   77400      0    5.08e+01    0    4.71e+00
2004 11 09  2135    53318   77700      0    5.26e+01    0    4.94e+00
2004 11 09  2140    53318   78000      0    6.15e+01    0    5.40e+00
2004 11 09  2145    53318   78300      0    1.13e+02    0    7.11e+00
2004 11 09  2150    53318   78600      0    1.18e+02    0    6.60e+00
2004 11 09  2155    53318   78900      0    7.77e+01    0    5.74e+00
2004 11 09  2200    53318   79200      0    5.80e+01    0    5.17e+00
2004 11 09  2205    53318   79500      0    5.43e+01    0    5.13e+00
2004 11 09  2210    53318   79800      0    4.45e+01    0    4.82e+00
2004 11 09  2215    53318   80100      0    4.29e+01    0    4.52e+00
2004 11 09  2220    53318   80400      0    4.67e+01    0    4.35e+00
2004 11 09  2225    53318   80700      0    4.60e+01    0    4.27e+00
2004 11 09  2230    53318   81000      0    4.32e+01    0    4.17e+00
2004 11 09  2235    53318   81300      0    4.04e+01    0    4.18e+00
2004 11 09  2240    53318   81600      0    4.19e+01    0    3.84e+00
2004 11 09  2245    53318   81900      0    4.17e+01    0    3.80e+00
2004 11 09  2250    53318   82200      0    3.93e+01    0    3.82e+00
2004 11 09  2255    53318   82500      0    3.76e+01    0    3.51e+00
2004 11 09  2300    53318   82800      0    3.65e+01    0    3.48e+00
2004 11 09  2305    53318   83100      0    4.50e+01    0    3.73e+00
2004 11 09  2310    53318   83400      0    4.75e+01    0    3.50e+00
2004 11 09  2315    53318   83700      0    5.28e+01    0    3.88e+00
2004 11 09  2320    53318   84000      0    5.48e+01    0    3.69e+00
2004 11 09  2325    53318   84300      0    4.06e+01    0    3.67e+00
2004 11 09  2330    53318   84600      0    4.05e+01    0    3.41e+00
2004 11 09  2335    53318   84900      0    4.45e+01    0    3.36e+00
2004 11 09  2340    53318   85200      0    4.41e+01    0    3.53e+00
2004 11 09  2345    53318   85500      0    5.47e+01    0    3.77e+00
2004 11 09  2350    53318   85800      0    5.21e+01    0    3.36e+00
2004 11 09  2355    53318   86100      0    4.79e+01    0    3.45e+00
