:Data_list: 20041003_ace_sis_5m.txt
:Created: 2004 Oct 04 0011 UT
# Prepared by the U.S. Dept. of Commerce, NOAA, Space Environment Center.
# Please send comments and suggestions to SEC.Webmaster@noaa.gov 
# 
# Units: proton flux p/cs2-sec-ster
# Status(S): 0 = nominal data, 1 to 8 = bad data record, 9 = no data
# Missing data values: -1.00e+05
# Source: ACE Satellite - Solar Isotope Spectrometer
#
# 5-minute averaged Real-time Integral Flux of High-energy Solar Protons
# 
#                 Modified Seconds
# UT Date   Time   Julian  of the      ---- Integral Proton Flux ----
# YR MO DA  HHMM     Day     Day       S    > 10 MeV    S    > 30 MeV
#--------------------------------------------------------------------
2004 10 03  0000    53281       0      0    1.13e+00    0    7.94e-01
2004 10 03  0005    53281     300      0    1.12e+00    0    7.89e-01
2004 10 03  0010    53281     600      0    1.16e+00    0    8.19e-01
2004 10 03  0015    53281     900      0    1.13e+00    0    7.97e-01
2004 10 03  0020    53281    1200      0    1.14e+00    0    8.04e-01
2004 10 03  0025    53281    1500      0    1.15e+00    0    7.99e-01
2004 10 03  0030    53281    1800      0    1.14e+00    0    8.13e-01
2004 10 03  0035    53281    2100      0    1.11e+00    0    7.90e-01
2004 10 03  0040    53281    2400      0    1.16e+00    0    8.13e-01
2004 10 03  0045    53281    2700      0    1.14e+00    0    8.01e-01
2004 10 03  0050    53281    3000      0    1.13e+00    0    7.92e-01
2004 10 03  0055    53281    3300      0    1.13e+00    0    7.92e-01
2004 10 03  0100    53281    3600      0    1.14e+00    0    8.00e-01
2004 10 03  0105    53281    3900      0    1.14e+00    0    7.87e-01
2004 10 03  0110    53281    4200      0    1.16e+00    0    8.20e-01
2004 10 03  0115    53281    4500      0    1.13e+00    0    7.89e-01
2004 10 03  0120    53281    4800      0    1.16e+00    0    8.07e-01
2004 10 03  0125    53281    5100      0    1.12e+00    0    7.86e-01
2004 10 03  0130    53281    5400      0    1.16e+00    0    8.17e-01
2004 10 03  0135    53281    5700      0    1.13e+00    0    7.93e-01
2004 10 03  0140    53281    6000      0    1.14e+00    0    8.02e-01
2004 10 03  0145    53281    6300      0    1.17e+00    0    8.27e-01
2004 10 03  0150    53281    6600      0    1.16e+00    0    8.04e-01
2004 10 03  0155    53281    6900      0    1.14e+00    0    7.93e-01
2004 10 03  0200    53281    7200      0    1.12e+00    0    7.88e-01
2004 10 03  0205    53281    7500      0    1.15e+00    0    8.06e-01
2004 10 03  0210    53281    7800      0    1.15e+00    0    8.23e-01
2004 10 03  0215    53281    8100      0    1.16e+00    0    8.16e-01
2004 10 03  0220    53281    8400      0    1.16e+00    0    8.20e-01
2004 10 03  0225    53281    8700      0    1.17e+00    0    8.16e-01
2004 10 03  0230    53281    9000      0    1.12e+00    0    7.89e-01
2004 10 03  0235    53281    9300      0    1.17e+00    0    8.29e-01
2004 10 03  0240    53281    9600      0    1.15e+00    0    8.01e-01
2004 10 03  0245    53281    9900      0    1.16e+00    0    8.18e-01
2004 10 03  0250    53281   10200      0    1.13e+00    0    7.91e-01
2004 10 03  0255    53281   10500      0    1.15e+00    0    8.07e-01
2004 10 03  0300    53281   10800      0    1.13e+00    0    7.86e-01
2004 10 03  0305    53281   11100      0    1.12e+00    0    7.80e-01
2004 10 03  0310    53281   11400      0    1.16e+00    0    8.14e-01
2004 10 03  0315    53281   11700      0    1.12e+00    0    7.85e-01
2004 10 03  0320    53281   12000      0    1.13e+00    0    7.90e-01
2004 10 03  0325    53281   12300      0    1.13e+00    0    7.93e-01
2004 10 03  0330    53281   12600      0    1.14e+00    0    8.07e-01
2004 10 03  0335    53281   12900      0    1.15e+00    0    8.11e-01
2004 10 03  0340    53281   13200      0    1.12e+00    0    7.78e-01
2004 10 03  0345    53281   13500      0    1.16e+00    0    8.14e-01
2004 10 03  0350    53281   13800      0    1.16e+00    0    8.06e-01
2004 10 03  0355    53281   14100      0    1.16e+00    0    8.23e-01
2004 10 03  0400    53281   14400      0    1.13e+00    0    7.96e-01
2004 10 03  0405    53281   14700      0    1.16e+00    0    8.07e-01
2004 10 03  0410    53281   15000      0    1.16e+00    0    8.19e-01
2004 10 03  0415    53281   15300      0    1.16e+00    0    8.11e-01
2004 10 03  0420    53281   15600      0    1.12e+00    0    7.94e-01
2004 10 03  0425    53281   15900      0    1.16e+00    0    8.17e-01
2004 10 03  0430    53281   16200      0    1.15e+00    0    8.12e-01
2004 10 03  0435    53281   16500      0    1.12e+00    0    7.88e-01
2004 10 03  0440    53281   16800      0    1.17e+00    0    8.32e-01
2004 10 03  0445    53281   17100      0    1.15e+00    0    8.17e-01
2004 10 03  0450    53281   17400      0    1.14e+00    0    8.06e-01
2004 10 03  0455    53281   17700      0    1.12e+00    0    7.82e-01
2004 10 03  0500    53281   18000      0    1.12e+00    0    7.91e-01
2004 10 03  0505    53281   18300      0    1.14e+00    0    8.06e-01
2004 10 03  0510    53281   18600      0    1.13e+00    0    7.99e-01
2004 10 03  0515    53281   18900      0    1.13e+00    0    7.90e-01
2004 10 03  0520    53281   19200      0    1.16e+00    0    8.27e-01
2004 10 03  0525    53281   19500      0    1.15e+00    0    8.00e-01
2004 10 03  0530    53281   19800      0    1.13e+00    0    7.92e-01
2004 10 03  0535    53281   20100      0    1.16e+00    0    8.03e-01
2004 10 03  0540    53281   20400      0    1.13e+00    0    8.02e-01
2004 10 03  0545    53281   20700      0    1.13e+00    0    7.89e-01
2004 10 03  0550    53281   21000      0    1.14e+00    0    7.92e-01
2004 10 03  0555    53281   21300      0    1.15e+00    0    8.12e-01
2004 10 03  0600    53281   21600      0    1.15e+00    0    7.96e-01
2004 10 03  0605    53281   21900      0    1.15e+00    0    8.01e-01
2004 10 03  0610    53281   22200      0    1.14e+00    0    8.07e-01
2004 10 03  0615    53281   22500      0    1.13e+00    0    7.88e-01
2004 10 03  0620    53281   22800      0    1.14e+00    0    7.97e-01
2004 10 03  0625    53281   23100      0    1.11e+00    0    7.86e-01
2004 10 03  0630    53281   23400      0    1.17e+00    0    8.27e-01
2004 10 03  0635    53281   23700      0    1.15e+00    0    8.08e-01
2004 10 03  0640    53281   24000      0    1.13e+00    0    7.91e-01
2004 10 03  0645    53281   24300      0    1.14e+00    0    7.97e-01
2004 10 03  0650    53281   24600      0    1.12e+00    0    7.96e-01
2004 10 03  0655    53281   24900      0    1.16e+00    0    8.16e-01
2004 10 03  0700    53281   25200      0    1.14e+00    0    7.96e-01
2004 10 03  0705    53281   25500      0    1.15e+00    0    8.20e-01
2004 10 03  0710    53281   25800      0    1.14e+00    0    8.08e-01
2004 10 03  0715    53281   26100      0    1.17e+00    0    8.30e-01
2004 10 03  0720    53281   26400      0    1.12e+00    0    7.82e-01
2004 10 03  0725    53281   26700      0    1.14e+00    0    7.98e-01
2004 10 03  0730    53281   27000      0    1.16e+00    0    8.29e-01
2004 10 03  0735    53281   27300      0    1.14e+00    0    7.94e-01
2004 10 03  0740    53281   27600      0    1.18e+00    0    8.34e-01
2004 10 03  0745    53281   27900      0    1.13e+00    0    7.98e-01
2004 10 03  0750    53281   28200      0    1.14e+00    0    8.02e-01
2004 10 03  0755    53281   28500      0    1.14e+00    0    7.97e-01
2004 10 03  0800    53281   28800      0    1.11e+00    0    7.74e-01
2004 10 03  0805    53281   29100      0    1.16e+00    0    8.15e-01
2004 10 03  0810    53281   29400      0    1.14e+00    0    8.03e-01
2004 10 03  0815    53281   29700      0    1.16e+00    0    8.14e-01
2004 10 03  0820    53281   30000      0    1.15e+00    0    8.01e-01
2004 10 03  0825    53281   30300      0    1.13e+00    0    7.90e-01
2004 10 03  0830    53281   30600      0    1.15e+00    0    8.12e-01
2004 10 03  0835    53281   30900      0    1.11e+00    0    7.78e-01
2004 10 03  0840    53281   31200      0    1.16e+00    0    8.11e-01
2004 10 03  0845    53281   31500      0    1.14e+00    0    7.98e-01
2004 10 03  0850    53281   31800      0    1.13e+00    0    8.00e-01
2004 10 03  0855    53281   32100      0    1.14e+00    0    8.01e-01
2004 10 03  0900    53281   32400      0    1.15e+00    0    8.01e-01
2004 10 03  0905    53281   32700      0    1.15e+00    0    8.03e-01
2004 10 03  0910    53281   33000      0    1.13e+00    0    7.84e-01
2004 10 03  0915    53281   33300      0    1.19e+00    0    8.41e-01
2004 10 03  0920    53281   33600      0    1.14e+00    0    8.11e-01
2004 10 03  0925    53281   33900      0    1.14e+00    0    8.14e-01
2004 10 03  0930    53281   34200      0    1.13e+00    0    7.97e-01
2004 10 03  0935    53281   34500      0    1.16e+00    0    8.21e-01
2004 10 03  0940    53281   34800      0    1.13e+00    0    7.87e-01
2004 10 03  0945    53281   35100      0    1.13e+00    0    8.01e-01
2004 10 03  0950    53281   35400      0    1.15e+00    0    8.08e-01
2004 10 03  0955    53281   35700      0    1.11e+00    0    7.73e-01
2004 10 03  1000    53281   36000      0    1.13e+00    0    7.92e-01
2004 10 03  1005    53281   36300      0    1.15e+00    0    8.03e-01
2004 10 03  1010    53281   36600      0    1.16e+00    0    8.14e-01
2004 10 03  1015    53281   36900      0    1.16e+00    0    8.26e-01
2004 10 03  1020    53281   37200      0    1.14e+00    0    8.01e-01
2004 10 03  1025    53281   37500      0    1.15e+00    0    8.02e-01
2004 10 03  1030    53281   37800      0    1.14e+00    0    8.01e-01
2004 10 03  1035    53281   38100      0    1.13e+00    0    7.95e-01
2004 10 03  1040    53281   38400      0    1.17e+00    0    8.19e-01
2004 10 03  1045    53281   38700      0    1.14e+00    0    8.07e-01
2004 10 03  1050    53281   39000      0    1.14e+00    0    7.93e-01
2004 10 03  1055    53281   39300      0    1.12e+00    0    7.79e-01
2004 10 03  1100    53281   39600      0    1.15e+00    0    8.04e-01
2004 10 03  1105    53281   39900      0    1.15e+00    0    8.12e-01
2004 10 03  1110    53281   40200      0    1.14e+00    0    8.03e-01
2004 10 03  1115    53281   40500      0    1.14e+00    0    8.05e-01
2004 10 03  1120    53281   40800      0    1.14e+00    0    8.02e-01
2004 10 03  1125    53281   41100      0    1.11e+00    0    7.88e-01
2004 10 03  1130    53281   41400      0    1.15e+00    0    8.11e-01
2004 10 03  1135    53281   41700      0    1.14e+00    0    7.97e-01
2004 10 03  1140    53281   42000      0    1.15e+00    0    8.10e-01
2004 10 03  1145    53281   42300      0    1.13e+00    0    7.91e-01
2004 10 03  1150    53281   42600      0    1.15e+00    0    8.22e-01
2004 10 03  1155    53281   42900      0    1.14e+00    0    8.02e-01
2004 10 03  1200    53281   43200      0    1.15e+00    0    8.01e-01
2004 10 03  1205    53281   43500      0    1.14e+00    0    8.06e-01
2004 10 03  1210    53281   43800      0    1.14e+00    0    7.99e-01
2004 10 03  1215    53281   44100      0    1.12e+00    0    7.86e-01
2004 10 03  1220    53281   44400      0    1.14e+00    0    7.94e-01
2004 10 03  1225    53281   44700      0    1.14e+00    0    8.12e-01
2004 10 03  1230    53281   45000      0    1.10e+00    0    7.66e-01
2004 10 03  1235    53281   45300      0    1.14e+00    0    8.04e-01
2004 10 03  1240    53281   45600      0    1.12e+00    0    7.93e-01
2004 10 03  1245    53281   45900      0    1.15e+00    0    7.97e-01
2004 10 03  1250    53281   46200      0    1.12e+00    0    7.88e-01
2004 10 03  1255    53281   46500      0    1.14e+00    0    8.00e-01
2004 10 03  1300    53281   46800      0    1.16e+00    0    8.14e-01
2004 10 03  1305    53281   47100      0    1.14e+00    0    8.00e-01
2004 10 03  1310    53281   47400      0    1.12e+00    0    7.86e-01
2004 10 03  1315    53281   47700      0    1.12e+00    0    7.85e-01
2004 10 03  1320    53281   48000      0    1.13e+00    0    7.96e-01
2004 10 03  1325    53281   48300      0    1.15e+00    0    8.10e-01
2004 10 03  1330    53281   48600      0    1.14e+00    0    8.03e-01
2004 10 03  1335    53281   48900      0    1.14e+00    0    8.02e-01
2004 10 03  1340    53281   49200      0    1.12e+00    0    7.83e-01
2004 10 03  1345    53281   49500      0    1.12e+00    0    7.98e-01
2004 10 03  1350    53281   49800      0    1.13e+00    0    7.96e-01
2004 10 03  1355    53281   50100      0    1.11e+00    0    7.83e-01
2004 10 03  1400    53281   50400      0    1.15e+00    0    8.17e-01
2004 10 03  1405    53281   50700      0    1.14e+00    0    8.09e-01
2004 10 03  1410    53281   51000      0    1.12e+00    0    7.91e-01
2004 10 03  1415    53281   51300      0    1.15e+00    0    8.12e-01
2004 10 03  1420    53281   51600      0    1.15e+00    0    8.08e-01
2004 10 03  1425    53281   51900      0    1.15e+00    0    8.21e-01
2004 10 03  1430    53281   52200      0    1.16e+00    0    8.27e-01
2004 10 03  1435    53281   52500      0    1.13e+00    0    7.89e-01
2004 10 03  1440    53281   52800      0    1.13e+00    0    7.99e-01
2004 10 03  1445    53281   53100      0    1.14e+00    0    7.99e-01
2004 10 03  1450    53281   53400      0    1.14e+00    0    8.03e-01
2004 10 03  1455    53281   53700      0    1.17e+00    0    8.23e-01
2004 10 03  1500    53281   54000      0    1.18e+00    0    8.29e-01
2004 10 03  1505    53281   54300      0    1.15e+00    0    8.17e-01
2004 10 03  1510    53281   54600      0    1.11e+00    0    7.81e-01
2004 10 03  1515    53281   54900      0    1.15e+00    0    8.07e-01
2004 10 03  1520    53281   55200      0    1.15e+00    0    7.99e-01
2004 10 03  1525    53281   55500      0    1.14e+00    0    8.01e-01
2004 10 03  1530    53281   55800      0    1.15e+00    0    8.12e-01
2004 10 03  1535    53281   56100      0    1.19e+00    0    1.43e+00
2004 10 03  1540    53281   56400      0    1.13e+00    0    8.06e-01
2004 10 03  1545    53281   56700      0    1.14e+00    0    8.10e-01
2004 10 03  1550    53281   57000      0    1.14e+00    0    8.00e-01
2004 10 03  1555    53281   57300      0    1.14e+00    0    8.02e-01
2004 10 03  1600    53281   57600      0    1.13e+00    0    7.92e-01
2004 10 03  1605    53281   57900      0    1.15e+00    0    8.08e-01
2004 10 03  1610    53281   58200      0    1.14e+00    0    8.02e-01
2004 10 03  1615    53281   58500      0    1.13e+00    0    7.91e-01
2004 10 03  1620    53281   58800      0    1.11e+00    0    7.74e-01
2004 10 03  1625    53281   59100      0    1.16e+00    0    8.12e-01
2004 10 03  1630    53281   59400      0    1.14e+00    0    8.04e-01
2004 10 03  1635    53281   59700      0    1.12e+00    0    7.92e-01
2004 10 03  1640    53281   60000      0    1.13e+00    0    7.98e-01
2004 10 03  1645    53281   60300      0    1.15e+00    0    8.06e-01
2004 10 03  1650    53281   60600      0    1.17e+00    0    8.25e-01
2004 10 03  1655    53281   60900      0    1.15e+00    0    8.17e-01
2004 10 03  1700    53281   61200      0    1.13e+00    0    7.93e-01
2004 10 03  1705    53281   61500      0    1.11e+00    0    7.79e-01
2004 10 03  1710    53281   61800      0    1.15e+00    0    8.02e-01
2004 10 03  1715    53281   62100      0    1.12e+00    0    7.89e-01
2004 10 03  1720    53281   62400      0    1.17e+00    0    8.13e-01
2004 10 03  1725    53281   62700      0    1.14e+00    0    8.01e-01
2004 10 03  1730    53281   63000      0    1.16e+00    0    8.18e-01
2004 10 03  1735    53281   63300      0    1.12e+00    0    7.93e-01
2004 10 03  1740    53281   63600      0    1.14e+00    0    8.01e-01
2004 10 03  1745    53281   63900      0    1.13e+00    0    7.85e-01
2004 10 03  1750    53281   64200      0    1.14e+00    0    8.13e-01
2004 10 03  1755    53281   64500      0    1.13e+00    0    7.90e-01
2004 10 03  1800    53281   64800      0    1.13e+00    0    7.88e-01
2004 10 03  1805    53281   65100      0    1.13e+00    0    7.99e-01
2004 10 03  1810    53281   65400      0    1.14e+00    0    8.07e-01
2004 10 03  1815    53281   65700      0    1.14e+00    0    8.03e-01
2004 10 03  1820    53281   66000      0    1.16e+00    0    8.21e-01
2004 10 03  1825    53281   66300      0    1.14e+00    0    8.10e-01
2004 10 03  1830    53281   66600      0    1.15e+00    0    8.01e-01
2004 10 03  1835    53281   66900      0    1.13e+00    0    7.91e-01
2004 10 03  1840    53281   67200      0    1.12e+00    0    7.98e-01
2004 10 03  1845    53281   67500      0    1.13e+00    0    7.97e-01
2004 10 03  1850    53281   67800      0    1.15e+00    0    8.01e-01
2004 10 03  1855    53281   68100      0    1.13e+00    0    7.93e-01
2004 10 03  1900    53281   68400      0    1.13e+00    0    7.93e-01
2004 10 03  1905    53281   68700      0    1.15e+00    0    8.09e-01
2004 10 03  1910    53281   69000      0    1.11e+00    0    7.77e-01
2004 10 03  1915    53281   69300      0    1.11e+00    0    7.85e-01
2004 10 03  1920    53281   69600      0    1.11e+00    0    7.83e-01
2004 10 03  1925    53281   69900      0    1.14e+00    0    8.09e-01
2004 10 03  1930    53281   70200      0    1.17e+00    0    8.20e-01
2004 10 03  1935    53281   70500      0    1.16e+00    0    8.21e-01
2004 10 03  1940    53281   70800      0    1.14e+00    0    8.01e-01
2004 10 03  1945    53281   71100      0    1.15e+00    0    8.14e-01
2004 10 03  1950    53281   71400      0    1.14e+00    0    8.03e-01
2004 10 03  1955    53281   71700      0    1.16e+00    0    8.15e-01
2004 10 03  2000    53281   72000      0    1.18e+00    0    8.33e-01
2004 10 03  2005    53281   72300      0    1.12e+00    0    7.90e-01
2004 10 03  2010    53281   72600      0    1.14e+00    0    8.05e-01
2004 10 03  2015    53281   72900      0    1.16e+00    0    8.23e-01
2004 10 03  2020    53281   73200      0    1.14e+00    0    8.04e-01
2004 10 03  2025    53281   73500      0    1.15e+00    0    8.06e-01
2004 10 03  2030    53281   73800      0    1.13e+00    0    7.96e-01
2004 10 03  2035    53281   74100      0    1.15e+00    0    8.00e-01
2004 10 03  2040    53281   74400      0    1.15e+00    0    8.02e-01
2004 10 03  2045    53281   74700      0    1.14e+00    0    8.12e-01
2004 10 03  2050    53281   75000      0    1.15e+00    0    8.04e-01
2004 10 03  2055    53281   75300      0    1.14e+00    0    8.06e-01
2004 10 03  2100    53281   75600      0    1.14e+00    0    8.05e-01
2004 10 03  2105    53281   75900      0    1.15e+00    0    8.04e-01
2004 10 03  2110    53281   76200      0    1.12e+00    0    7.92e-01
2004 10 03  2115    53281   76500      0    1.14e+00    0    7.92e-01
2004 10 03  2120    53281   76800      0    1.14e+00    0    8.04e-01
2004 10 03  2125    53281   77100      0    1.13e+00    0    7.97e-01
2004 10 03  2130    53281   77400      0    1.13e+00    0    7.92e-01
2004 10 03  2135    53281   77700      0    1.14e+00    0    7.93e-01
2004 10 03  2140    53281   78000      0    1.14e+00    0    8.02e-01
2004 10 03  2145    53281   78300      0    1.15e+00    0    8.04e-01
2004 10 03  2150    53281   78600      0    1.17e+00    0    8.24e-01
2004 10 03  2155    53281   78900      0    1.16e+00    0    8.15e-01
2004 10 03  2200    53281   79200      0    1.16e+00    0    8.04e-01
2004 10 03  2205    53281   79500      0    1.12e+00    0    7.73e-01
2004 10 03  2210    53281   79800      9   -1.00e+05    9   -1.00e+05
2004 10 03  2215    53281   80100      0    1.23e+00    0    8.80e-01
2004 10 03  2220    53281   80400      0    1.15e+00    0    8.09e-01
2004 10 03  2225    53281   80700      0    1.14e+00    0    8.07e-01
2004 10 03  2230    53281   81000      0    1.13e+00    0    7.96e-01
2004 10 03  2235    53281   81300      0    1.16e+00    0    8.06e-01
2004 10 03  2240    53281   81600      0    1.13e+00    0    7.91e-01
2004 10 03  2245    53281   81900      0    1.15e+00    0    8.07e-01
2004 10 03  2250    53281   82200      0    1.14e+00    0    7.99e-01
2004 10 03  2255    53281   82500      0    1.13e+00    0    7.98e-01
2004 10 03  2300    53281   82800      0    1.15e+00    0    8.15e-01
2004 10 03  2305    53281   83100      0    1.18e+00    0    8.33e-01
2004 10 03  2310    53281   83400      0    1.16e+00    0    8.13e-01
2004 10 03  2315    53281   83700      0    1.14e+00    0    8.04e-01
2004 10 03  2320    53281   84000      0    1.15e+00    0    8.04e-01
2004 10 03  2325    53281   84300      0    1.13e+00    0    7.91e-01
2004 10 03  2330    53281   84600      0    1.13e+00    0    7.98e-01
2004 10 03  2335    53281   84900      0    1.15e+00    0    8.09e-01
2004 10 03  2340    53281   85200      0    1.15e+00    0    8.08e-01
2004 10 03  2345    53281   85500      0    1.18e+00    0    8.28e-01
2004 10 03  2350    53281   85800      0    1.15e+00    0    8.08e-01
2004 10 03  2355    53281   86100      0    1.15e+00    0    8.03e-01
