:Data_list: 20041129_ace_sis_5m.txt
:Created: 2004 Nov 30 0011 UT
# Prepared by the U.S. Dept. of Commerce, NOAA, Space Environment Center.
# Please send comments and suggestions to SEC.Webmaster@noaa.gov 
# 
# Units: proton flux p/cs2-sec-ster
# Status(S): 0 = nominal data, 1 to 8 = bad data record, 9 = no data
# Missing data values: -1.00e+05
# Source: ACE Satellite - Solar Isotope Spectrometer
#
# 5-minute averaged Real-time Integral Flux of High-energy Solar Protons
# 
#                 Modified Seconds
# UT Date   Time   Julian  of the      ---- Integral Proton Flux ----
# YR MO DA  HHMM     Day     Day       S    > 10 MeV    S    > 30 MeV
#--------------------------------------------------------------------
2004 11 29  0000    53338       0      0    1.25e+00    0    8.61e-01
2004 11 29  0005    53338     300      0    1.24e+00    0    8.57e-01
2004 11 29  0010    53338     600      0    1.25e+00    0    8.51e-01
2004 11 29  0015    53338     900      0    1.24e+00    0    8.47e-01
2004 11 29  0020    53338    1200      0    1.25e+00    0    8.63e-01
2004 11 29  0025    53338    1500      0    1.25e+00    0    8.62e-01
2004 11 29  0030    53338    1800      0    1.28e+00    0    8.90e-01
2004 11 29  0035    53338    2100      0    1.26e+00    0    8.78e-01
2004 11 29  0040    53338    2400      0    1.27e+00    0    8.74e-01
2004 11 29  0045    53338    2700      0    1.29e+00    0    8.85e-01
2004 11 29  0050    53338    3000      0    1.26e+00    0    8.64e-01
2004 11 29  0055    53338    3300      0    1.27e+00    0    8.82e-01
2004 11 29  0100    53338    3600      0    1.24e+00    0    8.59e-01
2004 11 29  0105    53338    3900      0    1.24e+00    0    8.60e-01
2004 11 29  0110    53338    4200      0    1.27e+00    0    8.77e-01
2004 11 29  0115    53338    4500      0    1.24e+00    0    8.57e-01
2004 11 29  0120    53338    4800      0    1.25e+00    0    8.56e-01
2004 11 29  0125    53338    5100      0    1.24e+00    0    8.46e-01
2004 11 29  0130    53338    5400      0    1.27e+00    0    8.78e-01
2004 11 29  0135    53338    5700      0    1.28e+00    0    8.87e-01
2004 11 29  0140    53338    6000      0    1.24e+00    0    8.46e-01
2004 11 29  0145    53338    6300      0    1.30e+00    0    8.92e-01
2004 11 29  0150    53338    6600      0    1.29e+00    0    9.00e-01
2004 11 29  0155    53338    6900      0    1.27e+00    0    8.77e-01
2004 11 29  0200    53338    7200      0    1.25e+00    0    8.61e-01
2004 11 29  0205    53338    7500      0    1.26e+00    0    8.65e-01
2004 11 29  0210    53338    7800      0    1.25e+00    0    8.61e-01
2004 11 29  0215    53338    8100      0    1.28e+00    0    8.76e-01
2004 11 29  0220    53338    8400      0    1.25e+00    0    8.67e-01
2004 11 29  0225    53338    8700      0    1.27e+00    0    8.77e-01
2004 11 29  0230    53338    9000      0    1.29e+00    0    8.85e-01
2004 11 29  0235    53338    9300      0    1.28e+00    0    8.79e-01
2004 11 29  0240    53338    9600      0    1.25e+00    0    8.60e-01
2004 11 29  0245    53338    9900      0    1.28e+00    0    8.90e-01
2004 11 29  0250    53338   10200      0    1.23e+00    0    8.43e-01
2004 11 29  0255    53338   10500      0    1.29e+00    0    8.88e-01
2004 11 29  0300    53338   10800      0    1.25e+00    0    8.64e-01
2004 11 29  0305    53338   11100      0    1.27e+00    0    8.72e-01
2004 11 29  0310    53338   11400      0    1.26e+00    0    8.65e-01
2004 11 29  0315    53338   11700      0    1.25e+00    0    8.57e-01
2004 11 29  0320    53338   12000      0    1.25e+00    0    8.59e-01
2004 11 29  0325    53338   12300      0    1.26e+00    0    8.66e-01
2004 11 29  0330    53338   12600      0    1.26e+00    0    8.70e-01
2004 11 29  0335    53338   12900      0    1.26e+00    0    8.60e-01
2004 11 29  0340    53338   13200      0    1.26e+00    0    8.69e-01
2004 11 29  0345    53338   13500      0    1.29e+00    0    8.88e-01
2004 11 29  0350    53338   13800      0    1.26e+00    0    8.69e-01
2004 11 29  0355    53338   14100      0    1.24e+00    0    8.50e-01
2004 11 29  0400    53338   14400      0    1.27e+00    0    8.73e-01
2004 11 29  0405    53338   14700      0    1.25e+00    0    8.61e-01
2004 11 29  0410    53338   15000      0    1.24e+00    0    8.59e-01
2004 11 29  0415    53338   15300      0    1.23e+00    0    8.48e-01
2004 11 29  0420    53338   15600      0    1.29e+00    0    8.98e-01
2004 11 29  0425    53338   15900      0    1.25e+00    0    8.59e-01
2004 11 29  0430    53338   16200      0    1.25e+00    0    8.67e-01
2004 11 29  0435    53338   16500      0    1.25e+00    0    8.64e-01
2004 11 29  0440    53338   16800      0    1.26e+00    0    8.56e-01
2004 11 29  0445    53338   17100      0    1.23e+00    0    8.38e-01
2004 11 29  0450    53338   17400      0    1.25e+00    0    8.58e-01
2004 11 29  0455    53338   17700      0    1.23e+00    0    8.44e-01
2004 11 29  0500    53338   18000      0    1.24e+00    0    8.60e-01
2004 11 29  0505    53338   18300      0    1.24e+00    0    8.62e-01
2004 11 29  0510    53338   18600      0    1.24e+00    0    8.56e-01
2004 11 29  0515    53338   18900      0    1.25e+00    0    8.59e-01
2004 11 29  0520    53338   19200      0    1.23e+00    0    8.48e-01
2004 11 29  0525    53338   19500      0    1.26e+00    0    8.67e-01
2004 11 29  0530    53338   19800      0    1.24e+00    0    8.59e-01
2004 11 29  0535    53338   20100      0    1.23e+00    0    8.44e-01
2004 11 29  0540    53338   20400      0    1.26e+00    0    8.72e-01
2004 11 29  0545    53338   20700      0    1.26e+00    0    8.71e-01
2004 11 29  0550    53338   21000      0    1.26e+00    0    8.70e-01
2004 11 29  0555    53338   21300      0    1.23e+00    0    8.44e-01
2004 11 29  0600    53338   21600      0    1.26e+00    0    8.70e-01
2004 11 29  0605    53338   21900      0    1.24e+00    0    8.57e-01
2004 11 29  0610    53338   22200      0    1.27e+00    0    8.82e-01
2004 11 29  0615    53338   22500      0    1.27e+00    0    8.75e-01
2004 11 29  0620    53338   22800      0    1.25e+00    0    8.70e-01
2004 11 29  0625    53338   23100      0    1.25e+00    0    8.61e-01
2004 11 29  0630    53338   23400      0    1.25e+00    0    8.55e-01
2004 11 29  0635    53338   23700      0    1.23e+00    0    8.50e-01
2004 11 29  0640    53338   24000      0    1.21e+00    0    8.23e-01
2004 11 29  0645    53338   24300      0    1.27e+00    0    8.77e-01
2004 11 29  0650    53338   24600      0    1.27e+00    0    8.79e-01
2004 11 29  0655    53338   24900      0    1.25e+00    0    8.72e-01
2004 11 29  0700    53338   25200      0    1.20e+00    0    8.36e-01
2004 11 29  0705    53338   25500      0    1.24e+00    0    8.52e-01
2004 11 29  0710    53338   25800      0    1.24e+00    0    8.66e-01
2004 11 29  0715    53338   26100      0    1.23e+00    0    8.59e-01
2004 11 29  0720    53338   26400      0    1.26e+00    0    8.73e-01
2004 11 29  0725    53338   26700      0    1.23e+00    0    8.57e-01
2004 11 29  0730    53338   27000      0    1.22e+00    0    8.48e-01
2004 11 29  0735    53338   27300      0    1.26e+00    0    8.87e-01
2004 11 29  0740    53338   27600      0    1.23e+00    0    8.47e-01
2004 11 29  0745    53338   27900      0    1.25e+00    0    8.57e-01
2004 11 29  0750    53338   28200      0    1.26e+00    0    8.75e-01
2004 11 29  0755    53338   28500      0    1.23e+00    0    8.62e-01
2004 11 29  0800    53338   28800      0    1.24e+00    0    8.62e-01
2004 11 29  0805    53338   29100      0    1.25e+00    0    8.71e-01
2004 11 29  0810    53338   29400      0    1.24e+00    0    8.61e-01
2004 11 29  0815    53338   29700      0    1.24e+00    0    8.63e-01
2004 11 29  0820    53338   30000      0    1.24e+00    0    8.48e-01
2004 11 29  0825    53338   30300      0    1.23e+00    0    8.52e-01
2004 11 29  0830    53338   30600      0    1.22e+00    0    8.47e-01
2004 11 29  0835    53338   30900      0    1.24e+00    0    8.56e-01
2004 11 29  0840    53338   31200      0    1.24e+00    0    8.56e-01
2004 11 29  0845    53338   31500      0    1.24e+00    0    8.66e-01
2004 11 29  0850    53338   31800      0    1.22e+00    0    8.51e-01
2004 11 29  0855    53338   32100      0    1.24e+00    0    8.69e-01
2004 11 29  0900    53338   32400      0    1.24e+00    0    8.69e-01
2004 11 29  0905    53338   32700      0    1.26e+00    0    8.68e-01
2004 11 29  0910    53338   33000      0    1.28e+00    0    8.79e-01
2004 11 29  0915    53338   33300      0    1.23e+00    0    8.56e-01
2004 11 29  0920    53338   33600      0    1.22e+00    0    8.47e-01
2004 11 29  0925    53338   33900      0    1.26e+00    0    8.87e-01
2004 11 29  0930    53338   34200      0    1.22e+00    0    8.33e-01
2004 11 29  0935    53338   34500      0    1.25e+00    0    8.66e-01
2004 11 29  0940    53338   34800      0    1.27e+00    0    8.93e-01
2004 11 29  0945    53338   35100      0    1.25e+00    0    8.73e-01
2004 11 29  0950    53338   35400      0    1.21e+00    0    8.40e-01
2004 11 29  0955    53338   35700      0    1.24e+00    0    8.64e-01
2004 11 29  1000    53338   36000      0    1.26e+00    0    8.80e-01
2004 11 29  1005    53338   36300      0    1.24e+00    0    8.55e-01
2004 11 29  1010    53338   36600      0    1.23e+00    0    8.43e-01
2004 11 29  1015    53338   36900      0    1.21e+00    0    8.38e-01
2004 11 29  1020    53338   37200      0    1.26e+00    0    8.77e-01
2004 11 29  1025    53338   37500      0    1.23e+00    0    8.62e-01
2004 11 29  1030    53338   37800      0    1.22e+00    0    8.53e-01
2004 11 29  1035    53338   38100      0    1.26e+00    0    8.77e-01
2004 11 29  1040    53338   38400      0    1.23e+00    0    8.49e-01
2004 11 29  1045    53338   38700      0    1.22e+00    0    8.50e-01
2004 11 29  1050    53338   39000      0    1.24e+00    0    8.59e-01
2004 11 29  1055    53338   39300      0    1.25e+00    0    8.72e-01
2004 11 29  1100    53338   39600      0    1.24e+00    0    8.76e-01
2004 11 29  1105    53338   39900      0    1.24e+00    0    8.78e-01
2004 11 29  1110    53338   40200      0    1.21e+00    0    8.43e-01
2004 11 29  1115    53338   40500      0    1.25e+00    0    8.63e-01
2004 11 29  1120    53338   40800      0    1.23e+00    0    8.50e-01
2004 11 29  1125    53338   41100      0    1.25e+00    0    8.77e-01
2004 11 29  1130    53338   41400      0    1.26e+00    0    8.76e-01
2004 11 29  1135    53338   41700      0    1.23e+00    0    8.68e-01
2004 11 29  1140    53338   42000      0    1.22e+00    0    8.47e-01
2004 11 29  1145    53338   42300      0    1.21e+00    0    8.33e-01
2004 11 29  1150    53338   42600      0    1.24e+00    0    8.55e-01
2004 11 29  1155    53338   42900      0    1.26e+00    0    8.69e-01
2004 11 29  1200    53338   43200      0    1.24e+00    0    8.60e-01
2004 11 29  1205    53338   43500      0    1.20e+00    0    8.21e-01
2004 11 29  1210    53338   43800      0    1.26e+00    0    8.72e-01
2004 11 29  1215    53338   44100      0    1.25e+00    0    8.67e-01
2004 11 29  1220    53338   44400      0    1.23e+00    0    8.46e-01
2004 11 29  1225    53338   44700      0    1.23e+00    0    8.59e-01
2004 11 29  1230    53338   45000      0    1.23e+00    0    8.54e-01
2004 11 29  1235    53338   45300      0    1.24e+00    0    8.72e-01
2004 11 29  1240    53338   45600      0    1.21e+00    0    8.43e-01
2004 11 29  1245    53338   45900      0    1.24e+00    0    8.65e-01
2004 11 29  1250    53338   46200      0    1.22e+00    0    8.48e-01
2004 11 29  1255    53338   46500      0    1.23e+00    0    8.65e-01
2004 11 29  1300    53338   46800      0    1.25e+00    0    8.64e-01
2004 11 29  1305    53338   47100      0    1.26e+00    0    8.80e-01
2004 11 29  1310    53338   47400      0    1.21e+00    0    8.51e-01
2004 11 29  1315    53338   47700      0    1.25e+00    0    8.67e-01
2004 11 29  1320    53338   48000      0    1.24e+00    0    8.53e-01
2004 11 29  1325    53338   48300      0    1.21e+00    0    8.48e-01
2004 11 29  1330    53338   48600      0    1.22e+00    0    8.52e-01
2004 11 29  1335    53338   48900      0    1.25e+00    0    8.68e-01
2004 11 29  1340    53338   49200      0    1.23e+00    0    8.51e-01
2004 11 29  1345    53338   49500      0    1.21e+00    0    8.30e-01
2004 11 29  1350    53338   49800      0    1.26e+00    0    8.82e-01
2004 11 29  1355    53338   50100      0    1.20e+00    0    8.37e-01
2004 11 29  1400    53338   50400      0    1.23e+00    0    8.49e-01
2004 11 29  1405    53338   50700      0    1.23e+00    0    8.63e-01
2004 11 29  1410    53338   51000      0    1.24e+00    0    8.64e-01
2004 11 29  1415    53338   51300      0    1.23e+00    0    8.64e-01
2004 11 29  1420    53338   51600      0    1.25e+00    0    8.72e-01
2004 11 29  1425    53338   51900      0    1.26e+00    0    8.72e-01
2004 11 29  1430    53338   52200      0    1.25e+00    0    8.69e-01
2004 11 29  1435    53338   52500      0    1.25e+00    0    8.63e-01
2004 11 29  1440    53338   52800      0    1.22e+00    0    8.47e-01
2004 11 29  1445    53338   53100      0    1.25e+00    0    8.71e-01
2004 11 29  1450    53338   53400      0    1.22e+00    0    8.40e-01
2004 11 29  1455    53338   53700      0    1.23e+00    0    8.63e-01
2004 11 29  1500    53338   54000      0    1.24e+00    0    8.62e-01
2004 11 29  1505    53338   54300      0    1.23e+00    0    8.42e-01
2004 11 29  1510    53338   54600      0    1.24e+00    0    8.55e-01
2004 11 29  1515    53338   54900      0    1.23e+00    0    8.49e-01
2004 11 29  1520    53338   55200      0    1.23e+00    0    8.59e-01
2004 11 29  1525    53338   55500      0    1.25e+00    0    8.80e-01
2004 11 29  1530    53338   55800      0    1.29e+00    0    8.98e-01
2004 11 29  1535    53338   56100      0    1.23e+00    0    8.41e-01
2004 11 29  1540    53338   56400      0    1.25e+00    0    8.70e-01
2004 11 29  1545    53338   56700      0    1.21e+00    0    8.34e-01
2004 11 29  1550    53338   57000      0    1.24e+00    0    8.54e-01
2004 11 29  1555    53338   57300      0    1.24e+00    0    8.60e-01
2004 11 29  1600    53338   57600      0    1.23e+00    0    8.41e-01
2004 11 29  1605    53338   57900      0    1.26e+00    0    8.75e-01
2004 11 29  1610    53338   58200      0    1.25e+00    0    8.58e-01
2004 11 29  1615    53338   58500      0    1.21e+00    0    8.38e-01
2004 11 29  1620    53338   58800      0    1.24e+00    0    8.64e-01
2004 11 29  1625    53338   59100      0    1.22e+00    0    8.43e-01
2004 11 29  1630    53338   59400      0    1.22e+00    0    8.44e-01
2004 11 29  1635    53338   59700      0    1.21e+00    0    8.40e-01
2004 11 29  1640    53338   60000      0    1.23e+00    0    8.41e-01
2004 11 29  1645    53338   60300      0    1.23e+00    0    8.50e-01
2004 11 29  1650    53338   60600      0    1.23e+00    0    8.57e-01
2004 11 29  1655    53338   60900      0    1.21e+00    0    8.38e-01
2004 11 29  1700    53338   61200      0    1.23e+00    0    8.39e-01
2004 11 29  1705    53338   61500      0    1.23e+00    0    8.53e-01
2004 11 29  1710    53338   61800      0    1.24e+00    0    8.62e-01
2004 11 29  1715    53338   62100      0    1.21e+00    0    8.47e-01
2004 11 29  1720    53338   62400      0    1.25e+00    0    8.72e-01
2004 11 29  1725    53338   62700      0    1.24e+00    0    8.67e-01
2004 11 29  1730    53338   63000      0    1.25e+00    0    8.67e-01
2004 11 29  1735    53338   63300      0    1.23e+00    0    8.43e-01
2004 11 29  1740    53338   63600      0    1.25e+00    0    8.69e-01
2004 11 29  1745    53338   63900      0    1.26e+00    0    8.87e-01
2004 11 29  1750    53338   64200      0    1.23e+00    0    8.49e-01
2004 11 29  1755    53338   64500      0    1.23e+00    0    8.61e-01
2004 11 29  1800    53338   64800      0    1.27e+00    0    8.90e-01
2004 11 29  1805    53338   65100      0    1.22e+00    0    8.46e-01
2004 11 29  1810    53338   65400      0    1.23e+00    0    8.64e-01
2004 11 29  1815    53338   65700      0    1.24e+00    0    8.61e-01
2004 11 29  1820    53338   66000      0    1.23e+00    0    8.62e-01
2004 11 29  1825    53338   66300      0    1.25e+00    0    8.68e-01
2004 11 29  1830    53338   66600      0    1.26e+00    0    8.84e-01
2004 11 29  1835    53338   66900      0    1.26e+00    0    8.74e-01
2004 11 29  1840    53338   67200      0    1.24e+00    0    8.70e-01
2004 11 29  1845    53338   67500      0    1.24e+00    0    8.61e-01
2004 11 29  1850    53338   67800      0    1.23e+00    0    8.60e-01
2004 11 29  1855    53338   68100      0    1.19e+00    0    8.30e-01
2004 11 29  1900    53338   68400      9   -1.00e+05    9   -1.00e+05
2004 11 29  1905    53338   68700      9   -1.00e+05    9   -1.00e+05
2004 11 29  1910    53338   69000      9   -1.00e+05    9   -1.00e+05
2004 11 29  1915    53338   69300      9   -1.00e+05    9   -1.00e+05
2004 11 29  1920    53338   69600      9   -1.00e+05    9   -1.00e+05
2004 11 29  1925    53338   69900      0    1.20e+00    0    8.38e-01
2004 11 29  1930    53338   70200      0    1.26e+00    0    8.65e-01
2004 11 29  1935    53338   70500      0    1.23e+00    0    8.69e-01
2004 11 29  1940    53338   70800      0    1.22e+00    0    8.45e-01
2004 11 29  1945    53338   71100      0    1.22e+00    0    8.46e-01
2004 11 29  1950    53338   71400      0    1.22e+00    0    8.59e-01
2004 11 29  1955    53338   71700      0    1.20e+00    0    8.41e-01
2004 11 29  2000    53338   72000      0    1.22e+00    0    8.41e-01
2004 11 29  2005    53338   72300      0    1.20e+00    0    8.27e-01
2004 11 29  2010    53338   72600      0    1.23e+00    0    8.54e-01
2004 11 29  2015    53338   72900      0    1.24e+00    0    8.62e-01
2004 11 29  2020    53338   73200      0    1.22e+00    0    8.55e-01
2004 11 29  2025    53338   73500      0    1.22e+00    0    8.53e-01
2004 11 29  2030    53338   73800      0    1.23e+00    0    8.58e-01
2004 11 29  2035    53338   74100      0    1.22e+00    0    8.67e-01
2004 11 29  2040    53338   74400      0    1.19e+00    0    8.28e-01
2004 11 29  2045    53338   74700      0    1.24e+00    0    8.74e-01
2004 11 29  2050    53338   75000      0    1.24e+00    0    8.59e-01
2004 11 29  2055    53338   75300      0    1.20e+00    0    8.39e-01
2004 11 29  2100    53338   75600      0    1.22e+00    0    8.28e-01
2004 11 29  2105    53338   75900      0    1.25e+00    0    8.70e-01
2004 11 29  2110    53338   76200      9   -1.00e+05    9   -1.00e+05
2004 11 29  2115    53338   76500      9   -1.00e+05    9   -1.00e+05
2004 11 29  2120    53338   76800      9   -1.00e+05    9   -1.00e+05
2004 11 29  2125    53338   77100      9   -1.00e+05    9   -1.00e+05
2004 11 29  2130    53338   77400      0    1.21e+00    0    8.40e-01
2004 11 29  2135    53338   77700      0    1.25e+00    0    8.78e-01
2004 11 29  2140    53338   78000      0    1.23e+00    0    8.55e-01
2004 11 29  2145    53338   78300      0    1.21e+00    0    8.31e-01
2004 11 29  2150    53338   78600      0    1.22e+00    0    8.48e-01
2004 11 29  2155    53338   78900      0    1.25e+00    0    8.63e-01
2004 11 29  2200    53338   79200      0    1.19e+00    0    8.17e-01
2004 11 29  2205    53338   79500      0    1.25e+00    0    8.90e-01
2004 11 29  2210    53338   79800      0    1.26e+00    0    8.78e-01
2004 11 29  2215    53338   80100      0    1.21e+00    0    8.57e-01
2004 11 29  2220    53338   80400      0    1.22e+00    0    8.59e-01
2004 11 29  2225    53338   80700      0    1.24e+00    0    8.74e-01
2004 11 29  2230    53338   81000      0    1.23e+00    0    8.52e-01
2004 11 29  2235    53338   81300      0    1.26e+00    0    8.72e-01
2004 11 29  2240    53338   81600      0    1.24e+00    0    8.81e-01
2004 11 29  2245    53338   81900      0    1.22e+00    0    8.41e-01
2004 11 29  2250    53338   82200      0    1.17e+00    0    8.24e-01
2004 11 29  2255    53338   82500      0    1.23e+00    0    8.61e-01
2004 11 29  2300    53338   82800      0    1.24e+00    0    8.59e-01
2004 11 29  2305    53338   83100      0    1.26e+00    0    8.78e-01
2004 11 29  2310    53338   83400      0    1.23e+00    0    8.53e-01
2004 11 29  2315    53338   83700      0    1.20e+00    0    8.46e-01
2004 11 29  2320    53338   84000      0    1.22e+00    0    8.47e-01
2004 11 29  2325    53338   84300      0    1.22e+00    0    8.53e-01
2004 11 29  2330    53338   84600      0    1.22e+00    0    8.49e-01
2004 11 29  2335    53338   84900      0    1.24e+00    0    8.59e-01
2004 11 29  2340    53338   85200      0    1.24e+00    0    8.65e-01
2004 11 29  2345    53338   85500      0    1.21e+00    0    8.40e-01
2004 11 29  2350    53338   85800      0    1.25e+00    0    8.72e-01
2004 11 29  2355    53338   86100      9   -1.00e+05    9   -1.00e+05
