:Data_list: 20040914_ace_sis_5m.txt
:Created: 2004 Sep 15 0011 UT
# Prepared by the U.S. Dept. of Commerce, NOAA, Space Environment Center.
# Please send comments and suggestions to SEC.Webmaster@noaa.gov 
# 
# Units: proton flux p/cs2-sec-ster
# Status(S): 0 = nominal data, 1 to 8 = bad data record, 9 = no data
# Missing data values: -1.00e+05
# Source: ACE Satellite - Solar Isotope Spectrometer
#
# 5-minute averaged Real-time Integral Flux of High-energy Solar Protons
# 
#                 Modified Seconds
# UT Date   Time   Julian  of the      ---- Integral Proton Flux ----
# YR MO DA  HHMM     Day     Day       S    > 10 MeV    S    > 30 MeV
#--------------------------------------------------------------------
2004 09 14  0000    53262       0      9   -1.00e+05    9   -1.00e+05
2004 09 14  0005    53262     300      9   -1.00e+05    9   -1.00e+05
2004 09 14  0010    53262     600      9   -1.00e+05    9   -1.00e+05
2004 09 14  0015    53262     900      9   -1.00e+05    9   -1.00e+05
2004 09 14  0020    53262    1200      9   -1.00e+05    9   -1.00e+05
2004 09 14  0025    53262    1500      9   -1.00e+05    9   -1.00e+05
2004 09 14  0030    53262    1800      9   -1.00e+05    9   -1.00e+05
2004 09 14  0035    53262    2100      9   -1.00e+05    9   -1.00e+05
2004 09 14  0040    53262    2400      9   -1.00e+05    9   -1.00e+05
2004 09 14  0045    53262    2700      9   -1.00e+05    9   -1.00e+05
2004 09 14  0050    53262    3000      9   -1.00e+05    9   -1.00e+05
2004 09 14  0055    53262    3300      9   -1.00e+05    9   -1.00e+05
2004 09 14  0100    53262    3600      9   -1.00e+05    9   -1.00e+05
2004 09 14  0105    53262    3900      0    2.63e+02    0    4.43e+00
2004 09 14  0110    53262    4200      0    2.74e+02    0    5.59e+00
2004 09 14  0115    53262    4500      0    2.72e+02    0    5.13e+00
2004 09 14  0120    53262    4800      0    2.72e+02    0    5.67e+00
2004 09 14  0125    53262    5100      0    2.53e+02    0    5.54e+00
2004 09 14  0130    53262    5400      0    2.37e+02    0    5.41e+00
2004 09 14  0135    53262    5700      0    2.34e+02    0    4.74e+00
2004 09 14  0140    53262    6000      0    2.35e+02    0    4.81e+00
2004 09 14  0145    53262    6300      0    2.23e+02    0    5.06e+00
2004 09 14  0150    53262    6600      0    2.28e+02    0    4.52e+00
2004 09 14  0155    53262    6900      0    2.37e+02    0    4.64e+00
2004 09 14  0200    53262    7200      0    2.66e+02    0    5.05e+00
2004 09 14  0205    53262    7500      0    2.84e+02    0    4.50e+00
2004 09 14  0210    53262    7800      0    2.70e+02    0    4.77e+00
2004 09 14  0215    53262    8100      0    2.99e+02    0    3.42e+00
2004 09 14  0220    53262    8400      0    3.08e+02    0    5.05e+00
2004 09 14  0225    53262    8700      0    2.86e+02    0    4.14e+00
2004 09 14  0230    53262    9000      0    2.92e+02    0    4.18e+00
2004 09 14  0235    53262    9300      0    2.85e+02    0    5.86e+00
2004 09 14  0240    53262    9600      0    2.67e+02    0    5.43e+00
2004 09 14  0245    53262    9900      0    2.57e+02    0    4.76e+00
2004 09 14  0250    53262   10200      0    2.52e+02    0    4.57e+00
2004 09 14  0255    53262   10500      0    2.52e+02    0    4.85e+00
2004 09 14  0300    53262   10800      0    2.27e+02    0    4.58e+00
2004 09 14  0305    53262   11100      0    2.22e+02    0    4.35e+00
2004 09 14  0310    53262   11400      0    2.10e+02    0    4.41e+00
2004 09 14  0315    53262   11700      0    1.97e+02    0    3.95e+00
2004 09 14  0320    53262   12000      0    2.25e+02    0    4.44e+00
2004 09 14  0325    53262   12300      0    2.31e+02    0    3.66e+00
2004 09 14  0330    53262   12600      0    2.32e+02    0    4.17e+00
2004 09 14  0335    53262   12900      0    2.35e+02    0    4.26e+00
2004 09 14  0340    53262   13200      0    2.45e+02    0    3.86e+00
2004 09 14  0345    53262   13500      0    2.40e+02    0    5.07e+00
2004 09 14  0350    53262   13800      0    2.31e+02    0    3.98e+00
2004 09 14  0355    53262   14100      0    2.21e+02    0    2.99e+00
2004 09 14  0400    53262   14400      0    2.24e+02    0    2.62e+00
2004 09 14  0405    53262   14700      0    2.53e+02    0    3.79e+00
2004 09 14  0410    53262   15000      0    2.62e+02    0    4.16e+00
2004 09 14  0415    53262   15300      0    2.60e+02    0    4.18e+00
2004 09 14  0420    53262   15600      0    3.04e+02    0    3.98e+00
2004 09 14  0425    53262   15900      0    2.88e+02    0    5.02e+00
2004 09 14  0430    53262   16200      0    2.96e+02    0    3.43e+00
2004 09 14  0435    53262   16500      0    3.11e+02    0    4.92e+00
2004 09 14  0440    53262   16800      0    3.02e+02    0    4.48e+00
2004 09 14  0445    53262   17100      0    3.31e+02    0    4.30e+00
2004 09 14  0450    53262   17400      0    3.30e+02    0    5.69e+00
2004 09 14  0455    53262   17700      0    3.39e+02    0    3.77e+00
2004 09 14  0500    53262   18000      0    3.17e+02    0    4.57e+00
2004 09 14  0505    53262   18300      0    3.44e+02    0    3.54e+00
2004 09 14  0510    53262   18600      0    3.59e+02    0    4.77e+00
2004 09 14  0515    53262   18900      0    3.41e+02    0    3.64e+00
2004 09 14  0520    53262   19200      0    3.28e+02    0    5.36e+00
2004 09 14  0525    53262   19500      0    3.17e+02    0    4.61e+00
2004 09 14  0530    53262   19800      0    3.10e+02    0    3.57e+00
2004 09 14  0535    53262   20100      9   -1.00e+05    9   -1.00e+05
2004 09 14  0540    53262   20400      9   -1.00e+05    9   -1.00e+05
2004 09 14  0545    53262   20700      9   -1.00e+05    9   -1.00e+05
2004 09 14  0550    53262   21000      0    2.95e+02    0    5.44e+00
2004 09 14  0555    53262   21300      0    3.04e+02    0    4.13e+00
2004 09 14  0600    53262   21600      0    2.87e+02    0    3.30e+00
2004 09 14  0605    53262   21900      0    2.96e+02    0    3.40e+00
2004 09 14  0610    53262   22200      0    2.91e+02    0    4.05e+00
2004 09 14  0615    53262   22500      0    2.86e+02    0    3.87e+00
2004 09 14  0620    53262   22800      0    2.82e+02    0    3.69e+00
2004 09 14  0625    53262   23100      0    2.77e+02    0    4.55e+00
2004 09 14  0630    53262   23400      0    2.56e+02    0    2.58e+00
2004 09 14  0635    53262   23700      0    2.60e+02    0    2.79e+00
2004 09 14  0640    53262   24000      0    2.38e+02    0    3.24e+00
2004 09 14  0645    53262   24300      0    2.41e+02    0    3.92e+00
2004 09 14  0650    53262   24600      0    2.17e+02    0    3.04e+00
2004 09 14  0655    53262   24900      0    2.17e+02    0    3.15e+00
2004 09 14  0700    53262   25200      0    2.16e+02    0    3.33e+00
2004 09 14  0705    53262   25500      0    2.13e+02    0    4.01e+00
2004 09 14  0710    53262   25800      0    2.21e+02    0    3.37e+00
2004 09 14  0715    53262   26100      0    2.18e+02    0    3.10e+00
2004 09 14  0720    53262   26400      0    2.10e+02    0    3.42e+00
2004 09 14  0725    53262   26700      0    2.09e+02    0    3.43e+00
2004 09 14  0730    53262   27000      0    2.08e+02    0    3.00e+00
2004 09 14  0735    53262   27300      0    2.02e+02    0    2.99e+00
2004 09 14  0740    53262   27600      0    2.04e+02    0    3.66e+00
2004 09 14  0745    53262   27900      0    1.97e+02    0    2.53e+00
2004 09 14  0750    53262   28200      0    1.94e+02    0    3.65e+00
2004 09 14  0755    53262   28500      0    1.92e+02    0    3.20e+00
2004 09 14  0800    53262   28800      0    1.88e+02    0    2.64e+00
2004 09 14  0805    53262   29100      0    1.91e+02    0    3.15e+00
2004 09 14  0810    53262   29400      0    1.93e+02    0    2.61e+00
2004 09 14  0815    53262   29700      0    1.92e+02    0    2.54e+00
2004 09 14  0820    53262   30000      0    1.76e+02    0    2.54e+00
2004 09 14  0825    53262   30300      0    1.67e+02    0    2.59e+00
2004 09 14  0830    53262   30600      0    1.62e+02    0    1.92e+00
2004 09 14  0835    53262   30900      0    1.65e+02    0    2.68e+00
2004 09 14  0840    53262   31200      0    1.60e+02    0    2.27e+00
2004 09 14  0845    53262   31500      0    1.61e+02    0    2.49e+00
2004 09 14  0850    53262   31800      0    1.55e+02    0    2.67e+00
2004 09 14  0855    53262   32100      0    1.52e+02    0    2.31e+00
2004 09 14  0900    53262   32400      0    1.49e+02    0    2.65e+00
2004 09 14  0905    53262   32700      0    1.41e+02    0    1.62e+00
2004 09 14  0910    53262   33000      0    1.38e+02    0    2.66e+00
2004 09 14  0915    53262   33300      0    1.36e+02    0    1.85e+00
2004 09 14  0920    53262   33600      0    1.38e+02    0    1.44e+00
2004 09 14  0925    53262   33900      0    1.37e+02    0    2.21e+00
2004 09 14  0930    53262   34200      0    1.33e+02    0    1.78e+00
2004 09 14  0935    53262   34500      0    1.34e+02    0    2.09e+00
2004 09 14  0940    53262   34800      0    1.35e+02    0    2.08e+00
2004 09 14  0945    53262   35100      0    1.41e+02    0    2.32e+00
2004 09 14  0950    53262   35400      0    1.47e+02    0    2.09e+00
2004 09 14  0955    53262   35700      0    1.40e+02    0    2.26e+00
2004 09 14  1000    53262   36000      0    1.37e+02    0    2.34e+00
2004 09 14  1005    53262   36300      0    1.44e+02    0    2.11e+00
2004 09 14  1010    53262   36600      0    1.48e+02    0    2.50e+00
2004 09 14  1015    53262   36900      0    1.44e+02    0    2.02e+00
2004 09 14  1020    53262   37200      0    1.31e+02    0    2.21e+00
2004 09 14  1025    53262   37500      0    1.27e+02    0    2.07e+00
2004 09 14  1030    53262   37800      0    1.32e+02    0    2.52e+00
2004 09 14  1035    53262   38100      0    1.27e+02    0    2.11e+00
2004 09 14  1040    53262   38400      0    1.17e+02    0    1.90e+00
2004 09 14  1045    53262   38700      0    1.19e+02    0    1.96e+00
2004 09 14  1050    53262   39000      0    1.13e+02    0    1.80e+00
2004 09 14  1055    53262   39300      0    1.08e+02    0    2.03e+00
2004 09 14  1100    53262   39600      0    1.05e+02    0    1.80e+00
2004 09 14  1105    53262   39900      0    1.05e+02    0    1.63e+00
2004 09 14  1110    53262   40200      0    9.85e+01    0    1.73e+00
2004 09 14  1115    53262   40500      0    1.06e+02    0    1.97e+00
2004 09 14  1120    53262   40800      0    1.11e+02    0    2.04e+00
2004 09 14  1125    53262   41100      0    1.01e+02    0    1.61e+00
2004 09 14  1130    53262   41400      0    9.73e+01    0    1.90e+00
2004 09 14  1135    53262   41700      0    9.90e+01    0    1.70e+00
2004 09 14  1140    53262   42000      0    9.50e+01    0    1.62e+00
2004 09 14  1145    53262   42300      0    9.06e+01    0    2.02e+00
2004 09 14  1150    53262   42600      0    9.05e+01    0    1.91e+00
2004 09 14  1155    53262   42900      0    8.78e+01    0    1.76e+00
2004 09 14  1200    53262   43200      0    8.81e+01    0    1.48e+00
2004 09 14  1205    53262   43500      0    8.97e+01    0    1.58e+00
2004 09 14  1210    53262   43800      0    8.34e+01    0    1.39e+00
2004 09 14  1215    53262   44100      0    7.67e+01    0    1.40e+00
2004 09 14  1220    53262   44400      0    7.55e+01    0    1.56e+00
2004 09 14  1225    53262   44700      0    7.32e+01    0    1.26e+00
2004 09 14  1230    53262   45000      0    7.73e+01    0    1.68e+00
2004 09 14  1235    53262   45300      0    7.54e+01    0    1.35e+00
2004 09 14  1240    53262   45600      0    7.26e+01    0    1.39e+00
2004 09 14  1245    53262   45900      0    7.02e+01    0    1.62e+00
2004 09 14  1250    53262   46200      0    6.97e+01    0    1.57e+00
2004 09 14  1255    53262   46500      0    6.38e+01    0    1.41e+00
2004 09 14  1300    53262   46800      0    6.18e+01    0    1.45e+00
2004 09 14  1305    53262   47100      0    6.37e+01    0    1.47e+00
2004 09 14  1310    53262   47400      0    6.19e+01    0    1.45e+00
2004 09 14  1315    53262   47700      0    6.24e+01    0    1.18e+00
2004 09 14  1320    53262   48000      0    6.21e+01    0    1.62e+00
2004 09 14  1325    53262   48300      0    6.31e+01    0    1.69e+00
2004 09 14  1330    53262   48600      0    6.21e+01    0    1.53e+00
2004 09 14  1335    53262   48900      0    5.88e+01    0    1.19e+00
2004 09 14  1340    53262   49200      0    6.22e+01    0    1.40e+00
2004 09 14  1345    53262   49500      0    6.08e+01    0    1.53e+00
2004 09 14  1350    53262   49800      0    6.14e+01    0    1.23e+00
2004 09 14  1355    53262   50100      0    5.95e+01    0    1.13e+00
2004 09 14  1400    53262   50400      0    5.75e+01    0    1.37e+00
2004 09 14  1405    53262   50700      0    5.63e+01    0    1.46e+00
2004 09 14  1410    53262   51000      0    5.65e+01    0    1.25e+00
2004 09 14  1415    53262   51300      0    5.71e+01    0    1.37e+00
2004 09 14  1420    53262   51600      0    5.66e+01    0    1.41e+00
2004 09 14  1425    53262   51900      0    5.41e+01    0    1.54e+00
2004 09 14  1430    53262   52200      0    5.49e+01    0    1.57e+00
2004 09 14  1435    53262   52500      0    5.54e+01    0    1.37e+00
2004 09 14  1440    53262   52800      0    5.32e+01    0    1.14e+00
2004 09 14  1445    53262   53100      0    5.31e+01    0    1.07e+00
2004 09 14  1450    53262   53400      0    5.14e+01    0    1.22e+00
2004 09 14  1455    53262   53700      0    5.06e+01    0    1.23e+00
2004 09 14  1500    53262   54000      0    4.84e+01    0    1.14e+00
2004 09 14  1505    53262   54300      0    2.77e+01    0    9.04e-01
2004 09 14  1510    53262   54600      0    4.62e+01    0    1.24e+00
2004 09 14  1515    53262   54900      0    4.74e+01    0    1.08e+00
2004 09 14  1520    53262   55200      0    4.77e+01    0    1.31e+00
2004 09 14  1525    53262   55500      0    4.68e+01    0    1.43e+00
2004 09 14  1530    53262   55800      0    4.63e+01    0    1.31e+00
2004 09 14  1535    53262   56100      0    4.18e+01    0    1.10e+00
2004 09 14  1540    53262   56400      0    4.12e+01    0    8.73e-01
2004 09 14  1545    53262   56700      0    3.97e+01    0    1.29e+00
2004 09 14  1550    53262   57000      0    3.94e+01    0    9.28e-01
2004 09 14  1555    53262   57300      0    4.10e+01    0    1.11e+00
2004 09 14  1600    53262   57600      0    4.17e+01    0    1.13e+00
2004 09 14  1605    53262   57900      0    4.09e+01    0    1.04e+00
2004 09 14  1610    53262   58200      0    3.94e+01    0    1.17e+00
2004 09 14  1615    53262   58500      0    3.71e+01    0    1.32e+00
2004 09 14  1620    53262   58800      0    3.48e+01    0    1.07e+00
2004 09 14  1625    53262   59100      0    3.70e+01    0    9.22e-01
2004 09 14  1630    53262   59400      0    3.57e+01    0    1.22e+00
2004 09 14  1635    53262   59700      0    3.29e+01    0    9.81e-01
2004 09 14  1640    53262   60000      0    3.15e+01    0    8.63e-01
2004 09 14  1645    53262   60300      0    3.12e+01    0    9.74e-01
2004 09 14  1650    53262   60600      0    3.03e+01    0    9.94e-01
2004 09 14  1655    53262   60900      0    3.12e+01    0    9.11e-01
2004 09 14  1700    53262   61200      0    3.06e+01    0    9.87e-01
2004 09 14  1705    53262   61500      0    3.04e+01    0    1.09e+00
2004 09 14  1710    53262   61800      0    2.98e+01    0    1.03e+00
2004 09 14  1715    53262   62100      0    2.78e+01    0    1.01e+00
2004 09 14  1720    53262   62400      0    2.88e+01    0    1.03e+00
2004 09 14  1725    53262   62700      0    2.88e+01    0    1.01e+00
2004 09 14  1730    53262   63000      0    2.83e+01    0    9.78e-01
2004 09 14  1735    53262   63300      0    2.82e+01    0    9.49e-01
2004 09 14  1740    53262   63600      0    2.80e+01    0    9.85e-01
2004 09 14  1745    53262   63900      0    2.72e+01    0    9.44e-01
2004 09 14  1750    53262   64200      0    2.60e+01    0    9.38e-01
2004 09 14  1755    53262   64500      0    2.50e+01    0    8.63e-01
2004 09 14  1800    53262   64800      0    2.64e+01    0    1.02e+00
2004 09 14  1805    53262   65100      0    2.77e+01    0    9.99e-01
2004 09 14  1810    53262   65400      0    2.64e+01    0    7.74e-01
2004 09 14  1815    53262   65700      0    2.77e+01    0    8.62e-01
2004 09 14  1820    53262   66000      0    2.59e+01    0    7.61e-01
2004 09 14  1825    53262   66300      0    2.52e+01    0    9.97e-01
2004 09 14  1830    53262   66600      0    2.62e+01    0    8.08e-01
2004 09 14  1835    53262   66900      0    2.65e+01    0    8.70e-01
2004 09 14  1840    53262   67200      0    2.57e+01    0    9.62e-01
2004 09 14  1845    53262   67500      0    2.08e+01    0    8.26e-01
2004 09 14  1850    53262   67800      0    2.05e+01    0    9.54e-01
2004 09 14  1855    53262   68100      0    1.98e+01    0    9.11e-01
2004 09 14  1900    53262   68400      0    2.01e+01    0    9.02e-01
2004 09 14  1905    53262   68700      0    1.89e+01    0    8.83e-01
2004 09 14  1910    53262   69000      0    1.82e+01    0    7.62e-01
2004 09 14  1915    53262   69300      0    1.94e+01    0    8.84e-01
2004 09 14  1920    53262   69600      0    1.91e+01    0    8.73e-01
2004 09 14  1925    53262   69900      0    1.91e+01    0    9.24e-01
2004 09 14  1930    53262   70200      0    1.84e+01    0    8.37e-01
2004 09 14  1935    53262   70500      0    1.82e+01    0    8.71e-01
2004 09 14  1940    53262   70800      0    1.83e+01    0    8.28e-01
2004 09 14  1945    53262   71100      0    1.92e+01    0    9.94e-01
2004 09 14  1950    53262   71400      0    1.90e+01    0    8.04e-01
2004 09 14  1955    53262   71700      0    1.84e+01    0    7.98e-01
2004 09 14  2000    53262   72000      0    1.93e+01    0    8.48e-01
2004 09 14  2005    53262   72300      0    2.08e+01    0    8.91e-01
2004 09 14  2010    53262   72600      0    1.97e+01    0    8.29e-01
2004 09 14  2015    53262   72900      0    2.00e+01    0    9.10e-01
2004 09 14  2020    53262   73200      0    1.95e+01    0    9.37e-01
2004 09 14  2025    53262   73500      0    1.99e+01    0    8.68e-01
2004 09 14  2030    53262   73800      0    2.13e+01    0    9.06e-01
2004 09 14  2035    53262   74100      0    2.34e+01    0    8.83e-01
2004 09 14  2040    53262   74400      0    2.37e+01    0    9.49e-01
2004 09 14  2045    53262   74700      0    2.30e+01    0    7.66e-01
2004 09 14  2050    53262   75000      0    2.35e+01    0    8.43e-01
2004 09 14  2055    53262   75300      0    2.44e+01    0    9.00e-01
2004 09 14  2100    53262   75600      0    2.40e+01    0    9.05e-01
2004 09 14  2105    53262   75900      0    2.36e+01    0    8.58e-01
2004 09 14  2110    53262   76200      0    2.29e+01    0    8.72e-01
2004 09 14  2115    53262   76500      0    2.25e+01    0    8.74e-01
2004 09 14  2120    53262   76800      0    1.89e+01    0    8.27e-01
2004 09 14  2125    53262   77100      0    1.93e+01    0    9.26e-01
2004 09 14  2130    53262   77400      0    2.03e+01    0    8.22e-01
2004 09 14  2135    53262   77700      0    2.05e+01    0    7.91e-01
2004 09 14  2140    53262   78000      0    2.03e+01    0    8.61e-01
2004 09 14  2145    53262   78300      0    2.02e+01    0    7.57e-01
2004 09 14  2150    53262   78600      0    2.15e+01    0    7.92e-01
2004 09 14  2155    53262   78900      0    2.11e+01    0    8.63e-01
2004 09 14  2200    53262   79200      0    2.02e+01    0    8.00e-01
2004 09 14  2205    53262   79500      0    2.09e+01    0    8.80e-01
2004 09 14  2210    53262   79800      0    2.13e+01    0    9.30e-01
2004 09 14  2215    53262   80100      0    2.07e+01    0    9.73e-01
2004 09 14  2220    53262   80400      0    2.13e+01    0    9.42e-01
2004 09 14  2225    53262   80700      0    2.14e+01    0    9.66e-01
2004 09 14  2230    53262   81000      0    2.00e+01    0    8.27e-01
2004 09 14  2235    53262   81300      0    2.08e+01    0    7.42e-01
2004 09 14  2240    53262   81600      0    2.06e+01    0    9.19e-01
2004 09 14  2245    53262   81900      0    2.04e+01    0    8.72e-01
2004 09 14  2250    53262   82200      0    2.03e+01    0    1.01e+00
2004 09 14  2255    53262   82500      0    1.97e+01    0    8.27e-01
2004 09 14  2300    53262   82800      0    2.02e+01    0    8.08e-01
2004 09 14  2305    53262   83100      0    1.96e+01    0    8.74e-01
2004 09 14  2310    53262   83400      0    1.90e+01    0    8.28e-01
2004 09 14  2315    53262   83700      0    1.97e+01    0    8.77e-01
2004 09 14  2320    53262   84000      0    2.02e+01    0    7.40e-01
2004 09 14  2325    53262   84300      0    1.99e+01    0    8.78e-01
2004 09 14  2330    53262   84600      0    2.00e+01    0    9.44e-01
2004 09 14  2335    53262   84900      0    1.99e+01    0    8.24e-01
2004 09 14  2340    53262   85200      0    1.93e+01    0    7.67e-01
2004 09 14  2345    53262   85500      0    1.89e+01    0    6.94e-01
2004 09 14  2350    53262   85800      0    1.98e+01    0    8.53e-01
2004 09 14  2355    53262   86100      0    1.94e+01    0    8.01e-01
