:Data_list: 20041014_ace_sis_5m.txt
:Created: 2004 Oct 15 0011 UT
# Prepared by the U.S. Dept. of Commerce, NOAA, Space Environment Center.
# Please send comments and suggestions to SEC.Webmaster@noaa.gov 
# 
# Units: proton flux p/cs2-sec-ster
# Status(S): 0 = nominal data, 1 to 8 = bad data record, 9 = no data
# Missing data values: -1.00e+05
# Source: ACE Satellite - Solar Isotope Spectrometer
#
# 5-minute averaged Real-time Integral Flux of High-energy Solar Protons
# 
#                 Modified Seconds
# UT Date   Time   Julian  of the      ---- Integral Proton Flux ----
# YR MO DA  HHMM     Day     Day       S    > 10 MeV    S    > 30 MeV
#--------------------------------------------------------------------
2004 10 14  0000    53292       0      0    1.15e+00    0    7.98e-01
2004 10 14  0005    53292     300      0    1.15e+00    0    8.13e-01
2004 10 14  0010    53292     600      0    1.17e+00    0    8.28e-01
2004 10 14  0015    53292     900      0    1.17e+00    0    8.23e-01
2004 10 14  0020    53292    1200      0    1.16e+00    0    8.10e-01
2004 10 14  0025    53292    1500      0    1.17e+00    0    8.29e-01
2004 10 14  0030    53292    1800      0    1.13e+00    0    7.93e-01
2004 10 14  0035    53292    2100      0    1.18e+00    0    8.26e-01
2004 10 14  0040    53292    2400      0    1.19e+00    0    8.42e-01
2004 10 14  0045    53292    2700      0    1.17e+00    0    8.23e-01
2004 10 14  0050    53292    3000      0    1.15e+00    0    8.09e-01
2004 10 14  0055    53292    3300      0    1.17e+00    0    8.16e-01
2004 10 14  0100    53292    3600      0    1.14e+00    0    8.11e-01
2004 10 14  0105    53292    3900      0    1.16e+00    0    8.17e-01
2004 10 14  0110    53292    4200      0    1.16e+00    0    8.23e-01
2004 10 14  0115    53292    4500      0    1.12e+00    0    7.94e-01
2004 10 14  0120    53292    4800      0    1.17e+00    0    8.32e-01
2004 10 14  0125    53292    5100      0    1.22e+00    0    8.62e-01
2004 10 14  0130    53292    5400      0    1.17e+00    0    8.22e-01
2004 10 14  0135    53292    5700      0    1.17e+00    0    8.17e-01
2004 10 14  0140    53292    6000      0    1.19e+00    0    8.34e-01
2004 10 14  0145    53292    6300      0    1.19e+00    0    8.34e-01
2004 10 14  0150    53292    6600      0    1.19e+00    0    8.38e-01
2004 10 14  0155    53292    6900      0    1.18e+00    0    8.22e-01
2004 10 14  0200    53292    7200      0    1.16e+00    0    8.18e-01
2004 10 14  0205    53292    7500      0    1.19e+00    0    8.36e-01
2004 10 14  0210    53292    7800      0    1.15e+00    0    8.11e-01
2004 10 14  0215    53292    8100      0    1.17e+00    0    8.29e-01
2004 10 14  0220    53292    8400      0    1.18e+00    0    8.26e-01
2004 10 14  0225    53292    8700      0    1.18e+00    0    8.27e-01
2004 10 14  0230    53292    9000      0    1.14e+00    0    8.11e-01
2004 10 14  0235    53292    9300      0    1.19e+00    0    8.52e-01
2004 10 14  0240    53292    9600      0    1.19e+00    0    8.37e-01
2004 10 14  0245    53292    9900      0    1.15e+00    0    8.03e-01
2004 10 14  0250    53292   10200      0    1.16e+00    0    8.17e-01
2004 10 14  0255    53292   10500      0    1.16e+00    0    8.19e-01
2004 10 14  0300    53292   10800      0    1.16e+00    0    8.17e-01
2004 10 14  0305    53292   11100      0    1.16e+00    0    8.19e-01
2004 10 14  0310    53292   11400      0    1.16e+00    0    8.21e-01
2004 10 14  0315    53292   11700      0    1.18e+00    0    8.40e-01
2004 10 14  0320    53292   12000      0    1.17e+00    0    8.23e-01
2004 10 14  0325    53292   12300      0    1.13e+00    0    7.91e-01
2004 10 14  0330    53292   12600      0    1.12e+00    0    7.84e-01
2004 10 14  0335    53292   12900      0    1.18e+00    0    8.38e-01
2004 10 14  0340    53292   13200      0    1.15e+00    0    8.07e-01
2004 10 14  0345    53292   13500      0    1.16e+00    0    8.14e-01
2004 10 14  0350    53292   13800      0    1.16e+00    0    8.19e-01
2004 10 14  0355    53292   14100      0    1.17e+00    0    8.30e-01
2004 10 14  0400    53292   14400      0    1.15e+00    0    8.18e-01
2004 10 14  0405    53292   14700      0    1.17e+00    0    8.24e-01
2004 10 14  0410    53292   15000      0    1.17e+00    0    8.27e-01
2004 10 14  0415    53292   15300      0    1.16e+00    0    8.18e-01
2004 10 14  0420    53292   15600      0    1.15e+00    0    8.07e-01
2004 10 14  0425    53292   15900      0    1.17e+00    0    8.19e-01
2004 10 14  0430    53292   16200      0    1.16e+00    0    8.16e-01
2004 10 14  0435    53292   16500      0    1.19e+00    0    8.46e-01
2004 10 14  0440    53292   16800      0    1.15e+00    0    8.13e-01
2004 10 14  0445    53292   17100      0    1.16e+00    0    8.14e-01
2004 10 14  0450    53292   17400      0    1.19e+00    0    8.47e-01
2004 10 14  0455    53292   17700      0    1.16e+00    0    8.20e-01
2004 10 14  0500    53292   18000      0    1.15e+00    0    8.13e-01
2004 10 14  0505    53292   18300      0    1.15e+00    0    8.03e-01
2004 10 14  0510    53292   18600      0    1.14e+00    0    7.99e-01
2004 10 14  0515    53292   18900      0    1.19e+00    0    8.30e-01
2004 10 14  0520    53292   19200      0    1.16e+00    0    8.14e-01
2004 10 14  0525    53292   19500      0    1.17e+00    0    8.22e-01
2004 10 14  0530    53292   19800      0    1.14e+00    0    8.01e-01
2004 10 14  0535    53292   20100      0    1.17e+00    0    8.24e-01
2004 10 14  0540    53292   20400      0    1.14e+00    0    8.10e-01
2004 10 14  0545    53292   20700      0    1.16e+00    0    8.06e-01
2004 10 14  0550    53292   21000      0    1.16e+00    0    8.07e-01
2004 10 14  0555    53292   21300      0    1.13e+00    0    7.87e-01
2004 10 14  0600    53292   21600      0    1.16e+00    0    8.17e-01
2004 10 14  0605    53292   21900      0    1.17e+00    0    8.27e-01
2004 10 14  0610    53292   22200      0    1.19e+00    0    8.34e-01
2004 10 14  0615    53292   22500      0    1.17e+00    0    8.21e-01
2004 10 14  0620    53292   22800      0    1.17e+00    0    8.20e-01
2004 10 14  0625    53292   23100      0    1.16e+00    0    8.10e-01
2004 10 14  0630    53292   23400      0    1.15e+00    0    7.96e-01
2004 10 14  0635    53292   23700      0    1.17e+00    0    8.26e-01
2004 10 14  0640    53292   24000      0    1.13e+00    0    7.94e-01
2004 10 14  0645    53292   24300      0    1.17e+00    0    8.20e-01
2004 10 14  0650    53292   24600      0    1.17e+00    0    8.23e-01
2004 10 14  0655    53292   24900      0    1.17e+00    0    8.19e-01
2004 10 14  0700    53292   25200      0    1.18e+00    0    8.29e-01
2004 10 14  0705    53292   25500      0    1.17e+00    0    8.20e-01
2004 10 14  0710    53292   25800      0    1.16e+00    0    8.17e-01
2004 10 14  0715    53292   26100      0    1.19e+00    0    8.29e-01
2004 10 14  0720    53292   26400      0    1.15e+00    0    8.18e-01
2004 10 14  0725    53292   26700      0    1.16e+00    0    8.14e-01
2004 10 14  0730    53292   27000      0    1.15e+00    0    8.03e-01
2004 10 14  0735    53292   27300      0    1.18e+00    0    8.29e-01
2004 10 14  0740    53292   27600      0    1.18e+00    0    8.50e-01
2004 10 14  0745    53292   27900      9   -1.00e+05    9   -1.00e+05
2004 10 14  0750    53292   28200      0    1.17e+00    0    8.20e-01
2004 10 14  0755    53292   28500      0    1.17e+00    0    8.22e-01
2004 10 14  0800    53292   28800      0    1.18e+00    0    8.38e-01
2004 10 14  0805    53292   29100      0    1.17e+00    0    8.22e-01
2004 10 14  0810    53292   29400      0    1.17e+00    0    8.19e-01
2004 10 14  0815    53292   29700      0    1.18e+00    0    8.31e-01
2004 10 14  0820    53292   30000      0    1.16e+00    0    8.17e-01
2004 10 14  0825    53292   30300      0    1.15e+00    0    8.07e-01
2004 10 14  0830    53292   30600      0    1.18e+00    0    8.35e-01
2004 10 14  0835    53292   30900      0    1.17e+00    0    8.20e-01
2004 10 14  0840    53292   31200      0    1.18e+00    0    8.32e-01
2004 10 14  0845    53292   31500      0    1.16e+00    0    8.22e-01
2004 10 14  0850    53292   31800      0    1.17e+00    0    8.21e-01
2004 10 14  0855    53292   32100      0    1.13e+00    0    8.10e-01
2004 10 14  0900    53292   32400      0    1.18e+00    0    8.23e-01
2004 10 14  0905    53292   32700      0    1.17e+00    0    8.23e-01
2004 10 14  0910    53292   33000      0    1.13e+00    0    7.93e-01
2004 10 14  0915    53292   33300      0    1.16e+00    0    8.21e-01
2004 10 14  0920    53292   33600      0    1.16e+00    0    8.16e-01
2004 10 14  0925    53292   33900      0    1.15e+00    0    8.06e-01
2004 10 14  0930    53292   34200      0    1.18e+00    0    8.24e-01
2004 10 14  0935    53292   34500      0    1.17e+00    0    8.23e-01
2004 10 14  0940    53292   34800      0    1.16e+00    0    8.19e-01
2004 10 14  0945    53292   35100      0    1.16e+00    0    8.13e-01
2004 10 14  0950    53292   35400      0    1.15e+00    0    8.09e-01
2004 10 14  0955    53292   35700      0    1.15e+00    0    8.08e-01
2004 10 14  1000    53292   36000      0    1.15e+00    0    8.00e-01
2004 10 14  1005    53292   36300      0    1.15e+00    0    8.04e-01
2004 10 14  1010    53292   36600      0    1.16e+00    0    8.14e-01
2004 10 14  1015    53292   36900      0    1.17e+00    0    8.26e-01
2004 10 14  1020    53292   37200      0    1.17e+00    0    8.29e-01
2004 10 14  1025    53292   37500      0    1.16e+00    0    8.13e-01
2004 10 14  1030    53292   37800      0    1.17e+00    0    8.25e-01
2004 10 14  1035    53292   38100      0    1.16e+00    0    8.22e-01
2004 10 14  1040    53292   38400      0    1.15e+00    0    8.07e-01
2004 10 14  1045    53292   38700      0    1.17e+00    0    8.22e-01
2004 10 14  1050    53292   39000      0    1.11e+00    0    7.86e-01
2004 10 14  1055    53292   39300      0    1.17e+00    0    8.22e-01
2004 10 14  1100    53292   39600      0    1.15e+00    0    8.05e-01
2004 10 14  1105    53292   39900      0    1.16e+00    0    8.12e-01
2004 10 14  1110    53292   40200      0    1.15e+00    0    8.10e-01
2004 10 14  1115    53292   40500      0    1.17e+00    0    8.20e-01
2004 10 14  1120    53292   40800      0    1.17e+00    0    8.26e-01
2004 10 14  1125    53292   41100      0    1.18e+00    0    8.30e-01
2004 10 14  1130    53292   41400      0    1.16e+00    0    8.20e-01
2004 10 14  1135    53292   41700      0    1.18e+00    0    8.32e-01
2004 10 14  1140    53292   42000      0    1.14e+00    0    8.02e-01
2004 10 14  1145    53292   42300      0    1.13e+00    0    7.88e-01
2004 10 14  1150    53292   42600      0    1.14e+00    0    7.99e-01
2004 10 14  1155    53292   42900      0    1.17e+00    0    8.32e-01
2004 10 14  1200    53292   43200      0    1.16e+00    0    8.24e-01
2004 10 14  1205    53292   43500      0    1.18e+00    0    8.30e-01
2004 10 14  1210    53292   43800      0    1.17e+00    0    8.30e-01
2004 10 14  1215    53292   44100      0    1.14e+00    0    8.01e-01
2004 10 14  1220    53292   44400      0    1.20e+00    0    8.40e-01
2004 10 14  1225    53292   44700      0    1.18e+00    0    8.34e-01
2004 10 14  1230    53292   45000      0    1.21e+00    0    8.50e-01
2004 10 14  1235    53292   45300      0    1.14e+00    0    8.01e-01
2004 10 14  1240    53292   45600      0    1.14e+00    0    7.98e-01
2004 10 14  1245    53292   45900      0    1.16e+00    0    8.19e-01
2004 10 14  1250    53292   46200      0    1.18e+00    0    8.30e-01
2004 10 14  1255    53292   46500      0    1.16e+00    0    8.20e-01
2004 10 14  1300    53292   46800      0    1.14e+00    0    7.98e-01
2004 10 14  1305    53292   47100      0    1.15e+00    0    8.10e-01
2004 10 14  1310    53292   47400      0    1.17e+00    0    8.23e-01
2004 10 14  1315    53292   47700      0    1.20e+00    0    8.43e-01
2004 10 14  1320    53292   48000      0    1.16e+00    0    8.27e-01
2004 10 14  1325    53292   48300      0    1.16e+00    0    8.19e-01
2004 10 14  1330    53292   48600      0    1.18e+00    0    8.31e-01
2004 10 14  1335    53292   48900      0    1.16e+00    0    8.14e-01
2004 10 14  1340    53292   49200      0    1.15e+00    0    7.98e-01
2004 10 14  1345    53292   49500      0    1.18e+00    0    8.27e-01
2004 10 14  1350    53292   49800      0    1.17e+00    0    8.24e-01
2004 10 14  1355    53292   50100      0    1.18e+00    0    8.27e-01
2004 10 14  1400    53292   50400      0    1.18e+00    0    8.28e-01
2004 10 14  1405    53292   50700      0    1.15e+00    0    8.10e-01
2004 10 14  1410    53292   51000      0    1.17e+00    0    8.26e-01
2004 10 14  1415    53292   51300      0    1.16e+00    0    8.19e-01
2004 10 14  1420    53292   51600      0    1.20e+00    0    8.46e-01
2004 10 14  1425    53292   51900      0    1.15e+00    0    8.10e-01
2004 10 14  1430    53292   52200      0    1.15e+00    0    8.10e-01
2004 10 14  1435    53292   52500      0    1.16e+00    0    8.06e-01
2004 10 14  1440    53292   52800      0    1.13e+00    0    7.98e-01
2004 10 14  1445    53292   53100      0    1.16e+00    0    8.13e-01
2004 10 14  1450    53292   53400      0    1.15e+00    0    8.11e-01
2004 10 14  1455    53292   53700      0    1.16e+00    0    8.22e-01
2004 10 14  1500    53292   54000      0    1.16e+00    0    8.27e-01
2004 10 14  1505    53292   54300      0    1.19e+00    0    8.39e-01
2004 10 14  1510    53292   54600      0    1.17e+00    0    8.36e-01
2004 10 14  1515    53292   54900      0    1.18e+00    0    8.31e-01
2004 10 14  1520    53292   55200      0    1.15e+00    0    8.09e-01
2004 10 14  1525    53292   55500      0    1.15e+00    0    7.96e-01
2004 10 14  1530    53292   55800      0    1.18e+00    0    8.25e-01
2004 10 14  1535    53292   56100      0    1.14e+00    0    8.03e-01
2004 10 14  1540    53292   56400      0    1.14e+00    0    7.94e-01
2004 10 14  1545    53292   56700      0    1.17e+00    0    8.24e-01
2004 10 14  1550    53292   57000      0    1.13e+00    0    8.10e-01
2004 10 14  1555    53292   57300      0    1.17e+00    0    8.33e-01
2004 10 14  1600    53292   57600      0    1.16e+00    0    8.22e-01
2004 10 14  1605    53292   57900      0    1.15e+00    0    8.05e-01
2004 10 14  1610    53292   58200      0    1.09e+00    0    7.58e-01
2004 10 14  1615    53292   58500      0    1.13e+00    0    7.99e-01
2004 10 14  1620    53292   58800      0    1.19e+00    0    8.32e-01
2004 10 14  1625    53292   59100      0    1.14e+00    0    7.98e-01
2004 10 14  1630    53292   59400      0    1.15e+00    0    8.03e-01
2004 10 14  1635    53292   59700      0    1.18e+00    0    8.31e-01
2004 10 14  1640    53292   60000      0    1.16e+00    0    8.18e-01
2004 10 14  1645    53292   60300      0    1.16e+00    0    8.20e-01
2004 10 14  1650    53292   60600      0    1.17e+00    0    8.22e-01
2004 10 14  1655    53292   60900      0    1.14e+00    0    8.02e-01
2004 10 14  1700    53292   61200      0    1.17e+00    0    8.30e-01
2004 10 14  1705    53292   61500      0    1.18e+00    0    8.21e-01
2004 10 14  1710    53292   61800      0    1.16e+00    0    8.18e-01
2004 10 14  1715    53292   62100      0    1.18e+00    0    8.41e-01
2004 10 14  1720    53292   62400      0    1.17e+00    0    8.14e-01
2004 10 14  1725    53292   62700      0    1.17e+00    0    8.21e-01
2004 10 14  1730    53292   63000      0    1.17e+00    0    8.14e-01
2004 10 14  1735    53292   63300      0    1.17e+00    0    8.20e-01
2004 10 14  1740    53292   63600      0    1.13e+00    0    8.01e-01
2004 10 14  1745    53292   63900      0    1.17e+00    0    8.27e-01
2004 10 14  1750    53292   64200      0    1.16e+00    0    8.12e-01
2004 10 14  1755    53292   64500      0    1.17e+00    0    8.27e-01
2004 10 14  1800    53292   64800      0    1.18e+00    0    8.21e-01
2004 10 14  1805    53292   65100      0    1.19e+00    0    8.39e-01
2004 10 14  1810    53292   65400      0    1.16e+00    0    8.02e-01
2004 10 14  1815    53292   65700      0    1.15e+00    0    8.11e-01
2004 10 14  1820    53292   66000      0    1.14e+00    0    7.99e-01
2004 10 14  1825    53292   66300      0    1.19e+00    0    8.37e-01
2004 10 14  1830    53292   66600      0    1.18e+00    0    8.40e-01
2004 10 14  1835    53292   66900      0    1.16e+00    0    8.12e-01
2004 10 14  1840    53292   67200      0    1.18e+00    0    8.28e-01
2004 10 14  1845    53292   67500      0    1.17e+00    0    8.26e-01
2004 10 14  1850    53292   67800      0    1.16e+00    0    8.24e-01
2004 10 14  1855    53292   68100      0    1.17e+00    0    8.20e-01
2004 10 14  1900    53292   68400      0    1.14e+00    0    8.01e-01
2004 10 14  1905    53292   68700      0    1.13e+00    0    8.04e-01
2004 10 14  1910    53292   69000      0    1.20e+00    0    8.39e-01
2004 10 14  1915    53292   69300      0    1.18e+00    0    8.26e-01
2004 10 14  1920    53292   69600      0    1.16e+00    0    8.18e-01
2004 10 14  1925    53292   69900      0    1.19e+00    0    8.39e-01
2004 10 14  1930    53292   70200      0    1.11e+00    0    7.86e-01
2004 10 14  1935    53292   70500      0    1.17e+00    0    8.25e-01
2004 10 14  1940    53292   70800      0    1.19e+00    0    8.40e-01
2004 10 14  1945    53292   71100      0    1.17e+00    0    8.14e-01
2004 10 14  1950    53292   71400      0    1.15e+00    0    8.08e-01
2004 10 14  1955    53292   71700      0    1.16e+00    0    8.13e-01
2004 10 14  2000    53292   72000      0    1.15e+00    0    8.07e-01
2004 10 14  2005    53292   72300      0    1.18e+00    0    8.30e-01
2004 10 14  2010    53292   72600      0    1.18e+00    0    8.14e-01
2004 10 14  2015    53292   72900      0    1.17e+00    0    8.27e-01
2004 10 14  2020    53292   73200      0    1.18e+00    0    8.34e-01
2004 10 14  2025    53292   73500      0    1.16e+00    0    8.06e-01
2004 10 14  2030    53292   73800      0    1.13e+00    0    7.92e-01
2004 10 14  2035    53292   74100      0    1.18e+00    0    8.19e-01
2004 10 14  2040    53292   74400      0    1.16e+00    0    8.12e-01
2004 10 14  2045    53292   74700      0    1.17e+00    0    8.33e-01
2004 10 14  2050    53292   75000      0    1.14e+00    0    8.01e-01
2004 10 14  2055    53292   75300      0    1.15e+00    0    8.15e-01
2004 10 14  2100    53292   75600      0    1.16e+00    0    8.20e-01
2004 10 14  2105    53292   75900      0    1.17e+00    0    8.30e-01
2004 10 14  2110    53292   76200      0    1.14e+00    0    8.04e-01
2004 10 14  2115    53292   76500      0    1.18e+00    0    8.38e-01
2004 10 14  2120    53292   76800      0    1.16e+00    0    8.23e-01
2004 10 14  2125    53292   77100      0    1.16e+00    0    8.11e-01
2004 10 14  2130    53292   77400      0    1.14e+00    0    7.98e-01
2004 10 14  2135    53292   77700      0    1.17e+00    0    8.22e-01
2004 10 14  2140    53292   78000      0    1.20e+00    0    8.54e-01
2004 10 14  2145    53292   78300      0    1.19e+00    0    8.40e-01
2004 10 14  2150    53292   78600      0    1.18e+00    0    8.28e-01
2004 10 14  2155    53292   78900      9   -1.00e+05    9   -1.00e+05
2004 10 14  2200    53292   79200      9   -1.00e+05    9   -1.00e+05
2004 10 14  2205    53292   79500      9   -1.00e+05    9   -1.00e+05
2004 10 14  2210    53292   79800      9   -1.00e+05    9   -1.00e+05
2004 10 14  2215    53292   80100      9   -1.00e+05    9   -1.00e+05
2004 10 14  2220    53292   80400      9   -1.00e+05    9   -1.00e+05
2004 10 14  2225    53292   80700      0    1.14e+00    0    8.00e-01
2004 10 14  2230    53292   81000      0    1.17e+00    0    8.27e-01
2004 10 14  2235    53292   81300      0    1.17e+00    0    8.27e-01
2004 10 14  2240    53292   81600      0    1.16e+00    0    8.12e-01
2004 10 14  2245    53292   81900      0    1.14e+00    0    8.05e-01
2004 10 14  2250    53292   82200      0    1.17e+00    0    8.26e-01
2004 10 14  2255    53292   82500      0    1.18e+00    0    8.43e-01
2004 10 14  2300    53292   82800      0    1.16e+00    0    8.09e-01
2004 10 14  2305    53292   83100      0    1.17e+00    0    8.24e-01
2004 10 14  2310    53292   83400      0    1.15e+00    0    8.09e-01
2004 10 14  2315    53292   83700      0    1.15e+00    0    8.09e-01
2004 10 14  2320    53292   84000      0    1.18e+00    0    8.23e-01
2004 10 14  2325    53292   84300      0    1.17e+00    0    8.23e-01
2004 10 14  2330    53292   84600      0    1.16e+00    0    8.18e-01
2004 10 14  2335    53292   84900      0    1.16e+00    0    8.15e-01
2004 10 14  2340    53292   85200      0    1.17e+00    0    8.21e-01
2004 10 14  2345    53292   85500      0    1.16e+00    0    8.19e-01
2004 10 14  2350    53292   85800      0    1.17e+00    0    8.26e-01
2004 10 14  2355    53292   86100      0    1.16e+00    0    8.21e-01
