:Data_list: 20041102_ace_sis_5m.txt
:Created: 2004 Nov 03 0011 UT
# Prepared by the U.S. Dept. of Commerce, NOAA, Space Environment Center.
# Please send comments and suggestions to SEC.Webmaster@noaa.gov 
# 
# Units: proton flux p/cs2-sec-ster
# Status(S): 0 = nominal data, 1 to 8 = bad data record, 9 = no data
# Missing data values: -1.00e+05
# Source: ACE Satellite - Solar Isotope Spectrometer
#
# 5-minute averaged Real-time Integral Flux of High-energy Solar Protons
# 
#                 Modified Seconds
# UT Date   Time   Julian  of the      ---- Integral Proton Flux ----
# YR MO DA  HHMM     Day     Day       S    > 10 MeV    S    > 30 MeV
#--------------------------------------------------------------------
2004 11 02  0000    53311       0      0    1.00e+01    0    2.74e+00
2004 11 02  0005    53311     300      0    9.83e+00    0    2.60e+00
2004 11 02  0010    53311     600      0    9.88e+00    0    2.65e+00
2004 11 02  0015    53311     900      0    9.78e+00    0    2.64e+00
2004 11 02  0020    53311    1200      0    9.79e+00    0    2.61e+00
2004 11 02  0025    53311    1500      0    1.02e+01    0    2.71e+00
2004 11 02  0030    53311    1800      0    1.03e+01    0    2.77e+00
2004 11 02  0035    53311    2100      0    1.02e+01    0    2.70e+00
2004 11 02  0040    53311    2400      0    1.01e+01    0    2.63e+00
2004 11 02  0045    53311    2700      0    9.68e+00    0    2.56e+00
2004 11 02  0050    53311    3000      0    9.73e+00    0    2.61e+00
2004 11 02  0055    53311    3300      0    9.87e+00    0    2.60e+00
2004 11 02  0100    53311    3600      0    9.93e+00    0    2.54e+00
2004 11 02  0105    53311    3900      0    9.70e+00    0    2.54e+00
2004 11 02  0110    53311    4200      0    9.05e+00    0    2.47e+00
2004 11 02  0115    53311    4500      0    8.65e+00    0    2.38e+00
2004 11 02  0120    53311    4800      0    8.58e+00    0    2.49e+00
2004 11 02  0125    53311    5100      0    8.49e+00    0    2.38e+00
2004 11 02  0130    53311    5400      0    8.55e+00    0    2.38e+00
2004 11 02  0135    53311    5700      0    8.53e+00    0    2.43e+00
2004 11 02  0140    53311    6000      0    8.40e+00    0    2.38e+00
2004 11 02  0145    53311    6300      0    8.37e+00    0    2.31e+00
2004 11 02  0150    53311    6600      0    8.35e+00    0    2.33e+00
2004 11 02  0155    53311    6900      0    8.24e+00    0    2.34e+00
2004 11 02  0200    53311    7200      0    8.19e+00    0    2.32e+00
2004 11 02  0205    53311    7500      0    8.02e+00    0    2.27e+00
2004 11 02  0210    53311    7800      0    8.04e+00    0    2.29e+00
2004 11 02  0215    53311    8100      0    8.01e+00    0    2.18e+00
2004 11 02  0220    53311    8400      0    8.02e+00    0    2.27e+00
2004 11 02  0225    53311    8700      0    7.97e+00    0    2.23e+00
2004 11 02  0230    53311    9000      0    8.00e+00    0    2.24e+00
2004 11 02  0235    53311    9300      0    8.00e+00    0    2.18e+00
2004 11 02  0240    53311    9600      0    7.98e+00    0    2.18e+00
2004 11 02  0245    53311    9900      0    7.99e+00    0    2.24e+00
2004 11 02  0250    53311   10200      0    7.99e+00    0    2.24e+00
2004 11 02  0255    53311   10500      0    8.19e+00    0    2.26e+00
2004 11 02  0300    53311   10800      0    8.10e+00    0    2.22e+00
2004 11 02  0305    53311   11100      0    8.29e+00    0    2.27e+00
2004 11 02  0310    53311   11400      0    8.26e+00    0    2.28e+00
2004 11 02  0315    53311   11700      0    8.20e+00    0    2.23e+00
2004 11 02  0320    53311   12000      0    8.22e+00    0    2.20e+00
2004 11 02  0325    53311   12300      0    8.21e+00    0    2.28e+00
2004 11 02  0330    53311   12600      0    7.85e+00    0    2.20e+00
2004 11 02  0335    53311   12900      0    7.41e+00    0    2.16e+00
2004 11 02  0340    53311   13200      0    7.29e+00    0    2.08e+00
2004 11 02  0345    53311   13500      0    7.51e+00    0    2.12e+00
2004 11 02  0350    53311   13800      0    7.65e+00    0    2.16e+00
2004 11 02  0355    53311   14100      0    7.65e+00    0    2.07e+00
2004 11 02  0400    53311   14400      0    7.50e+00    0    2.14e+00
2004 11 02  0405    53311   14700      0    7.28e+00    0    2.03e+00
2004 11 02  0410    53311   15000      0    7.26e+00    0    2.05e+00
2004 11 02  0415    53311   15300      0    7.46e+00    0    2.06e+00
2004 11 02  0420    53311   15600      0    7.48e+00    0    2.08e+00
2004 11 02  0425    53311   15900      0    7.11e+00    0    1.99e+00
2004 11 02  0430    53311   16200      0    7.18e+00    0    2.04e+00
2004 11 02  0435    53311   16500      0    6.96e+00    0    1.96e+00
2004 11 02  0440    53311   16800      0    6.91e+00    0    1.96e+00
2004 11 02  0445    53311   17100      0    6.93e+00    0    2.00e+00
2004 11 02  0450    53311   17400      0    6.87e+00    0    1.94e+00
2004 11 02  0455    53311   17700      0    6.88e+00    0    1.97e+00
2004 11 02  0500    53311   18000      0    6.92e+00    0    1.97e+00
2004 11 02  0505    53311   18300      0    6.91e+00    0    2.01e+00
2004 11 02  0510    53311   18600      0    6.86e+00    0    1.95e+00
2004 11 02  0515    53311   18900      0    6.76e+00    0    1.88e+00
2004 11 02  0520    53311   19200      0    6.73e+00    0    1.89e+00
2004 11 02  0525    53311   19500      0    6.75e+00    0    1.92e+00
2004 11 02  0530    53311   19800      0    6.62e+00    0    1.90e+00
2004 11 02  0535    53311   20100      0    6.58e+00    0    1.88e+00
2004 11 02  0540    53311   20400      0    6.46e+00    0    1.85e+00
2004 11 02  0545    53311   20700      0    6.34e+00    0    1.85e+00
2004 11 02  0550    53311   21000      0    6.31e+00    0    1.85e+00
2004 11 02  0555    53311   21300      0    6.16e+00    0    1.82e+00
2004 11 02  0600    53311   21600      0    5.98e+00    0    1.80e+00
2004 11 02  0605    53311   21900      0    5.92e+00    0    1.80e+00
2004 11 02  0610    53311   22200      0    5.88e+00    0    1.78e+00
2004 11 02  0615    53311   22500      0    5.92e+00    0    1.77e+00
2004 11 02  0620    53311   22800      0    5.88e+00    0    1.74e+00
2004 11 02  0625    53311   23100      0    5.84e+00    0    1.78e+00
2004 11 02  0630    53311   23400      0    5.71e+00    0    1.70e+00
2004 11 02  0635    53311   23700      0    5.80e+00    0    1.77e+00
2004 11 02  0640    53311   24000      0    5.76e+00    0    1.72e+00
2004 11 02  0645    53311   24300      0    5.68e+00    0    1.66e+00
2004 11 02  0650    53311   24600      0    5.80e+00    0    1.74e+00
2004 11 02  0655    53311   24900      0    5.87e+00    0    1.73e+00
2004 11 02  0700    53311   25200      0    5.97e+00    0    1.75e+00
2004 11 02  0705    53311   25500      0    5.93e+00    0    1.70e+00
2004 11 02  0710    53311   25800      0    5.90e+00    0    1.72e+00
2004 11 02  0715    53311   26100      0    6.18e+00    0    1.79e+00
2004 11 02  0720    53311   26400      0    5.98e+00    0    1.72e+00
2004 11 02  0725    53311   26700      0    5.90e+00    0    1.74e+00
2004 11 02  0730    53311   27000      0    5.80e+00    0    1.71e+00
2004 11 02  0735    53311   27300      0    5.90e+00    0    1.74e+00
2004 11 02  0740    53311   27600      0    5.93e+00    0    1.77e+00
2004 11 02  0745    53311   27900      0    5.97e+00    0    1.84e+00
2004 11 02  0750    53311   28200      0    5.82e+00    0    1.76e+00
2004 11 02  0755    53311   28500      0    5.84e+00    0    1.75e+00
2004 11 02  0800    53311   28800      0    5.85e+00    0    1.75e+00
2004 11 02  0805    53311   29100      0    5.86e+00    0    1.77e+00
2004 11 02  0810    53311   29400      0    5.90e+00    0    1.79e+00
2004 11 02  0815    53311   29700      0    5.76e+00    0    1.73e+00
2004 11 02  0820    53311   30000      0    5.60e+00    0    1.74e+00
2004 11 02  0825    53311   30300      0    5.49e+00    0    1.68e+00
2004 11 02  0830    53311   30600      0    5.46e+00    0    1.65e+00
2004 11 02  0835    53311   30900      0    5.39e+00    0    1.64e+00
2004 11 02  0840    53311   31200      0    5.49e+00    0    1.69e+00
2004 11 02  0845    53311   31500      0    5.40e+00    0    1.69e+00
2004 11 02  0850    53311   31800      0    5.42e+00    0    1.67e+00
2004 11 02  0855    53311   32100      0    5.36e+00    0    1.65e+00
2004 11 02  0900    53311   32400      0    5.48e+00    0    1.67e+00
2004 11 02  0905    53311   32700      0    5.48e+00    0    1.69e+00
2004 11 02  0910    53311   33000      0    5.62e+00    0    1.71e+00
2004 11 02  0915    53311   33300      0    5.41e+00    0    1.64e+00
2004 11 02  0920    53311   33600      0    5.35e+00    0    1.63e+00
2004 11 02  0925    53311   33900      0    5.38e+00    0    1.64e+00
2004 11 02  0930    53311   34200      0    5.55e+00    0    1.71e+00
2004 11 02  0935    53311   34500      0    5.55e+00    0    1.71e+00
2004 11 02  0940    53311   34800      0    5.39e+00    0    1.64e+00
2004 11 02  0945    53311   35100      0    5.40e+00    0    1.62e+00
2004 11 02  0950    53311   35400      0    5.30e+00    0    1.66e+00
2004 11 02  0955    53311   35700      0    5.38e+00    0    1.67e+00
2004 11 02  1000    53311   36000      0    5.23e+00    0    1.62e+00
2004 11 02  1005    53311   36300      0    5.23e+00    0    1.63e+00
2004 11 02  1010    53311   36600      0    5.17e+00    0    1.62e+00
2004 11 02  1015    53311   36900      0    5.11e+00    0    1.60e+00
2004 11 02  1020    53311   37200      0    5.09e+00    0    1.58e+00
2004 11 02  1025    53311   37500      0    5.09e+00    0    1.62e+00
2004 11 02  1030    53311   37800      0    4.97e+00    0    1.54e+00
2004 11 02  1035    53311   38100      0    4.93e+00    0    1.56e+00
2004 11 02  1040    53311   38400      0    4.77e+00    0    1.53e+00
2004 11 02  1045    53311   38700      0    5.02e+00    0    1.55e+00
2004 11 02  1050    53311   39000      0    4.98e+00    0    1.55e+00
2004 11 02  1055    53311   39300      0    4.74e+00    0    1.51e+00
2004 11 02  1100    53311   39600      0    4.79e+00    0    1.53e+00
2004 11 02  1105    53311   39900      0    4.83e+00    0    1.53e+00
2004 11 02  1110    53311   40200      0    4.80e+00    0    1.49e+00
2004 11 02  1115    53311   40500      0    4.79e+00    0    1.49e+00
2004 11 02  1120    53311   40800      0    4.77e+00    0    1.49e+00
2004 11 02  1125    53311   41100      0    4.80e+00    0    1.52e+00
2004 11 02  1130    53311   41400      0    4.75e+00    0    1.50e+00
2004 11 02  1135    53311   41700      0    4.66e+00    0    1.46e+00
2004 11 02  1140    53311   42000      0    4.57e+00    0    1.45e+00
2004 11 02  1145    53311   42300      0    4.61e+00    0    1.48e+00
2004 11 02  1150    53311   42600      0    4.61e+00    0    1.50e+00
2004 11 02  1155    53311   42900      0    4.59e+00    0    1.51e+00
2004 11 02  1200    53311   43200      0    4.52e+00    0    1.48e+00
2004 11 02  1205    53311   43500      0    4.52e+00    0    1.50e+00
2004 11 02  1210    53311   43800      0    4.42e+00    0    1.46e+00
2004 11 02  1215    53311   44100      0    4.41e+00    0    1.42e+00
2004 11 02  1220    53311   44400      0    4.37e+00    0    1.44e+00
2004 11 02  1225    53311   44700      0    4.42e+00    0    1.47e+00
2004 11 02  1230    53311   45000      0    4.28e+00    0    1.40e+00
2004 11 02  1235    53311   45300      0    4.23e+00    0    1.41e+00
2004 11 02  1240    53311   45600      0    4.32e+00    0    1.44e+00
2004 11 02  1245    53311   45900      0    4.28e+00    0    1.40e+00
2004 11 02  1250    53311   46200      0    4.22e+00    0    1.38e+00
2004 11 02  1255    53311   46500      0    4.16e+00    0    1.43e+00
2004 11 02  1300    53311   46800      0    4.09e+00    0    1.42e+00
2004 11 02  1305    53311   47100      0    4.05e+00    0    1.38e+00
2004 11 02  1310    53311   47400      0    4.06e+00    0    1.37e+00
2004 11 02  1315    53311   47700      0    3.96e+00    0    1.34e+00
2004 11 02  1320    53311   48000      0    3.96e+00    0    1.37e+00
2004 11 02  1325    53311   48300      0    3.99e+00    0    1.38e+00
2004 11 02  1330    53311   48600      0    3.98e+00    0    1.36e+00
2004 11 02  1335    53311   48900      0    3.93e+00    0    1.36e+00
2004 11 02  1340    53311   49200      0    3.92e+00    0    1.34e+00
2004 11 02  1345    53311   49500      0    3.91e+00    0    1.32e+00
2004 11 02  1350    53311   49800      0    3.94e+00    0    1.35e+00
2004 11 02  1355    53311   50100      0    3.90e+00    0    1.34e+00
2004 11 02  1400    53311   50400      0    3.87e+00    0    1.34e+00
2004 11 02  1405    53311   50700      0    3.95e+00    0    1.36e+00
2004 11 02  1410    53311   51000      0    3.90e+00    0    1.38e+00
2004 11 02  1415    53311   51300      0    3.89e+00    0    1.34e+00
2004 11 02  1420    53311   51600      0    3.95e+00    0    1.40e+00
2004 11 02  1425    53311   51900      0    3.89e+00    0    1.34e+00
2004 11 02  1430    53311   52200      0    3.88e+00    0    1.35e+00
2004 11 02  1435    53311   52500      0    3.90e+00    0    1.34e+00
2004 11 02  1440    53311   52800      0    3.91e+00    0    1.38e+00
2004 11 02  1445    53311   53100      0    3.80e+00    0    1.34e+00
2004 11 02  1450    53311   53400      0    3.72e+00    0    1.32e+00
2004 11 02  1455    53311   53700      0    3.69e+00    0    1.32e+00
2004 11 02  1500    53311   54000      0    3.55e+00    0    1.28e+00
2004 11 02  1505    53311   54300      0    3.56e+00    0    1.31e+00
2004 11 02  1510    53311   54600      0    3.54e+00    0    1.29e+00
2004 11 02  1515    53311   54900      0    3.55e+00    0    1.30e+00
2004 11 02  1520    53311   55200      0    3.50e+00    0    1.28e+00
2004 11 02  1525    53311   55500      0    3.54e+00    0    1.29e+00
2004 11 02  1530    53311   55800      0    3.52e+00    0    1.26e+00
2004 11 02  1535    53311   56100      9   -1.00e+05    9   -1.00e+05
2004 11 02  1540    53311   56400      9   -1.00e+05    9   -1.00e+05
2004 11 02  1545    53311   56700      9   -1.00e+05    9   -1.00e+05
2004 11 02  1550    53311   57000      9   -1.00e+05    9   -1.00e+05
2004 11 02  1555    53311   57300      9   -1.00e+05    9   -1.00e+05
2004 11 02  1600    53311   57600      9   -1.00e+05    9   -1.00e+05
2004 11 02  1605    53311   57900      9   -1.00e+05    9   -1.00e+05
2004 11 02  1610    53311   58200      9   -1.00e+05    9   -1.00e+05
2004 11 02  1615    53311   58500      0    3.19e+00    0    1.23e+00
2004 11 02  1620    53311   58800      0    3.03e+00    0    1.24e+00
2004 11 02  1625    53311   59100      0    2.82e+00    0    1.18e+00
2004 11 02  1630    53311   59400      0    2.60e+00    0    1.14e+00
2004 11 02  1635    53311   59700      0    2.56e+00    0    1.15e+00
2004 11 02  1640    53311   60000      0    2.62e+00    0    1.14e+00
2004 11 02  1645    53311   60300      0    2.61e+00    0    1.15e+00
2004 11 02  1650    53311   60600      0    2.58e+00    0    1.14e+00
2004 11 02  1655    53311   60900      0    2.52e+00    0    1.13e+00
2004 11 02  1700    53311   61200      0    2.50e+00    0    1.11e+00
2004 11 02  1705    53311   61500      0    2.54e+00    0    1.14e+00
2004 11 02  1710    53311   61800      0    2.62e+00    0    1.18e+00
2004 11 02  1715    53311   62100      0    2.68e+00    0    1.15e+00
2004 11 02  1720    53311   62400      0    2.70e+00    0    1.16e+00
2004 11 02  1725    53311   62700      0    2.67e+00    0    1.16e+00
2004 11 02  1730    53311   63000      0    2.51e+00    0    1.13e+00
2004 11 02  1735    53311   63300      0    2.55e+00    0    1.13e+00
2004 11 02  1740    53311   63600      0    2.47e+00    0    1.11e+00
2004 11 02  1745    53311   63900      0    2.48e+00    0    1.12e+00
2004 11 02  1750    53311   64200      0    2.45e+00    0    1.11e+00
2004 11 02  1755    53311   64500      0    2.31e+00    0    1.07e+00
2004 11 02  1800    53311   64800      0    2.26e+00    0    1.10e+00
2004 11 02  1805    53311   65100      0    2.24e+00    0    1.10e+00
2004 11 02  1810    53311   65400      0    2.19e+00    0    1.07e+00
2004 11 02  1815    53311   65700      0    2.30e+00    0    1.10e+00
2004 11 02  1820    53311   66000      0    2.19e+00    0    1.07e+00
2004 11 02  1825    53311   66300      0    2.16e+00    0    1.06e+00
2004 11 02  1830    53311   66600      0    2.18e+00    0    1.09e+00
2004 11 02  1835    53311   66900      0    2.14e+00    0    1.10e+00
2004 11 02  1840    53311   67200      0    2.13e+00    0    1.07e+00
2004 11 02  1845    53311   67500      0    2.15e+00    0    1.07e+00
2004 11 02  1850    53311   67800      0    2.14e+00    0    1.07e+00
2004 11 02  1855    53311   68100      0    2.18e+00    0    1.09e+00
2004 11 02  1900    53311   68400      0    2.17e+00    0    1.08e+00
2004 11 02  1905    53311   68700      0    2.17e+00    0    1.07e+00
2004 11 02  1910    53311   69000      0    2.17e+00    0    1.05e+00
2004 11 02  1915    53311   69300      0    2.16e+00    0    1.09e+00
2004 11 02  1920    53311   69600      0    2.13e+00    0    1.07e+00
2004 11 02  1925    53311   69900      0    2.12e+00    0    1.07e+00
2004 11 02  1930    53311   70200      0    2.17e+00    0    1.09e+00
2004 11 02  1935    53311   70500      0    2.15e+00    0    1.09e+00
2004 11 02  1940    53311   70800      0    2.08e+00    0    1.04e+00
2004 11 02  1945    53311   71100      0    2.09e+00    0    1.05e+00
2004 11 02  1950    53311   71400      0    2.10e+00    0    1.05e+00
2004 11 02  1955    53311   71700      0    2.10e+00    0    1.05e+00
2004 11 02  2000    53311   72000      0    2.14e+00    0    1.08e+00
2004 11 02  2005    53311   72300      0    2.12e+00    0    1.06e+00
2004 11 02  2010    53311   72600      0    2.13e+00    0    1.06e+00
2004 11 02  2015    53311   72900      0    2.09e+00    0    1.06e+00
2004 11 02  2020    53311   73200      0    2.07e+00    0    1.03e+00
2004 11 02  2025    53311   73500      0    2.05e+00    0    1.05e+00
2004 11 02  2030    53311   73800      0    1.99e+00    0    1.03e+00
2004 11 02  2035    53311   74100      0    2.05e+00    0    1.06e+00
2004 11 02  2040    53311   74400      0    2.02e+00    0    1.03e+00
2004 11 02  2045    53311   74700      0    2.03e+00    0    1.04e+00
2004 11 02  2050    53311   75000      0    2.01e+00    0    1.05e+00
2004 11 02  2055    53311   75300      0    2.03e+00    0    1.03e+00
2004 11 02  2100    53311   75600      0    2.06e+00    0    1.03e+00
2004 11 02  2105    53311   75900      0    2.07e+00    0    1.06e+00
2004 11 02  2110    53311   76200      0    2.02e+00    0    1.03e+00
2004 11 02  2115    53311   76500      0    2.02e+00    0    1.04e+00
2004 11 02  2120    53311   76800      0    1.99e+00    0    1.02e+00
2004 11 02  2125    53311   77100      0    2.00e+00    0    1.04e+00
2004 11 02  2130    53311   77400      0    1.95e+00    0    1.02e+00
2004 11 02  2135    53311   77700      0    1.97e+00    0    1.04e+00
2004 11 02  2140    53311   78000      0    1.97e+00    0    1.02e+00
2004 11 02  2145    53311   78300      0    1.93e+00    0    9.96e-01
2004 11 02  2150    53311   78600      0    1.90e+00    0    9.85e-01
2004 11 02  2155    53311   78900      0    1.89e+00    0    9.81e-01
2004 11 02  2200    53311   79200      0    1.92e+00    0    1.00e+00
2004 11 02  2205    53311   79500      0    1.95e+00    0    1.03e+00
2004 11 02  2210    53311   79800      0    1.92e+00    0    9.89e-01
2004 11 02  2215    53311   80100      0    1.90e+00    0    9.87e-01
2004 11 02  2220    53311   80400      0    1.93e+00    0    1.01e+00
2004 11 02  2225    53311   80700      0    1.94e+00    0    1.01e+00
2004 11 02  2230    53311   81000      0    1.94e+00    0    1.01e+00
2004 11 02  2235    53311   81300      0    1.92e+00    0    9.92e-01
2004 11 02  2240    53311   81600      0    1.92e+00    0    1.01e+00
2004 11 02  2245    53311   81900      0    1.91e+00    0    1.00e+00
2004 11 02  2250    53311   82200      0    1.87e+00    0    9.93e-01
2004 11 02  2255    53311   82500      0    1.90e+00    0    1.00e+00
2004 11 02  2300    53311   82800      0    1.85e+00    0    9.79e-01
2004 11 02  2305    53311   83100      0    1.84e+00    0    9.84e-01
2004 11 02  2310    53311   83400      0    1.87e+00    0    1.01e+00
2004 11 02  2315    53311   83700      0    1.87e+00    0    1.02e+00
2004 11 02  2320    53311   84000      0    1.85e+00    0    9.96e-01
2004 11 02  2325    53311   84300      0    1.81e+00    0    9.70e-01
2004 11 02  2330    53311   84600      0    1.83e+00    0    9.80e-01
2004 11 02  2335    53311   84900      0    1.82e+00    0    9.90e-01
2004 11 02  2340    53311   85200      0    1.82e+00    0    9.82e-01
2004 11 02  2345    53311   85500      0    1.77e+00    0    9.60e-01
2004 11 02  2350    53311   85800      0    1.77e+00    0    9.77e-01
2004 11 02  2355    53311   86100      0    1.84e+00    0    1.00e+00
