:Data_list: 20051115_ace_sis_5m.txt
:Created: 2005 Nov 16 0011 UT
# Prepared by the U.S. Dept. of Commerce, NOAA, Space Environment Center.
# Please send comments and suggestions to SEC.Webmaster@noaa.gov 
# 
# Units: proton flux p/cs2-sec-ster
# Status(S): 0 = nominal data, 1 to 8 = bad data record, 9 = no data
# Missing data values: -1.00e+05
# Source: ACE Satellite - Solar Isotope Spectrometer
#
# 5-minute averaged Real-time Integral Flux of High-energy Solar Protons
# 
#                 Modified Seconds
# UT Date   Time   Julian  of the      ---- Integral Proton Flux ----
# YR MO DA  HHMM     Day     Day       S    > 10 MeV    S    > 30 MeV
#--------------------------------------------------------------------
2005 11 15  0000    53689       0      0    1.41e+00    0    9.91e-01
2005 11 15  0005    53689     300      0    1.39e+00    0    9.85e-01
2005 11 15  0010    53689     600      0    1.41e+00    0    9.96e-01
2005 11 15  0015    53689     900      0    1.35e+00    0    9.51e-01
2005 11 15  0020    53689    1200      0    1.36e+00    0    9.61e-01
2005 11 15  0025    53689    1500      0    1.40e+00    0    9.87e-01
2005 11 15  0030    53689    1800      0    1.38e+00    0    9.74e-01
2005 11 15  0035    53689    2100      0    1.40e+00    0    9.84e-01
2005 11 15  0040    53689    2400      0    1.38e+00    0    9.73e-01
2005 11 15  0045    53689    2700      0    1.40e+00    0    9.80e-01
2005 11 15  0050    53689    3000      0    1.39e+00    0    9.61e-01
2005 11 15  0055    53689    3300      0    1.40e+00    0    9.82e-01
2005 11 15  0100    53689    3600      0    1.39e+00    0    9.75e-01
2005 11 15  0105    53689    3900      0    1.38e+00    0    9.69e-01
2005 11 15  0110    53689    4200      0    1.39e+00    0    9.79e-01
2005 11 15  0115    53689    4500      0    1.37e+00    0    9.48e-01
2005 11 15  0120    53689    4800      0    1.40e+00    0    9.83e-01
2005 11 15  0125    53689    5100      0    1.38e+00    0    9.70e-01
2005 11 15  0130    53689    5400      0    1.40e+00    0    9.85e-01
2005 11 15  0135    53689    5700      0    1.36e+00    0    9.54e-01
2005 11 15  0140    53689    6000      0    1.40e+00    0    9.81e-01
2005 11 15  0145    53689    6300      0    1.38e+00    0    9.68e-01
2005 11 15  0150    53689    6600      0    1.41e+00    0    9.76e-01
2005 11 15  0155    53689    6900      0    1.41e+00    0    9.86e-01
2005 11 15  0200    53689    7200      0    1.39e+00    0    9.78e-01
2005 11 15  0205    53689    7500      0    1.37e+00    0    9.56e-01
2005 11 15  0210    53689    7800      0    1.36e+00    0    9.53e-01
2005 11 15  0215    53689    8100      0    1.40e+00    0    9.91e-01
2005 11 15  0220    53689    8400      0    1.35e+00    0    9.39e-01
2005 11 15  0225    53689    8700      0    1.37e+00    0    9.58e-01
2005 11 15  0230    53689    9000      0    1.37e+00    0    9.53e-01
2005 11 15  0235    53689    9300      0    1.37e+00    0    9.62e-01
2005 11 15  0240    53689    9600      0    1.37e+00    0    9.59e-01
2005 11 15  0245    53689    9900      0    1.36e+00    0    9.54e-01
2005 11 15  0250    53689   10200      0    1.42e+00    0    9.95e-01
2005 11 15  0255    53689   10500      0    1.41e+00    0    9.91e-01
2005 11 15  0300    53689   10800      0    1.42e+00    0    9.94e-01
2005 11 15  0305    53689   11100      0    1.39e+00    0    9.74e-01
2005 11 15  0310    53689   11400      0    1.39e+00    0    9.89e-01
2005 11 15  0315    53689   11700      0    1.40e+00    0    9.75e-01
2005 11 15  0320    53689   12000      0    1.40e+00    0    9.92e-01
2005 11 15  0325    53689   12300      0    1.41e+00    0    9.85e-01
2005 11 15  0330    53689   12600      0    1.39e+00    0    9.77e-01
2005 11 15  0335    53689   12900      0    1.39e+00    0    9.77e-01
2005 11 15  0340    53689   13200      0    1.38e+00    0    9.67e-01
2005 11 15  0345    53689   13500      0    1.36e+00    0    9.46e-01
2005 11 15  0350    53689   13800      0    1.43e+00    0    1.00e+00
2005 11 15  0355    53689   14100      0    1.39e+00    0    9.78e-01
2005 11 15  0400    53689   14400      0    1.36e+00    0    9.64e-01
2005 11 15  0405    53689   14700      0    1.38e+00    0    9.76e-01
2005 11 15  0410    53689   15000      0    1.38e+00    0    9.71e-01
2005 11 15  0415    53689   15300      0    1.41e+00    0    1.00e+00
2005 11 15  0420    53689   15600      0    1.38e+00    0    9.80e-01
2005 11 15  0425    53689   15900      0    1.36e+00    0    9.54e-01
2005 11 15  0430    53689   16200      0    1.37e+00    0    9.68e-01
2005 11 15  0435    53689   16500      0    1.43e+00    0    9.92e-01
2005 11 15  0440    53689   16800      0    1.40e+00    0    9.77e-01
2005 11 15  0445    53689   17100      0    1.38e+00    0    9.70e-01
2005 11 15  0450    53689   17400      0    1.40e+00    0    9.79e-01
2005 11 15  0455    53689   17700      0    1.38e+00    0    9.70e-01
2005 11 15  0500    53689   18000      0    1.40e+00    0    9.90e-01
2005 11 15  0505    53689   18300      0    1.38e+00    0    9.76e-01
2005 11 15  0510    53689   18600      0    1.38e+00    0    9.70e-01
2005 11 15  0515    53689   18900      0    1.41e+00    0    9.83e-01
2005 11 15  0520    53689   19200      0    1.39e+00    0    9.81e-01
2005 11 15  0525    53689   19500      0    1.42e+00    0    9.92e-01
2005 11 15  0530    53689   19800      0    1.39e+00    0    9.68e-01
2005 11 15  0535    53689   20100      0    1.43e+00    0    9.92e-01
2005 11 15  0540    53689   20400      0    1.41e+00    0    9.94e-01
2005 11 15  0545    53689   20700      0    1.39e+00    0    9.82e-01
2005 11 15  0550    53689   21000      0    1.38e+00    0    9.56e-01
2005 11 15  0555    53689   21300      0    1.41e+00    0    9.90e-01
2005 11 15  0600    53689   21600      0    1.39e+00    0    9.71e-01
2005 11 15  0605    53689   21900      0    1.40e+00    0    9.73e-01
2005 11 15  0610    53689   22200      0    1.42e+00    0    9.88e-01
2005 11 15  0615    53689   22500      0    1.37e+00    0    9.76e-01
2005 11 15  0620    53689   22800      0    1.43e+00    0    1.02e+00
2005 11 15  0625    53689   23100      0    1.38e+00    0    9.53e-01
2005 11 15  0630    53689   23400      0    1.37e+00    0    9.67e-01
2005 11 15  0635    53689   23700      0    1.41e+00    0    9.96e-01
2005 11 15  0640    53689   24000      0    1.39e+00    0    9.74e-01
2005 11 15  0645    53689   24300      9   -1.00e+05    9   -1.00e+05
2005 11 15  0650    53689   24600      0    1.43e+00    0    1.01e+00
2005 11 15  0655    53689   24900      0    1.38e+00    0    9.66e-01
2005 11 15  0700    53689   25200      0    1.42e+00    0    9.93e-01
2005 11 15  0705    53689   25500      0    1.40e+00    0    9.88e-01
2005 11 15  0710    53689   25800      0    1.37e+00    0    9.56e-01
2005 11 15  0715    53689   26100      0    1.38e+00    0    9.67e-01
2005 11 15  0720    53689   26400      0    1.37e+00    0    9.57e-01
2005 11 15  0725    53689   26700      0    1.43e+00    0    1.01e+00
2005 11 15  0730    53689   27000      0    1.39e+00    0    9.83e-01
2005 11 15  0735    53689   27300      0    1.41e+00    0    9.80e-01
2005 11 15  0740    53689   27600      0    1.37e+00    0    9.63e-01
2005 11 15  0745    53689   27900      0    1.41e+00    0    9.83e-01
2005 11 15  0750    53689   28200      0    1.49e+00    0    9.71e-01
2005 11 15  0755    53689   28500      0    1.42e+00    0    9.96e-01
2005 11 15  0800    53689   28800      0    1.40e+00    0    9.74e-01
2005 11 15  0805    53689   29100      0    1.39e+00    0    9.84e-01
2005 11 15  0810    53689   29400      0    1.39e+00    0    9.72e-01
2005 11 15  0815    53689   29700      0    1.41e+00    0    9.92e-01
2005 11 15  0820    53689   30000      0    1.36e+00    0    9.53e-01
2005 11 15  0825    53689   30300      0    1.39e+00    0    9.77e-01
2005 11 15  0830    53689   30600      0    1.41e+00    0    9.87e-01
2005 11 15  0835    53689   30900      0    1.40e+00    0    9.85e-01
2005 11 15  0840    53689   31200      0    1.40e+00    0    9.87e-01
2005 11 15  0845    53689   31500      0    1.39e+00    0    9.71e-01
2005 11 15  0850    53689   31800      0    1.40e+00    0    9.90e-01
2005 11 15  0855    53689   32100      0    1.40e+00    0    9.80e-01
2005 11 15  0900    53689   32400      0    1.40e+00    0    9.83e-01
2005 11 15  0905    53689   32700      0    1.38e+00    0    9.79e-01
2005 11 15  0910    53689   33000      0    1.36e+00    0    9.58e-01
2005 11 15  0915    53689   33300      0    1.41e+00    0    9.94e-01
2005 11 15  0920    53689   33600      0    1.37e+00    0    9.48e-01
2005 11 15  0925    53689   33900      0    1.38e+00    0    9.63e-01
2005 11 15  0930    53689   34200      0    1.38e+00    0    9.71e-01
2005 11 15  0935    53689   34500      0    1.41e+00    0    9.94e-01
2005 11 15  0940    53689   34800      0    1.40e+00    0    9.83e-01
2005 11 15  0945    53689   35100      0    1.38e+00    0    9.67e-01
2005 11 15  0950    53689   35400      0    1.41e+00    0    9.93e-01
2005 11 15  0955    53689   35700      0    1.37e+00    0    9.65e-01
2005 11 15  1000    53689   36000      0    1.37e+00    0    9.56e-01
2005 11 15  1005    53689   36300      0    1.38e+00    0    9.79e-01
2005 11 15  1010    53689   36600      0    1.42e+00    0    9.96e-01
2005 11 15  1015    53689   36900      0    1.40e+00    0    9.87e-01
2005 11 15  1020    53689   37200      0    1.37e+00    0    9.59e-01
2005 11 15  1025    53689   37500      0    1.42e+00    0    9.90e-01
2005 11 15  1030    53689   37800      0    1.39e+00    0    9.66e-01
2005 11 15  1035    53689   38100      0    1.37e+00    0    9.59e-01
2005 11 15  1040    53689   38400      0    1.36e+00    0    9.48e-01
2005 11 15  1045    53689   38700      0    1.37e+00    0    9.68e-01
2005 11 15  1050    53689   39000      0    1.39e+00    0    9.81e-01
2005 11 15  1055    53689   39300      0    1.42e+00    0    9.94e-01
2005 11 15  1100    53689   39600      0    1.40e+00    0    9.77e-01
2005 11 15  1105    53689   39900      0    1.39e+00    0    9.79e-01
2005 11 15  1110    53689   40200      0    1.40e+00    0    9.86e-01
2005 11 15  1115    53689   40500      0    1.41e+00    0    9.84e-01
2005 11 15  1120    53689   40800      0    1.38e+00    0    9.72e-01
2005 11 15  1125    53689   41100      0    1.37e+00    0    9.55e-01
2005 11 15  1130    53689   41400      0    1.40e+00    0    9.87e-01
2005 11 15  1135    53689   41700      0    1.42e+00    0    9.97e-01
2005 11 15  1140    53689   42000      0    1.40e+00    0    9.66e-01
2005 11 15  1145    53689   42300      0    1.39e+00    0    9.77e-01
2005 11 15  1150    53689   42600      0    1.38e+00    0    9.64e-01
2005 11 15  1155    53689   42900      0    1.41e+00    0    9.94e-01
2005 11 15  1200    53689   43200      0    1.38e+00    0    9.66e-01
2005 11 15  1205    53689   43500      0    1.38e+00    0    9.72e-01
2005 11 15  1210    53689   43800      0    1.40e+00    0    9.88e-01
2005 11 15  1215    53689   44100      0    1.40e+00    0    9.84e-01
2005 11 15  1220    53689   44400      0    1.36e+00    0    9.54e-01
2005 11 15  1225    53689   44700      0    1.39e+00    0    9.78e-01
2005 11 15  1230    53689   45000      0    1.39e+00    0    9.61e-01
2005 11 15  1235    53689   45300      0    1.41e+00    0    9.93e-01
2005 11 15  1240    53689   45600      0    1.39e+00    0    9.82e-01
2005 11 15  1245    53689   45900      0    1.37e+00    0    9.68e-01
2005 11 15  1250    53689   46200      0    1.40e+00    0    9.93e-01
2005 11 15  1255    53689   46500      0    1.40e+00    0    9.81e-01
2005 11 15  1300    53689   46800      0    1.41e+00    0    9.89e-01
2005 11 15  1305    53689   47100      0    1.36e+00    0    9.58e-01
2005 11 15  1310    53689   47400      0    1.39e+00    0    9.76e-01
2005 11 15  1315    53689   47700      0    1.35e+00    0    9.51e-01
2005 11 15  1320    53689   48000      0    1.39e+00    0    9.81e-01
2005 11 15  1325    53689   48300      0    1.37e+00    0    9.60e-01
2005 11 15  1330    53689   48600      0    1.40e+00    0    9.80e-01
2005 11 15  1335    53689   48900      0    1.39e+00    0    9.67e-01
2005 11 15  1340    53689   49200      0    1.38e+00    0    9.66e-01
2005 11 15  1345    53689   49500      0    1.38e+00    0    9.73e-01
2005 11 15  1350    53689   49800      0    1.41e+00    0    1.00e+00
2005 11 15  1355    53689   50100      0    1.41e+00    0    9.98e-01
2005 11 15  1400    53689   50400      0    1.39e+00    0    9.92e-01
2005 11 15  1405    53689   50700      0    1.44e+00    0    1.02e+00
2005 11 15  1410    53689   51000      0    1.42e+00    0    1.00e+00
2005 11 15  1415    53689   51300      0    1.38e+00    0    9.73e-01
2005 11 15  1420    53689   51600      0    1.38e+00    0    9.69e-01
2005 11 15  1425    53689   51900      0    1.42e+00    0    9.99e-01
2005 11 15  1430    53689   52200      0    1.39e+00    0    9.76e-01
2005 11 15  1435    53689   52500      0    1.40e+00    0    9.75e-01
2005 11 15  1440    53689   52800      0    1.37e+00    0    9.56e-01
2005 11 15  1445    53689   53100      0    1.39e+00    0    9.77e-01
2005 11 15  1450    53689   53400      0    1.40e+00    0    9.86e-01
2005 11 15  1455    53689   53700      0    1.40e+00    0    9.74e-01
2005 11 15  1500    53689   54000      0    1.40e+00    0    9.81e-01
2005 11 15  1505    53689   54300      0    1.40e+00    0    9.87e-01
2005 11 15  1510    53689   54600      0    1.38e+00    0    9.81e-01
2005 11 15  1515    53689   54900      0    1.41e+00    0    9.96e-01
2005 11 15  1520    53689   55200      0    1.40e+00    0    9.78e-01
2005 11 15  1525    53689   55500      0    1.38e+00    0    9.66e-01
2005 11 15  1530    53689   55800      0    1.41e+00    0    9.97e-01
2005 11 15  1535    53689   56100      0    1.37e+00    0    9.57e-01
2005 11 15  1540    53689   56400      0    1.39e+00    0    9.65e-01
2005 11 15  1545    53689   56700      0    1.42e+00    0    9.92e-01
2005 11 15  1550    53689   57000      0    1.40e+00    0    9.78e-01
2005 11 15  1555    53689   57300      0    1.40e+00    0    9.82e-01
2005 11 15  1600    53689   57600      0    1.38e+00    0    9.58e-01
2005 11 15  1605    53689   57900      0    1.39e+00    0    9.73e-01
2005 11 15  1610    53689   58200      0    1.38e+00    0    9.54e-01
2005 11 15  1615    53689   58500      0    1.40e+00    0    9.72e-01
2005 11 15  1620    53689   58800      0    1.38e+00    0    9.73e-01
2005 11 15  1625    53689   59100      0    1.39e+00    0    9.66e-01
2005 11 15  1630    53689   59400      0    1.41e+00    0    9.91e-01
2005 11 15  1635    53689   59700      0    1.39e+00    0    9.70e-01
2005 11 15  1640    53689   60000      0    1.44e+00    0    1.01e+00
2005 11 15  1645    53689   60300      0    1.41e+00    0    9.90e-01
2005 11 15  1650    53689   60600      0    1.39e+00    0    9.84e-01
2005 11 15  1655    53689   60900      0    1.39e+00    0    9.62e-01
2005 11 15  1700    53689   61200      0    1.37e+00    0    9.59e-01
2005 11 15  1705    53689   61500      0    1.40e+00    0    9.85e-01
2005 11 15  1710    53689   61800      0    1.40e+00    0    9.79e-01
2005 11 15  1715    53689   62100      0    1.39e+00    0    9.72e-01
2005 11 15  1720    53689   62400      0    1.41e+00    0    9.84e-01
2005 11 15  1725    53689   62700      0    1.38e+00    0    9.60e-01
2005 11 15  1730    53689   63000      0    1.37e+00    0    9.70e-01
2005 11 15  1735    53689   63300      0    1.38e+00    0    9.76e-01
2005 11 15  1740    53689   63600      0    1.39e+00    0    9.76e-01
2005 11 15  1745    53689   63900      0    1.35e+00    0    9.49e-01
2005 11 15  1750    53689   64200      0    1.40e+00    0    9.90e-01
2005 11 15  1755    53689   64500      0    1.42e+00    0    1.01e+00
2005 11 15  1800    53689   64800      0    1.40e+00    0    9.90e-01
2005 11 15  1805    53689   65100      0    1.42e+00    0    1.00e+00
2005 11 15  1810    53689   65400      0    1.40e+00    0    9.78e-01
2005 11 15  1815    53689   65700      0    1.42e+00    0    1.00e+00
2005 11 15  1820    53689   66000      0    1.41e+00    0    9.89e-01
2005 11 15  1825    53689   66300      0    1.40e+00    0    9.92e-01
2005 11 15  1830    53689   66600      0    1.44e+00    0    1.01e+00
2005 11 15  1835    53689   66900      0    7.97e+00    0    2.08e+00
2005 11 15  1840    53689   67200      0    1.40e+00    0    9.79e-01
2005 11 15  1845    53689   67500      0    1.42e+00    0    9.88e-01
2005 11 15  1850    53689   67800      0    1.40e+00    0    9.83e-01
2005 11 15  1855    53689   68100      0    1.39e+00    0    9.81e-01
2005 11 15  1900    53689   68400      0    1.39e+00    0    9.78e-01
2005 11 15  1905    53689   68700      0    1.42e+00    0    9.95e-01
2005 11 15  1910    53689   69000      0    1.38e+00    0    9.63e-01
2005 11 15  1915    53689   69300      0    1.40e+00    0    9.87e-01
2005 11 15  1920    53689   69600      0    1.40e+00    0    9.70e-01
2005 11 15  1925    53689   69900      0    1.41e+00    0    9.79e-01
2005 11 15  1930    53689   70200      0    1.39e+00    0    9.76e-01
2005 11 15  1935    53689   70500      0    1.38e+00    0    9.67e-01
2005 11 15  1940    53689   70800      0    1.42e+00    0    9.96e-01
2005 11 15  1945    53689   71100      0    1.38e+00    0    9.76e-01
2005 11 15  1950    53689   71400      0    1.42e+00    0    9.93e-01
2005 11 15  1955    53689   71700      0    1.37e+00    0    9.68e-01
2005 11 15  2000    53689   72000      0    1.39e+00    0    9.83e-01
2005 11 15  2005    53689   72300      0    1.43e+00    0    1.01e+00
2005 11 15  2010    53689   72600      0    1.40e+00    0    9.89e-01
2005 11 15  2015    53689   72900      0    1.41e+00    0    9.93e-01
2005 11 15  2020    53689   73200      0    1.40e+00    0    9.80e-01
2005 11 15  2025    53689   73500      0    1.40e+00    0    9.84e-01
2005 11 15  2030    53689   73800      0    1.32e+00    0    9.31e-01
2005 11 15  2035    53689   74100      0    1.41e+00    0    9.94e-01
2005 11 15  2040    53689   74400      0    1.40e+00    0    9.76e-01
2005 11 15  2045    53689   74700      0    1.43e+00    0    1.02e+00
2005 11 15  2050    53689   75000      0    1.40e+00    0    9.78e-01
2005 11 15  2055    53689   75300      0    1.44e+00    0    1.01e+00
2005 11 15  2100    53689   75600      0    1.40e+00    0    9.89e-01
2005 11 15  2105    53689   75900      0    1.40e+00    0    9.84e-01
2005 11 15  2110    53689   76200      0    1.38e+00    0    9.63e-01
2005 11 15  2115    53689   76500      0    1.39e+00    0    9.77e-01
2005 11 15  2120    53689   76800      0    1.39e+00    0    9.79e-01
2005 11 15  2125    53689   77100      0    1.39e+00    0    9.79e-01
2005 11 15  2130    53689   77400      0    1.39e+00    0    9.77e-01
2005 11 15  2135    53689   77700      0    1.38e+00    0    9.77e-01
2005 11 15  2140    53689   78000      0    1.39e+00    0    9.80e-01
2005 11 15  2145    53689   78300      0    1.39e+00    0    9.62e-01
2005 11 15  2150    53689   78600      0    1.40e+00    0    9.87e-01
2005 11 15  2155    53689   78900      0    1.42e+00    0    9.95e-01
2005 11 15  2200    53689   79200      0    1.34e+00    0    9.42e-01
2005 11 15  2205    53689   79500      0    1.40e+00    0    9.77e-01
2005 11 15  2210    53689   79800      0    1.42e+00    0    1.00e+00
2005 11 15  2215    53689   80100      0    1.34e+00    0    9.56e-01
2005 11 15  2220    53689   80400      0    1.39e+00    0    9.78e-01
2005 11 15  2225    53689   80700      0    1.40e+00    0    9.84e-01
2005 11 15  2230    53689   81000      0    1.40e+00    0    9.81e-01
2005 11 15  2235    53689   81300      0    1.39e+00    0    9.73e-01
2005 11 15  2240    53689   81600      0    1.40e+00    0    9.86e-01
2005 11 15  2245    53689   81900      0    1.41e+00    0    9.92e-01
2005 11 15  2250    53689   82200      0    1.38e+00    0    9.75e-01
2005 11 15  2255    53689   82500      0    1.42e+00    0    9.91e-01
2005 11 15  2300    53689   82800      0    1.39e+00    0    9.65e-01
2005 11 15  2305    53689   83100      0    1.35e+00    0    9.40e-01
2005 11 15  2310    53689   83400      0    1.41e+00    0    9.92e-01
2005 11 15  2315    53689   83700      0    1.43e+00    0    9.94e-01
2005 11 15  2320    53689   84000      0    1.42e+00    0    9.93e-01
2005 11 15  2325    53689   84300      0    1.42e+00    0    1.00e+00
2005 11 15  2330    53689   84600      0    1.39e+00    0    9.75e-01
2005 11 15  2335    53689   84900      0    1.39e+00    0    9.84e-01
2005 11 15  2340    53689   85200      0    1.39e+00    0    9.79e-01
2005 11 15  2345    53689   85500      0    1.41e+00    0    9.91e-01
2005 11 15  2350    53689   85800      0    1.41e+00    0    9.90e-01
2005 11 15  2355    53689   86100      0    1.37e+00    0    9.69e-01
