:Data_list: 20050118_ace_sis_5m.txt
:Created: 2005 Jan 19 0011 UT
# Prepared by the U.S. Dept. of Commerce, NOAA, Space Environment Center.
# Please send comments and suggestions to SEC.Webmaster@noaa.gov 
# 
# Units: proton flux p/cs2-sec-ster
# Status(S): 0 = nominal data, 1 to 8 = bad data record, 9 = no data
# Missing data values: -1.00e+05
# Source: ACE Satellite - Solar Isotope Spectrometer
#
# 5-minute averaged Real-time Integral Flux of High-energy Solar Protons
# 
#                 Modified Seconds
# UT Date   Time   Julian  of the      ---- Integral Proton Flux ----
# YR MO DA  HHMM     Day     Day       S    > 10 MeV    S    > 30 MeV
#--------------------------------------------------------------------
2005 01 18  0000    53388       0      0    5.81e+03    0    1.74e+03
2005 01 18  0005    53388     300      0    5.88e+03    0    1.79e+03
2005 01 18  0010    53388     600      0    6.26e+03    0    1.85e+03
2005 01 18  0015    53388     900      0    5.74e+03    0    1.85e+03
2005 01 18  0020    53388    1200      0    5.28e+03    0    1.64e+03
2005 01 18  0025    53388    1500      0    4.85e+03    0    1.54e+03
2005 01 18  0030    53388    1800      0    4.59e+03    0    1.43e+03
2005 01 18  0035    53388    2100      0    4.82e+03    0    1.48e+03
2005 01 18  0040    53388    2400      0    6.65e+03    0    2.29e+03
2005 01 18  0045    53388    2700      0    8.23e+03    0    3.46e+03
2005 01 18  0050    53388    3000      0    8.15e+03    0    3.38e+03
2005 01 18  0055    53388    3300      0    8.15e+03    0    3.39e+03
2005 01 18  0100    53388    3600      0    8.14e+03    0    3.38e+03
2005 01 18  0105    53388    3900      0    8.57e+03    0    3.80e+03
2005 01 18  0110    53388    4200      0    8.40e+03    0    3.63e+03
2005 01 18  0115    53388    4500      0    8.12e+03    0    3.35e+03
2005 01 18  0120    53388    4800      0    7.89e+03    0    3.13e+03
2005 01 18  0125    53388    5100      0    7.75e+03    0    2.98e+03
2005 01 18  0130    53388    5400      0    7.70e+03    0    2.93e+03
2005 01 18  0135    53388    5700      0    7.71e+03    0    2.94e+03
2005 01 18  0140    53388    6000      0    7.75e+03    0    2.98e+03
2005 01 18  0145    53388    6300      0    7.52e+03    0    2.76e+03
2005 01 18  0150    53388    6600      0    7.97e+03    0    3.21e+03
2005 01 18  0155    53388    6900      0    7.94e+03    0    3.18e+03
2005 01 18  0200    53388    7200      0    7.53e+03    0    2.76e+03
2005 01 18  0205    53388    7500      0    7.62e+03    0    2.85e+03
2005 01 18  0210    53388    7800      0    7.49e+03    0    2.73e+03
2005 01 18  0215    53388    8100      0    7.35e+03    0    2.59e+03
2005 01 18  0220    53388    8400      0    7.39e+03    0    2.62e+03
2005 01 18  0225    53388    8700      0    7.32e+03    0    2.55e+03
2005 01 18  0230    53388    9000      0    7.36e+03    0    2.59e+03
2005 01 18  0235    53388    9300      0    7.48e+03    0    2.71e+03
2005 01 18  0240    53388    9600      0    7.12e+03    0    2.35e+03
2005 01 18  0245    53388    9900      0    5.23e+03    0    1.56e+03
2005 01 18  0250    53388   10200      0    3.06e+03    0    1.02e+03
2005 01 18  0255    53388   10500      0    4.36e+03    0    1.39e+03
2005 01 18  0300    53388   10800      0    7.88e+03    0    3.12e+03
2005 01 18  0305    53388   11100      0    7.42e+03    0    2.84e+03
2005 01 18  0310    53388   11400      0    1.23e+04    0    7.49e+03
2005 01 18  0315    53388   11700      0    1.23e+04    0    7.49e+03
2005 01 18  0320    53388   12000      0    1.23e+04    0    7.49e+03
2005 01 18  0325    53388   12300      0    1.23e+04    0    7.49e+03
2005 01 18  0330    53388   12600      0    1.22e+04    0    7.47e+03
2005 01 18  0335    53388   12900      0    1.20e+04    0    7.21e+03
2005 01 18  0340    53388   13200      0    1.12e+04    0    6.39e+03
2005 01 18  0345    53388   13500      0    1.02e+04    0    5.40e+03
2005 01 18  0350    53388   13800      0    1.01e+04    0    5.35e+03
2005 01 18  0355    53388   14100      0    1.05e+04    0    5.71e+03
2005 01 18  0400    53388   14400      0    8.99e+03    0    4.23e+03
2005 01 18  0405    53388   14700      0    9.28e+03    0    4.51e+03
2005 01 18  0410    53388   15000      0    9.98e+03    0    5.22e+03
2005 01 18  0415    53388   15300      0    9.86e+03    0    5.10e+03
2005 01 18  0420    53388   15600      0    9.76e+03    0    5.00e+03
2005 01 18  0425    53388   15900      0    1.15e+04    0    6.72e+03
2005 01 18  0430    53388   16200      0    1.18e+04    0    7.01e+03
2005 01 18  0435    53388   16500      0    1.21e+04    0    7.36e+03
2005 01 18  0440    53388   16800      0    1.20e+04    0    7.27e+03
2005 01 18  0445    53388   17100      0    1.13e+04    0    6.57e+03
2005 01 18  0450    53388   17400      0    1.17e+04    0    6.97e+03
2005 01 18  0455    53388   17700      0    1.08e+04    0    6.05e+03
2005 01 18  0500    53388   18000      0    1.05e+04    0    5.78e+03
2005 01 18  0505    53388   18300      0    1.08e+04    0    6.07e+03
2005 01 18  0510    53388   18600      0    1.04e+04    0    5.68e+03
2005 01 18  0515    53388   18900      0    9.85e+03    0    5.08e+03
2005 01 18  0520    53388   19200      0    9.70e+03    0    4.93e+03
2005 01 18  0525    53388   19500      0    1.02e+04    0    5.42e+03
2005 01 18  0530    53388   19800      0    1.02e+04    0    5.47e+03
2005 01 18  0535    53388   20100      0    1.05e+04    0    5.77e+03
2005 01 18  0540    53388   20400      0    9.25e+03    0    4.48e+03
2005 01 18  0545    53388   20700      0    8.53e+03    0    3.76e+03
2005 01 18  0550    53388   21000      0    9.43e+03    0    4.66e+03
2005 01 18  0555    53388   21300      0    9.69e+03    0    4.92e+03
2005 01 18  0600    53388   21600      0    8.88e+03    0    4.11e+03
2005 01 18  0605    53388   21900      0    8.18e+03    0    3.41e+03
2005 01 18  0610    53388   22200      0    7.76e+03    0    3.00e+03
2005 01 18  0615    53388   22500      0    6.47e+03    0    1.81e+03
2005 01 18  0620    53388   22800      0    6.27e+03    0    1.66e+03
2005 01 18  0625    53388   23100      0    6.86e+03    0    2.10e+03
2005 01 18  0630    53388   23400      0    7.10e+03    0    2.34e+03
2005 01 18  0635    53388   23700      0    7.02e+03    0    2.26e+03
2005 01 18  0640    53388   24000      0    6.95e+03    0    2.19e+03
2005 01 18  0645    53388   24300      0    7.03e+03    0    2.26e+03
2005 01 18  0650    53388   24600      0    7.08e+03    0    2.31e+03
2005 01 18  0655    53388   24900      0    6.76e+03    0    2.00e+03
2005 01 18  0700    53388   25200      0    6.71e+03    0    1.94e+03
2005 01 18  0705    53388   25500      0    6.89e+03    0    2.13e+03
2005 01 18  0710    53388   25800      0    6.81e+03    0    2.05e+03
2005 01 18  0715    53388   26100      0    6.93e+03    0    2.17e+03
2005 01 18  0720    53388   26400      0    6.81e+03    0    2.04e+03
2005 01 18  0725    53388   26700      0    6.88e+03    0    2.11e+03
2005 01 18  0730    53388   27000      0    6.87e+03    0    2.11e+03
2005 01 18  0735    53388   27300      0    6.53e+03    0    1.76e+03
2005 01 18  0740    53388   27600      0    6.25e+03    0    1.56e+03
2005 01 18  0745    53388   27900      0    6.41e+03    0    1.65e+03
2005 01 18  0750    53388   28200      0    6.44e+03    0    1.68e+03
2005 01 18  0755    53388   28500      0    6.16e+03    0    1.42e+03
2005 01 18  0800    53388   28800      0    5.95e+03    0    1.36e+03
2005 01 18  0805    53388   29100      0    6.08e+03    0    1.42e+03
2005 01 18  0810    53388   29400      0    6.26e+03    0    1.51e+03
2005 01 18  0815    53388   29700      0    6.02e+03    0    1.39e+03
2005 01 18  0820    53388   30000      0    6.14e+03    0    1.44e+03
2005 01 18  0825    53388   30300      0    6.27e+03    0    1.51e+03
2005 01 18  0830    53388   30600      0    6.21e+03    0    1.45e+03
2005 01 18  0835    53388   30900      0    6.21e+03    0    1.45e+03
2005 01 18  0840    53388   31200      0    6.26e+03    0    1.49e+03
2005 01 18  0845    53388   31500      0    6.39e+03    0    1.63e+03
2005 01 18  0850    53388   31800      0    6.40e+03    0    1.64e+03
2005 01 18  0855    53388   32100      0    6.44e+03    0    1.67e+03
2005 01 18  0900    53388   32400      0    6.47e+03    0    1.70e+03
2005 01 18  0905    53388   32700      0    6.44e+03    0    1.68e+03
2005 01 18  0910    53388   33000      0    6.40e+03    0    1.63e+03
2005 01 18  0915    53388   33300      0    6.26e+03    0    1.50e+03
2005 01 18  0920    53388   33600      0    6.15e+03    0    1.42e+03
2005 01 18  0925    53388   33900      0    6.21e+03    0    1.46e+03
2005 01 18  0930    53388   34200      0    6.13e+03    0    1.45e+03
2005 01 18  0935    53388   34500      0    5.89e+03    0    1.36e+03
2005 01 18  0940    53388   34800      0    5.53e+03    0    1.24e+03
2005 01 18  0945    53388   35100      0    6.02e+03    0    1.33e+03
2005 01 18  0950    53388   35400      0    5.71e+03    0    1.26e+03
2005 01 18  0955    53388   35700      0    5.06e+03    0    1.13e+03
2005 01 18  1000    53388   36000      0    4.68e+03    0    1.08e+03
2005 01 18  1005    53388   36300      0    4.69e+03    0    1.07e+03
2005 01 18  1010    53388   36600      0    4.55e+03    0    1.02e+03
2005 01 18  1015    53388   36900      0    4.47e+03    0    1.05e+03
2005 01 18  1020    53388   37200      0    6.19e+03    0    1.53e+03
2005 01 18  1025    53388   37500      0    6.31e+03    0    1.55e+03
2005 01 18  1030    53388   37800      0    6.26e+03    0    1.49e+03
2005 01 18  1035    53388   38100      0    6.42e+03    0    1.65e+03
2005 01 18  1040    53388   38400      0    6.37e+03    0    1.60e+03
2005 01 18  1045    53388   38700      0    6.26e+03    0    1.49e+03
2005 01 18  1050    53388   39000      0    6.24e+03    0    1.48e+03
2005 01 18  1055    53388   39300      0    6.25e+03    0    1.49e+03
2005 01 18  1100    53388   39600      0    6.11e+03    0    1.35e+03
2005 01 18  1105    53388   39900      0    6.07e+03    0    1.31e+03
2005 01 18  1110    53388   40200      0    6.01e+03    0    1.24e+03
2005 01 18  1115    53388   40500      0    6.01e+03    0    1.24e+03
2005 01 18  1120    53388   40800      0    6.00e+03    0    1.24e+03
2005 01 18  1125    53388   41100      0    5.77e+03    0    1.16e+03
2005 01 18  1130    53388   41400      0    5.64e+03    0    1.15e+03
2005 01 18  1135    53388   41700      0    5.26e+03    0    1.08e+03
2005 01 18  1140    53388   42000      0    4.27e+03    0    8.93e+02
2005 01 18  1145    53388   42300      0    3.25e+03    0    7.03e+02
2005 01 18  1150    53388   42600      0    3.43e+03    0    7.26e+02
2005 01 18  1155    53388   42900      0    3.64e+03    0    7.85e+02
2005 01 18  1200    53388   43200      0    3.39e+03    0    7.31e+02
2005 01 18  1205    53388   43500      0    3.22e+03    0    6.89e+02
2005 01 18  1210    53388   43800      0    2.87e+03    0    6.23e+02
2005 01 18  1215    53388   44100      0    2.22e+03    0    5.07e+02
2005 01 18  1220    53388   44400      0    2.04e+03    0    4.69e+02
2005 01 18  1225    53388   44700      0    1.99e+03    0    4.58e+02
2005 01 18  1230    53388   45000      0    1.95e+03    0    4.45e+02
2005 01 18  1235    53388   45300      0    1.93e+03    0    4.49e+02
2005 01 18  1240    53388   45600      0    1.81e+03    0    4.28e+02
2005 01 18  1245    53388   45900      0    1.81e+03    0    4.28e+02
2005 01 18  1250    53388   46200      0    1.91e+03    0    4.61e+02
2005 01 18  1255    53388   46500      0    1.92e+03    0    4.52e+02
2005 01 18  1300    53388   46800      0    1.94e+03    0    4.76e+02
2005 01 18  1305    53388   47100      0    1.95e+03    0    4.77e+02
2005 01 18  1310    53388   47400      0    2.04e+03    0    4.98e+02
2005 01 18  1315    53388   47700      0    1.90e+03    0    4.59e+02
2005 01 18  1320    53388   48000      0    1.85e+03    0    4.55e+02
2005 01 18  1325    53388   48300      0    1.75e+03    0    4.51e+02
2005 01 18  1330    53388   48600      0    1.76e+03    0    4.54e+02
2005 01 18  1335    53388   48900      0    1.71e+03    0    4.41e+02
2005 01 18  1340    53388   49200      0    1.73e+03    0    4.34e+02
2005 01 18  1345    53388   49500      0    1.70e+03    0    4.38e+02
2005 01 18  1350    53388   49800      0    1.67e+03    0    4.30e+02
2005 01 18  1355    53388   50100      0    1.66e+03    0    4.25e+02
2005 01 18  1400    53388   50400      0    1.70e+03    0    4.35e+02
2005 01 18  1405    53388   50700      0    1.67e+03    0    4.24e+02
2005 01 18  1410    53388   51000      0    1.66e+03    0    4.16e+02
2005 01 18  1415    53388   51300      0    1.63e+03    0    4.22e+02
2005 01 18  1420    53388   51600      0    1.69e+03    0    4.33e+02
2005 01 18  1425    53388   51900      0    1.65e+03    0    4.48e+02
2005 01 18  1430    53388   52200      0    1.62e+03    0    4.23e+02
2005 01 18  1435    53388   52500      0    1.63e+03    0    4.38e+02
2005 01 18  1440    53388   52800      0    1.68e+03    0    4.30e+02
2005 01 18  1445    53388   53100      0    1.70e+03    0    4.44e+02
2005 01 18  1450    53388   53400      0    1.70e+03    0    4.44e+02
2005 01 18  1455    53388   53700      0    1.63e+03    0    4.39e+02
2005 01 18  1500    53388   54000      0    1.56e+03    0    4.27e+02
2005 01 18  1505    53388   54300      0    1.40e+03    0    3.99e+02
2005 01 18  1510    53388   54600      0    1.35e+03    0    3.87e+02
2005 01 18  1515    53388   54900      0    1.34e+03    0    3.73e+02
2005 01 18  1520    53388   55200      0    1.35e+03    0    3.85e+02
2005 01 18  1525    53388   55500      0    1.29e+03    0    3.63e+02
2005 01 18  1530    53388   55800      0    1.38e+03    0    3.85e+02
2005 01 18  1535    53388   56100      0    1.39e+03    0    3.88e+02
2005 01 18  1540    53388   56400      0    1.42e+03    0    3.98e+02
2005 01 18  1545    53388   56700      0    1.44e+03    0    3.90e+02
2005 01 18  1550    53388   57000      0    1.47e+03    0    4.03e+02
2005 01 18  1555    53388   57300      0    1.42e+03    0    3.71e+02
2005 01 18  1600    53388   57600      0    1.38e+03    0    3.76e+02
2005 01 18  1605    53388   57900      0    1.44e+03    0    3.81e+02
2005 01 18  1610    53388   58200      0    1.42e+03    0    3.74e+02
2005 01 18  1615    53388   58500      0    1.40e+03    0    3.81e+02
2005 01 18  1620    53388   58800      0    1.29e+03    0    3.54e+02
2005 01 18  1625    53388   59100      0    1.23e+03    0    3.37e+02
2005 01 18  1630    53388   59400      0    1.19e+03    0    3.16e+02
2005 01 18  1635    53388   59700      0    1.18e+03    0    3.25e+02
2005 01 18  1640    53388   60000      0    1.17e+03    0    3.24e+02
2005 01 18  1645    53388   60300      0    1.15e+03    0    3.10e+02
2005 01 18  1650    53388   60600      0    1.12e+03    0    3.13e+02
2005 01 18  1655    53388   60900      0    1.12e+03    0    3.13e+02
2005 01 18  1700    53388   61200      0    1.11e+03    0    3.13e+02
2005 01 18  1705    53388   61500      0    1.13e+03    0    3.12e+02
2005 01 18  1710    53388   61800      0    1.15e+03    0    3.25e+02
2005 01 18  1715    53388   62100      0    1.14e+03    0    3.13e+02
2005 01 18  1720    53388   62400      0    1.22e+03    0    3.26e+02
2005 01 18  1725    53388   62700      0    1.23e+03    0    3.32e+02
2005 01 18  1730    53388   63000      0    1.14e+03    0    2.91e+02
2005 01 18  1735    53388   63300      0    1.11e+03    0    2.91e+02
2005 01 18  1740    53388   63600      0    1.08e+03    0    2.89e+02
2005 01 18  1745    53388   63900      0    1.04e+03    0    2.85e+02
2005 01 18  1750    53388   64200      0    1.04e+03    0    2.79e+02
2005 01 18  1755    53388   64500      0    1.04e+03    0    2.74e+02
2005 01 18  1800    53388   64800      0    1.06e+03    0    2.77e+02
2005 01 18  1805    53388   65100      0    1.06e+03    0    2.90e+02
2005 01 18  1810    53388   65400      0    1.00e+03    0    2.61e+02
2005 01 18  1815    53388   65700      0    9.89e+02    0    2.62e+02
2005 01 18  1820    53388   66000      0    9.98e+02    0    2.75e+02
2005 01 18  1825    53388   66300      0    1.03e+03    0    2.78e+02
2005 01 18  1830    53388   66600      0    1.05e+03    0    2.81e+02
2005 01 18  1835    53388   66900      0    1.02e+03    0    2.73e+02
2005 01 18  1840    53388   67200      0    9.78e+02    0    2.69e+02
2005 01 18  1845    53388   67500      0    9.32e+02    0    2.52e+02
2005 01 18  1850    53388   67800      0    9.16e+02    0    2.45e+02
2005 01 18  1855    53388   68100      0    9.09e+02    0    2.41e+02
2005 01 18  1900    53388   68400      0    9.11e+02    0    2.44e+02
2005 01 18  1905    53388   68700      0    9.06e+02    0    2.40e+02
2005 01 18  1910    53388   69000      0    9.08e+02    0    2.46e+02
2005 01 18  1915    53388   69300      0    8.97e+02    0    2.49e+02
2005 01 18  1920    53388   69600      0    9.17e+02    0    2.57e+02
2005 01 18  1925    53388   69900      0    8.85e+02    0    2.41e+02
2005 01 18  1930    53388   70200      0    9.06e+02    0    2.55e+02
2005 01 18  1935    53388   70500      0    9.01e+02    0    2.49e+02
2005 01 18  1940    53388   70800      0    8.71e+02    0    2.37e+02
2005 01 18  1945    53388   71100      0    8.50e+02    0    2.29e+02
2005 01 18  1950    53388   71400      0    8.45e+02    0    2.36e+02
2005 01 18  1955    53388   71700      0    8.62e+02    0    2.46e+02
2005 01 18  2000    53388   72000      0    8.77e+02    0    2.46e+02
2005 01 18  2005    53388   72300      0    8.76e+02    0    2.56e+02
2005 01 18  2010    53388   72600      0    7.84e+02    0    2.23e+02
2005 01 18  2015    53388   72900      0    7.65e+02    0    2.15e+02
2005 01 18  2020    53388   73200      0    7.53e+02    0    2.19e+02
2005 01 18  2025    53388   73500      0    7.55e+02    0    2.21e+02
2005 01 18  2030    53388   73800      0    7.62e+02    0    2.19e+02
2005 01 18  2035    53388   74100      0    7.46e+02    0    2.15e+02
2005 01 18  2040    53388   74400      0    7.34e+02    0    2.14e+02
2005 01 18  2045    53388   74700      0    7.02e+02    0    2.02e+02
2005 01 18  2050    53388   75000      0    7.13e+02    0    2.11e+02
2005 01 18  2055    53388   75300      0    6.97e+02    0    2.09e+02
2005 01 18  2100    53388   75600      0    6.98e+02    0    2.05e+02
2005 01 18  2105    53388   75900      0    6.73e+02    0    2.03e+02
2005 01 18  2110    53388   76200      0    7.08e+02    0    2.05e+02
2005 01 18  2115    53388   76500      0    7.05e+02    0    2.11e+02
2005 01 18  2120    53388   76800      0    6.98e+02    0    2.04e+02
2005 01 18  2125    53388   77100      0    6.95e+02    0    2.06e+02
2005 01 18  2130    53388   77400      0    6.63e+02    0    1.97e+02
2005 01 18  2135    53388   77700      0    6.51e+02    0    1.90e+02
2005 01 18  2140    53388   78000      0    6.59e+02    0    1.89e+02
2005 01 18  2145    53388   78300      0    6.52e+02    0    1.88e+02
2005 01 18  2150    53388   78600      0    6.47e+02    0    1.91e+02
2005 01 18  2155    53388   78900      0    6.22e+02    0    1.80e+02
2005 01 18  2200    53388   79200      0    6.39e+02    0    1.90e+02
2005 01 18  2205    53388   79500      0    6.61e+02    0    1.94e+02
2005 01 18  2210    53388   79800      0    6.14e+02    0    1.77e+02
2005 01 18  2215    53388   80100      0    6.31e+02    0    1.82e+02
2005 01 18  2220    53388   80400      0    6.41e+02    0    1.81e+02
2005 01 18  2225    53388   80700      0    5.79e+02    0    1.67e+02
2005 01 18  2230    53388   81000      0    2.99e+02    0    7.70e+01
2005 01 18  2235    53388   81300      0    2.55e+02    0    6.35e+01
2005 01 18  2240    53388   81600      0    2.53e+02    0    5.96e+01
2005 01 18  2245    53388   81900      0    2.32e+02    0    5.23e+01
2005 01 18  2250    53388   82200      0    2.17e+02    0    4.49e+01
2005 01 18  2255    53388   82500      0    2.15e+02    0    4.45e+01
2005 01 18  2300    53388   82800      0    2.23e+02    0    4.79e+01
2005 01 18  2305    53388   83100      0    2.21e+02    0    4.85e+01
2005 01 18  2310    53388   83400      0    2.18e+02    0    4.59e+01
2005 01 18  2315    53388   83700      0    2.19e+02    0    4.73e+01
2005 01 18  2320    53388   84000      0    2.16e+02    0    4.57e+01
2005 01 18  2325    53388   84300      0    2.18e+02    0    4.68e+01
2005 01 18  2330    53388   84600      0    2.35e+02    0    4.67e+01
2005 01 18  2335    53388   84900      0    2.37e+02    0    5.00e+01
2005 01 18  2340    53388   85200      0    2.37e+02    0    5.27e+01
2005 01 18  2345    53388   85500      0    2.43e+02    0    5.33e+01
2005 01 18  2350    53388   85800      0    2.42e+02    0    5.32e+01
2005 01 18  2355    53388   86100      0    2.72e+02    0    6.15e+01
