:Data_list: 20051211_ace_sis_5m.txt
:Created: 2005 Dec 12 0011 UT
# Prepared by the U.S. Dept. of Commerce, NOAA, Space Environment Center.
# Please send comments and suggestions to SEC.Webmaster@noaa.gov 
# 
# Units: proton flux p/cs2-sec-ster
# Status(S): 0 = nominal data, 1 to 8 = bad data record, 9 = no data
# Missing data values: -1.00e+05
# Source: ACE Satellite - Solar Isotope Spectrometer
#
# 5-minute averaged Real-time Integral Flux of High-energy Solar Protons
# 
#                 Modified Seconds
# UT Date   Time   Julian  of the      ---- Integral Proton Flux ----
# YR MO DA  HHMM     Day     Day       S    > 10 MeV    S    > 30 MeV
#--------------------------------------------------------------------
2005 12 11  0000    53715       0      0    1.40e+00    0    9.82e-01
2005 12 11  0005    53715     300      0    1.42e+00    0    9.96e-01
2005 12 11  0010    53715     600      0    1.38e+00    0    9.62e-01
2005 12 11  0015    53715     900      0    1.38e+00    0    9.68e-01
2005 12 11  0020    53715    1200      0    1.40e+00    0    9.91e-01
2005 12 11  0025    53715    1500      0    1.38e+00    0    9.78e-01
2005 12 11  0030    53715    1800      0    1.39e+00    0    9.81e-01
2005 12 11  0035    53715    2100      0    1.40e+00    0    9.85e-01
2005 12 11  0040    53715    2400      0    1.37e+00    0    9.70e-01
2005 12 11  0045    53715    2700      0    1.39e+00    0    9.80e-01
2005 12 11  0050    53715    3000      0    1.42e+00    0    9.89e-01
2005 12 11  0055    53715    3300      0    1.39e+00    0    9.70e-01
2005 12 11  0100    53715    3600      0    1.37e+00    0    9.65e-01
2005 12 11  0105    53715    3900      0    1.39e+00    0    9.73e-01
2005 12 11  0110    53715    4200      0    1.38e+00    0    9.71e-01
2005 12 11  0115    53715    4500      0    1.40e+00    0    9.83e-01
2005 12 11  0120    53715    4800      0    1.39e+00    0    9.74e-01
2005 12 11  0125    53715    5100      0    1.36e+00    0    9.48e-01
2005 12 11  0130    53715    5400      0    1.43e+00    0    1.01e+00
2005 12 11  0135    53715    5700      0    1.37e+00    0    9.63e-01
2005 12 11  0140    53715    6000      0    1.42e+00    0    9.97e-01
2005 12 11  0145    53715    6300      0    1.29e+00    0    9.07e-01
2005 12 11  0150    53715    6600      0    1.42e+00    0    1.01e+00
2005 12 11  0155    53715    6900      0    1.39e+00    0    9.73e-01
2005 12 11  0200    53715    7200      0    1.38e+00    0    9.74e-01
2005 12 11  0205    53715    7500      0    1.40e+00    0    9.80e-01
2005 12 11  0210    53715    7800      0    1.38e+00    0    9.68e-01
2005 12 11  0215    53715    8100      0    1.42e+00    0    1.01e+00
2005 12 11  0220    53715    8400      0    1.43e+00    0    1.01e+00
2005 12 11  0225    53715    8700      0    1.38e+00    0    9.72e-01
2005 12 11  0230    53715    9000      0    1.43e+00    0    1.02e+00
2005 12 11  0235    53715    9300      0    1.39e+00    0    9.77e-01
2005 12 11  0240    53715    9600      0    1.38e+00    0    9.70e-01
2005 12 11  0245    53715    9900      0    1.42e+00    0    1.00e+00
2005 12 11  0250    53715   10200      0    1.41e+00    0    9.92e-01
2005 12 11  0255    53715   10500      0    1.39e+00    0    9.68e-01
2005 12 11  0300    53715   10800      0    1.39e+00    0    9.80e-01
2005 12 11  0305    53715   11100      0    1.44e+00    0    1.02e+00
2005 12 11  0310    53715   11400      0    1.42e+00    0    1.01e+00
2005 12 11  0315    53715   11700      0    1.39e+00    0    9.84e-01
2005 12 11  0320    53715   12000      0    1.42e+00    0    1.00e+00
2005 12 11  0325    53715   12300      0    1.40e+00    0    9.95e-01
2005 12 11  0330    53715   12600      0    1.40e+00    0    9.84e-01
2005 12 11  0335    53715   12900      0    1.43e+00    0    1.01e+00
2005 12 11  0340    53715   13200      0    1.36e+00    0    9.61e-01
2005 12 11  0345    53715   13500      0    1.42e+00    0    1.01e+00
2005 12 11  0350    53715   13800      0    1.36e+00    0    9.51e-01
2005 12 11  0355    53715   14100      0    1.40e+00    0    9.84e-01
2005 12 11  0400    53715   14400      0    1.44e+00    0    1.03e+00
2005 12 11  0405    53715   14700      0    1.38e+00    0    9.66e-01
2005 12 11  0410    53715   15000      0    1.37e+00    0    9.66e-01
2005 12 11  0415    53715   15300      0    1.42e+00    0    9.98e-01
2005 12 11  0420    53715   15600      0    1.40e+00    0    9.76e-01
2005 12 11  0425    53715   15900      0    1.39e+00    0    9.80e-01
2005 12 11  0430    53715   16200      0    1.40e+00    0    9.80e-01
2005 12 11  0435    53715   16500      0    1.39e+00    0    9.68e-01
2005 12 11  0440    53715   16800      0    1.40e+00    0    9.94e-01
2005 12 11  0445    53715   17100      0    1.42e+00    0    1.00e+00
2005 12 11  0450    53715   17400      0    1.40e+00    0    9.92e-01
2005 12 11  0455    53715   17700      0    1.38e+00    0    9.59e-01
2005 12 11  0500    53715   18000      0    1.40e+00    0    9.75e-01
2005 12 11  0505    53715   18300      0    1.38e+00    0    9.83e-01
2005 12 11  0510    53715   18600      0    1.41e+00    0    1.00e+00
2005 12 11  0515    53715   18900      0    1.40e+00    0    9.79e-01
2005 12 11  0520    53715   19200      0    1.40e+00    0    9.79e-01
2005 12 11  0525    53715   19500      0    1.40e+00    0    9.76e-01
2005 12 11  0530    53715   19800      0    1.40e+00    0    9.82e-01
2005 12 11  0535    53715   20100      0    1.38e+00    0    9.62e-01
2005 12 11  0540    53715   20400      0    1.41e+00    0    9.92e-01
2005 12 11  0545    53715   20700      0    1.37e+00    0    9.69e-01
2005 12 11  0550    53715   21000      0    1.39e+00    0    9.78e-01
2005 12 11  0555    53715   21300      0    1.41e+00    0    9.82e-01
2005 12 11  0600    53715   21600      0    1.43e+00    0    9.98e-01
2005 12 11  0605    53715   21900      0    1.43e+00    0    1.01e+00
2005 12 11  0610    53715   22200      0    1.40e+00    0    9.81e-01
2005 12 11  0615    53715   22500      0    1.42e+00    0    1.01e+00
2005 12 11  0620    53715   22800      0    1.42e+00    0    9.96e-01
2005 12 11  0625    53715   23100      0    1.43e+00    0    1.01e+00
2005 12 11  0630    53715   23400      0    1.41e+00    0    9.97e-01
2005 12 11  0635    53715   23700      0    1.40e+00    0    9.96e-01
2005 12 11  0640    53715   24000      0    1.42e+00    0    9.97e-01
2005 12 11  0645    53715   24300      0    1.42e+00    0    1.00e+00
2005 12 11  0650    53715   24600      0    1.37e+00    0    9.72e-01
2005 12 11  0655    53715   24900      0    1.40e+00    0    9.87e-01
2005 12 11  0700    53715   25200      0    1.39e+00    0    9.75e-01
2005 12 11  0705    53715   25500      0    1.41e+00    0    1.00e+00
2005 12 11  0710    53715   25800      0    1.40e+00    0    9.67e-01
2005 12 11  0715    53715   26100      0    1.41e+00    0    9.83e-01
2005 12 11  0720    53715   26400      0    1.36e+00    0    9.64e-01
2005 12 11  0725    53715   26700      0    1.43e+00    0    9.99e-01
2005 12 11  0730    53715   27000      0    1.39e+00    0    9.77e-01
2005 12 11  0735    53715   27300      0    1.44e+00    0    1.02e+00
2005 12 11  0740    53715   27600      0    1.42e+00    0    1.01e+00
2005 12 11  0745    53715   27900      0    1.41e+00    0    9.97e-01
2005 12 11  0750    53715   28200      0    1.41e+00    0    9.84e-01
2005 12 11  0755    53715   28500      0    1.43e+00    0    1.01e+00
2005 12 11  0800    53715   28800      0    1.44e+00    0    1.02e+00
2005 12 11  0805    53715   29100      0    1.42e+00    0    1.00e+00
2005 12 11  0810    53715   29400      0    1.41e+00    0    9.92e-01
2005 12 11  0815    53715   29700      0    1.40e+00    0    9.78e-01
2005 12 11  0820    53715   30000      0    1.44e+00    0    1.01e+00
2005 12 11  0825    53715   30300      0    1.41e+00    0    9.81e-01
2005 12 11  0830    53715   30600      0    1.43e+00    0    1.00e+00
2005 12 11  0835    53715   30900      0    1.40e+00    0    9.92e-01
2005 12 11  0840    53715   31200      0    1.38e+00    0    9.68e-01
2005 12 11  0845    53715   31500      0    1.38e+00    0    9.75e-01
2005 12 11  0850    53715   31800      0    1.38e+00    0    9.64e-01
2005 12 11  0855    53715   32100      0    1.44e+00    0    1.02e+00
2005 12 11  0900    53715   32400      0    1.38e+00    0    9.63e-01
2005 12 11  0905    53715   32700      0    1.41e+00    0    9.82e-01
2005 12 11  0910    53715   33000      0    1.39e+00    0    9.81e-01
2005 12 11  0915    53715   33300      0    1.38e+00    0    9.69e-01
2005 12 11  0920    53715   33600      0    1.43e+00    0    1.00e+00
2005 12 11  0925    53715   33900      0    1.41e+00    0    9.92e-01
2005 12 11  0930    53715   34200      0    1.37e+00    0    9.47e-01
2005 12 11  0935    53715   34500      0    1.38e+00    0    9.76e-01
2005 12 11  0940    53715   34800      0    1.41e+00    0    9.89e-01
2005 12 11  0945    53715   35100      0    1.41e+00    0    9.78e-01
2005 12 11  0950    53715   35400      0    1.43e+00    0    9.92e-01
2005 12 11  0955    53715   35700      0    1.42e+00    0    9.90e-01
2005 12 11  1000    53715   36000      0    1.40e+00    0    9.93e-01
2005 12 11  1005    53715   36300      0    1.39e+00    0    9.79e-01
2005 12 11  1010    53715   36600      0    1.45e+00    0    1.02e+00
2005 12 11  1015    53715   36900      0    1.41e+00    0    9.86e-01
2005 12 11  1020    53715   37200      0    1.40e+00    0    9.82e-01
2005 12 11  1025    53715   37500      0    1.39e+00    0    9.71e-01
2005 12 11  1030    53715   37800      0    1.44e+00    0    1.03e+00
2005 12 11  1035    53715   38100      0    1.42e+00    0    9.95e-01
2005 12 11  1040    53715   38400      0    1.42e+00    0    1.01e+00
2005 12 11  1045    53715   38700      0    1.41e+00    0    9.83e-01
2005 12 11  1050    53715   39000      0    1.40e+00    0    9.79e-01
2005 12 11  1055    53715   39300      0    1.41e+00    0    9.97e-01
2005 12 11  1100    53715   39600      0    1.44e+00    0    9.98e-01
2005 12 11  1105    53715   39900      0    1.41e+00    0    9.93e-01
2005 12 11  1110    53715   40200      0    1.40e+00    0    9.69e-01
2005 12 11  1115    53715   40500      0    1.38e+00    0    9.65e-01
2005 12 11  1120    53715   40800      0    1.43e+00    0    1.02e+00
2005 12 11  1125    53715   41100      0    1.37e+00    0    9.63e-01
2005 12 11  1130    53715   41400      0    1.41e+00    0    9.79e-01
2005 12 11  1135    53715   41700      0    1.42e+00    0    1.00e+00
2005 12 11  1140    53715   42000      0    1.39e+00    0    9.72e-01
2005 12 11  1145    53715   42300      0    1.41e+00    0    9.92e-01
2005 12 11  1150    53715   42600      0    1.42e+00    0    1.00e+00
2005 12 11  1155    53715   42900      0    1.42e+00    0    1.00e+00
2005 12 11  1200    53715   43200      0    1.39e+00    0    9.79e-01
2005 12 11  1205    53715   43500      0    1.41e+00    0    9.90e-01
2005 12 11  1210    53715   43800      0    1.42e+00    0    9.92e-01
2005 12 11  1215    53715   44100      0    1.43e+00    0    1.01e+00
2005 12 11  1220    53715   44400      0    1.40e+00    0    9.81e-01
2005 12 11  1225    53715   44700      0    1.37e+00    0    9.57e-01
2005 12 11  1230    53715   45000      0    1.46e+00    0    1.03e+00
2005 12 11  1235    53715   45300      0    1.38e+00    0    9.61e-01
2005 12 11  1240    53715   45600      0    1.43e+00    0    1.01e+00
2005 12 11  1245    53715   45900      0    1.38e+00    0    9.70e-01
2005 12 11  1250    53715   46200      0    1.44e+00    0    1.01e+00
2005 12 11  1255    53715   46500      0    1.41e+00    0    9.94e-01
2005 12 11  1300    53715   46800      0    1.42e+00    0    9.97e-01
2005 12 11  1305    53715   47100      0    1.39e+00    0    9.76e-01
2005 12 11  1310    53715   47400      0    1.39e+00    0    9.71e-01
2005 12 11  1315    53715   47700      0    1.42e+00    0    9.93e-01
2005 12 11  1320    53715   48000      0    1.45e+00    0    1.01e+00
2005 12 11  1325    53715   48300      0    1.39e+00    0    9.89e-01
2005 12 11  1330    53715   48600      0    1.42e+00    0    1.00e+00
2005 12 11  1335    53715   48900      0    1.36e+00    0    9.60e-01
2005 12 11  1340    53715   49200      0    1.39e+00    0    9.81e-01
2005 12 11  1345    53715   49500      0    1.44e+00    0    1.02e+00
2005 12 11  1350    53715   49800      0    1.42e+00    0    1.00e+00
2005 12 11  1355    53715   50100      0    1.42e+00    0    9.88e-01
2005 12 11  1400    53715   50400      0    1.41e+00    0    9.89e-01
2005 12 11  1405    53715   50700      0    1.41e+00    0    9.93e-01
2005 12 11  1410    53715   51000      0    1.44e+00    0    1.01e+00
2005 12 11  1415    53715   51300      0    1.39e+00    0    9.71e-01
2005 12 11  1420    53715   51600      0    1.39e+00    0    9.73e-01
2005 12 11  1425    53715   51900      0    1.45e+00    0    1.03e+00
2005 12 11  1430    53715   52200      0    1.38e+00    0    9.71e-01
2005 12 11  1435    53715   52500      0    1.38e+00    0    9.67e-01
2005 12 11  1440    53715   52800      0    1.41e+00    0    9.92e-01
2005 12 11  1445    53715   53100      0    1.41e+00    0    9.92e-01
2005 12 11  1450    53715   53400      0    1.37e+00    0    9.64e-01
2005 12 11  1455    53715   53700      0    1.39e+00    0    9.73e-01
2005 12 11  1500    53715   54000      0    1.39e+00    0    9.69e-01
2005 12 11  1505    53715   54300      0    1.43e+00    0    1.01e+00
2005 12 11  1510    53715   54600      0    1.48e+00    0    1.03e+00
2005 12 11  1515    53715   54900      0    1.45e+00    0    1.01e+00
2005 12 11  1520    53715   55200      0    1.44e+00    0    1.03e+00
2005 12 11  1525    53715   55500      0    1.42e+00    0    9.84e-01
2005 12 11  1530    53715   55800      0    1.41e+00    0    9.84e-01
2005 12 11  1535    53715   56100      0    1.43e+00    0    9.99e-01
2005 12 11  1540    53715   56400      0    1.47e+00    0    1.03e+00
2005 12 11  1545    53715   56700      0    1.44e+00    0    1.01e+00
2005 12 11  1550    53715   57000      0    1.37e+00    0    9.59e-01
2005 12 11  1555    53715   57300      0    1.39e+00    0    9.69e-01
2005 12 11  1600    53715   57600      0    1.41e+00    0    9.99e-01
2005 12 11  1605    53715   57900      0    1.40e+00    0    9.84e-01
2005 12 11  1610    53715   58200      0    1.42e+00    0    1.00e+00
2005 12 11  1615    53715   58500      0    1.43e+00    0    1.00e+00
2005 12 11  1620    53715   58800      0    1.38e+00    0    9.67e-01
2005 12 11  1625    53715   59100      0    1.43e+00    0    1.01e+00
2005 12 11  1630    53715   59400      0    1.43e+00    0    9.94e-01
2005 12 11  1635    53715   59700      0    1.42e+00    0    1.01e+00
2005 12 11  1640    53715   60000      0    1.43e+00    0    9.98e-01
2005 12 11  1645    53715   60300      0    1.41e+00    0    1.00e+00
2005 12 11  1650    53715   60600      0    1.43e+00    0    1.01e+00
2005 12 11  1655    53715   60900      0    1.41e+00    0    9.90e-01
2005 12 11  1700    53715   61200      0    1.42e+00    0    1.00e+00
2005 12 11  1705    53715   61500      0    1.42e+00    0    1.01e+00
2005 12 11  1710    53715   61800      0    1.42e+00    0    1.00e+00
2005 12 11  1715    53715   62100      0    1.42e+00    0    9.93e-01
2005 12 11  1720    53715   62400      0    1.42e+00    0    9.99e-01
2005 12 11  1725    53715   62700      0    1.41e+00    0    9.96e-01
2005 12 11  1730    53715   63000      0    1.43e+00    0    1.00e+00
2005 12 11  1735    53715   63300      0    1.43e+00    0    1.02e+00
2005 12 11  1740    53715   63600      0    1.41e+00    0    1.01e+00
2005 12 11  1745    53715   63900      0    1.41e+00    0    9.77e-01
2005 12 11  1750    53715   64200      0    1.38e+00    0    9.70e-01
2005 12 11  1755    53715   64500      0    1.41e+00    0    1.00e+00
2005 12 11  1800    53715   64800      0    1.39e+00    0    9.87e-01
2005 12 11  1805    53715   65100      0    1.39e+00    0    9.71e-01
2005 12 11  1810    53715   65400      0    1.40e+00    0    9.93e-01
2005 12 11  1815    53715   65700      0    1.39e+00    0    9.77e-01
2005 12 11  1820    53715   66000      0    1.39e+00    0    9.84e-01
2005 12 11  1825    53715   66300      0    1.41e+00    0    9.91e-01
2005 12 11  1830    53715   66600      0    1.41e+00    0    9.92e-01
2005 12 11  1835    53715   66900      0    1.39e+00    0    9.78e-01
2005 12 11  1840    53715   67200      0    1.40e+00    0    9.90e-01
2005 12 11  1845    53715   67500      0    1.41e+00    0    9.94e-01
2005 12 11  1850    53715   67800      0    1.32e+00    0    9.24e-01
2005 12 11  1855    53715   68100      0    1.39e+00    0    9.73e-01
2005 12 11  1900    53715   68400      0    1.40e+00    0    9.75e-01
2005 12 11  1905    53715   68700      0    1.39e+00    0    9.76e-01
2005 12 11  1910    53715   69000      0    1.41e+00    0    9.85e-01
2005 12 11  1915    53715   69300      0    1.39e+00    0    9.70e-01
2005 12 11  1920    53715   69600      0    1.40e+00    0    9.97e-01
2005 12 11  1925    53715   69900      0    1.42e+00    0    1.01e+00
2005 12 11  1930    53715   70200      0    1.40e+00    0    9.84e-01
2005 12 11  1935    53715   70500      0    1.40e+00    0    9.95e-01
2005 12 11  1940    53715   70800      0    1.40e+00    0    9.89e-01
2005 12 11  1945    53715   71100      0    1.43e+00    0    1.01e+00
2005 12 11  1950    53715   71400      0    1.42e+00    0    9.98e-01
2005 12 11  1955    53715   71700      0    1.41e+00    0    1.00e+00
2005 12 11  2000    53715   72000      0    1.40e+00    0    9.80e-01
2005 12 11  2005    53715   72300      0    1.38e+00    0    9.65e-01
2005 12 11  2010    53715   72600      0    1.42e+00    0    1.00e+00
2005 12 11  2015    53715   72900      0    1.41e+00    0    1.00e+00
2005 12 11  2020    53715   73200      0    1.40e+00    0    9.72e-01
2005 12 11  2025    53715   73500      0    1.40e+00    0    9.78e-01
2005 12 11  2030    53715   73800      0    1.40e+00    0    9.89e-01
2005 12 11  2035    53715   74100      0    1.40e+00    0    9.99e-01
2005 12 11  2040    53715   74400      0    1.38e+00    0    9.70e-01
2005 12 11  2045    53715   74700      0    1.40e+00    0    9.88e-01
2005 12 11  2050    53715   75000      0    1.34e+00    0    9.52e-01
2005 12 11  2055    53715   75300      0    1.43e+00    0    1.01e+00
2005 12 11  2100    53715   75600      0    1.42e+00    0    9.98e-01
2005 12 11  2105    53715   75900      0    1.41e+00    0    9.81e-01
2005 12 11  2110    53715   76200      0    1.42e+00    0    1.01e+00
2005 12 11  2115    53715   76500      0    1.42e+00    0    9.97e-01
2005 12 11  2120    53715   76800      0    1.42e+00    0    9.99e-01
2005 12 11  2125    53715   77100      0    1.42e+00    0    1.00e+00
2005 12 11  2130    53715   77400      0    1.39e+00    0    9.73e-01
2005 12 11  2135    53715   77700      0    1.37e+00    0    9.69e-01
2005 12 11  2140    53715   78000      0    1.35e+00    0    9.56e-01
2005 12 11  2145    53715   78300      0    1.41e+00    0    9.88e-01
2005 12 11  2150    53715   78600      0    1.41e+00    0    9.76e-01
2005 12 11  2155    53715   78900      0    1.41e+00    0    9.89e-01
2005 12 11  2200    53715   79200      0    1.40e+00    0    9.74e-01
2005 12 11  2205    53715   79500      0    1.39e+00    0    9.75e-01
2005 12 11  2210    53715   79800      0    1.40e+00    0    9.87e-01
2005 12 11  2215    53715   80100      0    1.40e+00    0    9.85e-01
2005 12 11  2220    53715   80400      0    1.38e+00    0    9.70e-01
2005 12 11  2225    53715   80700      0    1.40e+00    0    9.91e-01
2005 12 11  2230    53715   81000      0    1.41e+00    0    1.00e+00
2005 12 11  2235    53715   81300      0    1.43e+00    0    1.01e+00
2005 12 11  2240    53715   81600      0    1.40e+00    0    1.00e+00
2005 12 11  2245    53715   81900      0    1.43e+00    0    1.01e+00
2005 12 11  2250    53715   82200      0    1.41e+00    0    1.00e+00
2005 12 11  2255    53715   82500      0    1.42e+00    0    1.00e+00
2005 12 11  2300    53715   82800      0    1.42e+00    0    9.95e-01
2005 12 11  2305    53715   83100      0    1.31e+00    0    9.17e-01
2005 12 11  2310    53715   83400      0    1.42e+00    0    1.02e+00
2005 12 11  2315    53715   83700      0    1.42e+00    0    1.00e+00
2005 12 11  2320    53715   84000      0    1.41e+00    0    1.00e+00
2005 12 11  2325    53715   84300      0    1.40e+00    0    9.84e-01
2005 12 11  2330    53715   84600      0    1.38e+00    0    9.72e-01
2005 12 11  2335    53715   84900      0    1.40e+00    0    9.94e-01
2005 12 11  2340    53715   85200      0    1.40e+00    0    9.87e-01
2005 12 11  2345    53715   85500      0    1.41e+00    0    9.93e-01
2005 12 11  2350    53715   85800      0    1.45e+00    0    1.02e+00
2005 12 11  2355    53715   86100      0    1.42e+00    0    9.97e-01
