:Data_list: 20050929_ace_sis_5m.txt
:Created: 2005 Sep 30 0011 UT
# Prepared by the U.S. Dept. of Commerce, NOAA, Space Environment Center.
# Please send comments and suggestions to SEC.Webmaster@noaa.gov 
# 
# Units: proton flux p/cs2-sec-ster
# Status(S): 0 = nominal data, 1 to 8 = bad data record, 9 = no data
# Missing data values: -1.00e+05
# Source: ACE Satellite - Solar Isotope Spectrometer
#
# 5-minute averaged Real-time Integral Flux of High-energy Solar Protons
# 
#                 Modified Seconds
# UT Date   Time   Julian  of the      ---- Integral Proton Flux ----
# YR MO DA  HHMM     Day     Day       S    > 10 MeV    S    > 30 MeV
#--------------------------------------------------------------------
2005 09 29  0000    53642       0      0    1.25e+00    0    8.38e-01
2005 09 29  0005    53642     300      0    1.22e+00    0    8.19e-01
2005 09 29  0010    53642     600      0    1.25e+00    0    8.27e-01
2005 09 29  0015    53642     900      0    1.27e+00    0    8.62e-01
2005 09 29  0020    53642    1200      0    1.24e+00    0    8.28e-01
2005 09 29  0025    53642    1500      0    1.25e+00    0    8.31e-01
2005 09 29  0030    53642    1800      0    1.24e+00    0    8.21e-01
2005 09 29  0035    53642    2100      0    1.27e+00    0    8.42e-01
2005 09 29  0040    53642    2400      0    1.22e+00    0    8.24e-01
2005 09 29  0045    53642    2700      0    1.25e+00    0    8.34e-01
2005 09 29  0050    53642    3000      0    1.26e+00    0    8.41e-01
2005 09 29  0055    53642    3300      0    1.24e+00    0    8.21e-01
2005 09 29  0100    53642    3600      0    1.27e+00    0    8.48e-01
2005 09 29  0105    53642    3900      0    1.24e+00    0    8.21e-01
2005 09 29  0110    53642    4200      0    1.28e+00    0    8.40e-01
2005 09 29  0115    53642    4500      0    1.27e+00    0    8.45e-01
2005 09 29  0120    53642    4800      0    1.24e+00    0    8.29e-01
2005 09 29  0125    53642    5100      0    1.25e+00    0    8.31e-01
2005 09 29  0130    53642    5400      0    1.25e+00    0    8.28e-01
2005 09 29  0135    53642    5700      0    1.28e+00    0    8.57e-01
2005 09 29  0140    53642    6000      0    1.24e+00    0    8.31e-01
2005 09 29  0145    53642    6300      0    1.27e+00    0    8.50e-01
2005 09 29  0150    53642    6600      0    1.26e+00    0    8.49e-01
2005 09 29  0155    53642    6900      0    1.31e+00    0    8.79e-01
2005 09 29  0200    53642    7200      0    1.35e+00    0    8.97e-01
2005 09 29  0205    53642    7500      0    1.27e+00    0    8.50e-01
2005 09 29  0210    53642    7800      0    1.27e+00    0    8.52e-01
2005 09 29  0215    53642    8100      0    1.27e+00    0    8.49e-01
2005 09 29  0220    53642    8400      0    1.25e+00    0    8.33e-01
2005 09 29  0225    53642    8700      0    1.23e+00    0    8.12e-01
2005 09 29  0230    53642    9000      0    1.27e+00    0    8.44e-01
2005 09 29  0235    53642    9300      0    1.25e+00    0    8.30e-01
2005 09 29  0240    53642    9600      0    1.24e+00    0    8.23e-01
2005 09 29  0245    53642    9900      0    1.23e+00    0    8.27e-01
2005 09 29  0250    53642   10200      0    1.20e+00    0    8.11e-01
2005 09 29  0255    53642   10500      0    1.25e+00    0    8.29e-01
2005 09 29  0300    53642   10800      0    1.26e+00    0    8.34e-01
2005 09 29  0305    53642   11100      0    1.26e+00    0    8.45e-01
2005 09 29  0310    53642   11400      0    1.22e+00    0    8.08e-01
2005 09 29  0315    53642   11700      0    1.23e+00    0    8.15e-01
2005 09 29  0320    53642   12000      0    1.27e+00    0    8.40e-01
2005 09 29  0325    53642   12300      0    1.27e+00    0    8.48e-01
2005 09 29  0330    53642   12600      0    1.25e+00    0    8.30e-01
2005 09 29  0335    53642   12900      0    1.25e+00    0    8.33e-01
2005 09 29  0340    53642   13200      0    1.28e+00    0    8.59e-01
2005 09 29  0345    53642   13500      0    1.26e+00    0    8.43e-01
2005 09 29  0350    53642   13800      0    1.26e+00    0    8.30e-01
2005 09 29  0355    53642   14100      0    1.25e+00    0    8.22e-01
2005 09 29  0400    53642   14400      0    1.29e+00    0    8.61e-01
2005 09 29  0405    53642   14700      0    1.24e+00    0    8.28e-01
2005 09 29  0410    53642   15000      0    1.26e+00    0    8.41e-01
2005 09 29  0415    53642   15300      0    1.32e+00    0    8.74e-01
2005 09 29  0420    53642   15600      0    1.28e+00    0    8.66e-01
2005 09 29  0425    53642   15900      0    1.27e+00    0    8.48e-01
2005 09 29  0430    53642   16200      0    1.27e+00    0    8.39e-01
2005 09 29  0435    53642   16500      0    1.23e+00    0    8.20e-01
2005 09 29  0440    53642   16800      0    1.25e+00    0    8.33e-01
2005 09 29  0445    53642   17100      0    1.28e+00    0    8.50e-01
2005 09 29  0450    53642   17400      0    1.25e+00    0    8.26e-01
2005 09 29  0455    53642   17700      0    1.25e+00    0    8.27e-01
2005 09 29  0500    53642   18000      0    1.30e+00    0    8.70e-01
2005 09 29  0505    53642   18300      0    1.28e+00    0    8.57e-01
2005 09 29  0510    53642   18600      0    1.27e+00    0    8.42e-01
2005 09 29  0515    53642   18900      0    1.25e+00    0    8.21e-01
2005 09 29  0520    53642   19200      0    1.27e+00    0    8.47e-01
2005 09 29  0525    53642   19500      0    1.26e+00    0    8.33e-01
2005 09 29  0530    53642   19800      0    1.25e+00    0    8.46e-01
2005 09 29  0535    53642   20100      0    1.23e+00    0    8.19e-01
2005 09 29  0540    53642   20400      0    1.26e+00    0    8.39e-01
2005 09 29  0545    53642   20700      0    1.25e+00    0    8.32e-01
2005 09 29  0550    53642   21000      0    1.25e+00    0    8.21e-01
2005 09 29  0555    53642   21300      0    1.26e+00    0    8.39e-01
2005 09 29  0600    53642   21600      0    1.26e+00    0    8.48e-01
2005 09 29  0605    53642   21900      0    1.28e+00    0    8.53e-01
2005 09 29  0610    53642   22200      0    1.24e+00    0    8.20e-01
2005 09 29  0615    53642   22500      0    1.25e+00    0    8.38e-01
2005 09 29  0620    53642   22800      0    1.25e+00    0    8.34e-01
2005 09 29  0625    53642   23100      0    1.25e+00    0    8.36e-01
2005 09 29  0630    53642   23400      0    1.31e+00    0    8.78e-01
2005 09 29  0635    53642   23700      0    1.29e+00    0    8.66e-01
2005 09 29  0640    53642   24000      0    1.29e+00    0    8.51e-01
2005 09 29  0645    53642   24300      0    1.28e+00    0    8.52e-01
2005 09 29  0650    53642   24600      0    1.26e+00    0    8.39e-01
2005 09 29  0655    53642   24900      0    1.27e+00    0    8.41e-01
2005 09 29  0700    53642   25200      0    1.30e+00    0    8.67e-01
2005 09 29  0705    53642   25500      0    1.28e+00    0    8.54e-01
2005 09 29  0710    53642   25800      0    1.25e+00    0    8.41e-01
2005 09 29  0715    53642   26100      0    1.26e+00    0    8.36e-01
2005 09 29  0720    53642   26400      0    1.27e+00    0    8.43e-01
2005 09 29  0725    53642   26700      0    1.27e+00    0    8.48e-01
2005 09 29  0730    53642   27000      0    1.27e+00    0    8.42e-01
2005 09 29  0735    53642   27300      0    1.29e+00    0    8.54e-01
2005 09 29  0740    53642   27600      0    1.27e+00    0    8.48e-01
2005 09 29  0745    53642   27900      0    1.26e+00    0    8.31e-01
2005 09 29  0750    53642   28200      0    1.30e+00    0    8.67e-01
2005 09 29  0755    53642   28500      0    1.28e+00    0    8.56e-01
2005 09 29  0800    53642   28800      0    1.25e+00    0    8.44e-01
2005 09 29  0805    53642   29100      0    1.25e+00    0    8.36e-01
2005 09 29  0810    53642   29400      0    1.29e+00    0    8.54e-01
2005 09 29  0815    53642   29700      0    1.28e+00    0    8.60e-01
2005 09 29  0820    53642   30000      0    1.23e+00    0    8.21e-01
2005 09 29  0825    53642   30300      0    1.24e+00    0    8.39e-01
2005 09 29  0830    53642   30600      0    1.27e+00    0    8.46e-01
2005 09 29  0835    53642   30900      0    1.25e+00    0    8.31e-01
2005 09 29  0840    53642   31200      0    1.26e+00    0    8.43e-01
2005 09 29  0845    53642   31500      0    1.28e+00    0    8.57e-01
2005 09 29  0850    53642   31800      0    1.32e+00    0    8.76e-01
2005 09 29  0855    53642   32100      0    1.31e+00    0    8.88e-01
2005 09 29  0900    53642   32400      0    1.28e+00    0    8.58e-01
2005 09 29  0905    53642   32700      0    1.25e+00    0    8.38e-01
2005 09 29  0910    53642   33000      0    1.28e+00    0    8.53e-01
2005 09 29  0915    53642   33300      0    1.24e+00    0    8.35e-01
2005 09 29  0920    53642   33600      0    1.25e+00    0    8.49e-01
2005 09 29  0925    53642   33900      0    1.26e+00    0    8.34e-01
2005 09 29  0930    53642   34200      0    1.24e+00    0    8.29e-01
2005 09 29  0935    53642   34500      0    1.23e+00    0    8.18e-01
2005 09 29  0940    53642   34800      0    1.26e+00    0    8.38e-01
2005 09 29  0945    53642   35100      0    1.24e+00    0    8.44e-01
2005 09 29  0950    53642   35400      0    1.27e+00    0    8.52e-01
2005 09 29  0955    53642   35700      0    1.24e+00    0    8.35e-01
2005 09 29  1000    53642   36000      0    1.26e+00    0    8.41e-01
2005 09 29  1005    53642   36300      0    1.25e+00    0    8.48e-01
2005 09 29  1010    53642   36600      0    1.25e+00    0    8.43e-01
2005 09 29  1015    53642   36900      0    1.27e+00    0    8.56e-01
2005 09 29  1020    53642   37200      0    1.25e+00    0    8.43e-01
2005 09 29  1025    53642   37500      0    1.23e+00    0    8.18e-01
2005 09 29  1030    53642   37800      0    1.26e+00    0    8.40e-01
2005 09 29  1035    53642   38100      0    1.26e+00    0    8.39e-01
2005 09 29  1040    53642   38400      0    1.24e+00    0    8.32e-01
2005 09 29  1045    53642   38700      0    1.23e+00    0    8.31e-01
2005 09 29  1050    53642   39000      0    1.27e+00    0    8.50e-01
2005 09 29  1055    53642   39300      0    1.26e+00    0    8.30e-01
2005 09 29  1100    53642   39600      0    1.27e+00    0    8.55e-01
2005 09 29  1105    53642   39900      0    1.31e+00    0    8.70e-01
2005 09 29  1110    53642   40200      0    1.31e+00    0    8.79e-01
2005 09 29  1115    53642   40500      0    1.26e+00    0    8.45e-01
2005 09 29  1120    53642   40800      0    1.28e+00    0    8.50e-01
2005 09 29  1125    53642   41100      0    1.31e+00    0    8.67e-01
2005 09 29  1130    53642   41400      0    1.29e+00    0    8.60e-01
2005 09 29  1135    53642   41700      0    1.26e+00    0    8.38e-01
2005 09 29  1140    53642   42000      0    1.28e+00    0    8.39e-01
2005 09 29  1145    53642   42300      0    1.27e+00    0    8.31e-01
2005 09 29  1150    53642   42600      0    1.28e+00    0    8.49e-01
2005 09 29  1155    53642   42900      0    1.25e+00    0    8.24e-01
2005 09 29  1200    53642   43200      0    1.27e+00    0    8.46e-01
2005 09 29  1205    53642   43500      0    1.29e+00    0    8.51e-01
2005 09 29  1210    53642   43800      0    1.25e+00    0    8.28e-01
2005 09 29  1215    53642   44100      0    1.24e+00    0    8.31e-01
2005 09 29  1220    53642   44400      0    1.26e+00    0    8.34e-01
2005 09 29  1225    53642   44700      0    1.28e+00    0    8.44e-01
2005 09 29  1230    53642   45000      0    1.26e+00    0    8.40e-01
2005 09 29  1235    53642   45300      0    1.27e+00    0    8.35e-01
2005 09 29  1240    53642   45600      0    1.29e+00    0    8.51e-01
2005 09 29  1245    53642   45900      0    1.29e+00    0    8.48e-01
2005 09 29  1250    53642   46200      0    1.30e+00    0    8.58e-01
2005 09 29  1255    53642   46500      0    1.29e+00    0    8.59e-01
2005 09 29  1300    53642   46800      0    1.27e+00    0    8.38e-01
2005 09 29  1305    53642   47100      0    1.27e+00    0    8.50e-01
2005 09 29  1310    53642   47400      0    1.26e+00    0    8.38e-01
2005 09 29  1315    53642   47700      0    1.31e+00    0    8.68e-01
2005 09 29  1320    53642   48000      0    1.36e+00    0    8.97e-01
2005 09 29  1325    53642   48300      0    1.32e+00    0    8.74e-01
2005 09 29  1330    53642   48600      0    1.30e+00    0    8.62e-01
2005 09 29  1335    53642   48900      0    1.28e+00    0    8.53e-01
2005 09 29  1340    53642   49200      0    1.25e+00    0    8.21e-01
2005 09 29  1345    53642   49500      0    1.27e+00    0    8.45e-01
2005 09 29  1350    53642   49800      0    1.29e+00    0    8.39e-01
2005 09 29  1355    53642   50100      0    1.25e+00    0    8.32e-01
2005 09 29  1400    53642   50400      0    1.27e+00    0    8.60e-01
2005 09 29  1405    53642   50700      0    1.24e+00    0    8.27e-01
2005 09 29  1410    53642   51000      0    1.27e+00    0    8.47e-01
2005 09 29  1415    53642   51300      0    1.26e+00    0    8.38e-01
2005 09 29  1420    53642   51600      0    1.26e+00    0    8.35e-01
2005 09 29  1425    53642   51900      0    1.26e+00    0    8.45e-01
2005 09 29  1430    53642   52200      0    1.25e+00    0    8.29e-01
2005 09 29  1435    53642   52500      0    1.25e+00    0    8.33e-01
2005 09 29  1440    53642   52800      0    1.26e+00    0    8.37e-01
2005 09 29  1445    53642   53100      0    1.25e+00    0    8.43e-01
2005 09 29  1450    53642   53400      0    1.28e+00    0    8.60e-01
2005 09 29  1455    53642   53700      0    1.24e+00    0    8.14e-01
2005 09 29  1500    53642   54000      0    1.28e+00    0    8.69e-01
2005 09 29  1505    53642   54300      0    1.25e+00    0    8.32e-01
2005 09 29  1510    53642   54600      0    1.26e+00    0    8.62e-01
2005 09 29  1515    53642   54900      0    1.26e+00    0    8.43e-01
2005 09 29  1520    53642   55200      0    1.24e+00    0    8.24e-01
2005 09 29  1525    53642   55500      0    1.23e+00    0    8.25e-01
2005 09 29  1530    53642   55800      0    1.30e+00    0    8.75e-01
2005 09 29  1535    53642   56100      0    1.30e+00    0    8.61e-01
2005 09 29  1540    53642   56400      0    1.31e+00    0    8.68e-01
2005 09 29  1545    53642   56700      0    1.27e+00    0    8.48e-01
2005 09 29  1550    53642   57000      0    1.28e+00    0    8.60e-01
2005 09 29  1555    53642   57300      0    1.26e+00    0    8.48e-01
2005 09 29  1600    53642   57600      0    1.26e+00    0    8.37e-01
2005 09 29  1605    53642   57900      0    1.28e+00    0    8.57e-01
2005 09 29  1610    53642   58200      0    1.24e+00    0    8.25e-01
2005 09 29  1615    53642   58500      0    1.25e+00    0    8.36e-01
2005 09 29  1620    53642   58800      0    1.25e+00    0    8.39e-01
2005 09 29  1625    53642   59100      0    1.25e+00    0    8.27e-01
2005 09 29  1630    53642   59400      0    1.25e+00    0    8.23e-01
2005 09 29  1635    53642   59700      0    1.24e+00    0    8.34e-01
2005 09 29  1640    53642   60000      0    1.26e+00    0    8.44e-01
2005 09 29  1645    53642   60300      0    1.28e+00    0    8.58e-01
2005 09 29  1650    53642   60600      0    1.28e+00    0    8.56e-01
2005 09 29  1655    53642   60900      0    1.24e+00    0    8.22e-01
2005 09 29  1700    53642   61200      0    1.28e+00    0    8.54e-01
2005 09 29  1705    53642   61500      0    1.23e+00    0    8.21e-01
2005 09 29  1710    53642   61800      0    1.26e+00    0    8.37e-01
2005 09 29  1715    53642   62100      0    1.26e+00    0    8.36e-01
2005 09 29  1720    53642   62400      0    1.26e+00    0    8.41e-01
2005 09 29  1725    53642   62700      0    1.28e+00    0    8.46e-01
2005 09 29  1730    53642   63000      0    1.25e+00    0    8.39e-01
2005 09 29  1735    53642   63300      0    1.27e+00    0    8.58e-01
2005 09 29  1740    53642   63600      0    1.25e+00    0    8.30e-01
2005 09 29  1745    53642   63900      0    1.26e+00    0    8.42e-01
2005 09 29  1750    53642   64200      0    1.29e+00    0    8.60e-01
2005 09 29  1755    53642   64500      0    1.32e+00    0    8.83e-01
2005 09 29  1800    53642   64800      0    1.28e+00    0    8.60e-01
2005 09 29  1805    53642   65100      0    1.31e+00    0    8.57e-01
2005 09 29  1810    53642   65400      0    1.26e+00    0    8.50e-01
2005 09 29  1815    53642   65700      0    1.52e+00    0    8.40e-01
2005 09 29  1820    53642   66000      0    1.27e+00    0    8.51e-01
2005 09 29  1825    53642   66300      0    1.29e+00    0    8.75e-01
2005 09 29  1830    53642   66600      0    1.25e+00    0    8.27e-01
2005 09 29  1835    53642   66900      0    1.28e+00    0    8.62e-01
2005 09 29  1840    53642   67200      0    1.22e+00    0    8.12e-01
2005 09 29  1845    53642   67500      0    1.25e+00    0    8.29e-01
2005 09 29  1850    53642   67800      0    1.25e+00    0    8.37e-01
2005 09 29  1855    53642   68100      0    1.24e+00    0    8.32e-01
2005 09 29  1900    53642   68400      0    1.25e+00    0    8.39e-01
2005 09 29  1905    53642   68700      0    1.28e+00    0    8.56e-01
2005 09 29  1910    53642   69000      0    1.27e+00    0    8.46e-01
2005 09 29  1915    53642   69300      0    1.27e+00    0    8.52e-01
2005 09 29  1920    53642   69600      0    1.24e+00    0    8.38e-01
2005 09 29  1925    53642   69900      0    1.25e+00    0    8.38e-01
2005 09 29  1930    53642   70200      0    1.25e+00    0    8.48e-01
2005 09 29  1935    53642   70500      0    1.26e+00    0    8.32e-01
2005 09 29  1940    53642   70800      0    1.28e+00    0    8.64e-01
2005 09 29  1945    53642   71100      0    1.28e+00    0    8.53e-01
2005 09 29  1950    53642   71400      0    1.28e+00    0    8.42e-01
2005 09 29  1955    53642   71700      0    1.28e+00    0    8.58e-01
2005 09 29  2000    53642   72000      0    1.29e+00    0    8.68e-01
2005 09 29  2005    53642   72300      0    1.30e+00    0    8.72e-01
2005 09 29  2010    53642   72600      0    1.36e+00    0    9.04e-01
2005 09 29  2015    53642   72900      0    1.31e+00    0    8.74e-01
2005 09 29  2020    53642   73200      0    1.27e+00    0    8.41e-01
2005 09 29  2025    53642   73500      0    1.24e+00    0    8.33e-01
2005 09 29  2030    53642   73800      0    1.26e+00    0    8.39e-01
2005 09 29  2035    53642   74100      0    1.26e+00    0    8.45e-01
2005 09 29  2040    53642   74400      0    1.24e+00    0    8.21e-01
2005 09 29  2045    53642   74700      0    1.27e+00    0    8.50e-01
2005 09 29  2050    53642   75000      0    1.24e+00    0    8.37e-01
2005 09 29  2055    53642   75300      0    1.25e+00    0    8.36e-01
2005 09 29  2100    53642   75600      0    1.27e+00    0    8.51e-01
2005 09 29  2105    53642   75900      0    1.26e+00    0    8.44e-01
2005 09 29  2110    53642   76200      0    1.27e+00    0    8.51e-01
2005 09 29  2115    53642   76500      0    1.26e+00    0    8.36e-01
2005 09 29  2120    53642   76800      0    1.25e+00    0    8.42e-01
2005 09 29  2125    53642   77100      0    1.25e+00    0    8.47e-01
2005 09 29  2130    53642   77400      0    1.25e+00    0    8.39e-01
2005 09 29  2135    53642   77700      0    1.26e+00    0    8.44e-01
2005 09 29  2140    53642   78000      0    1.26e+00    0    8.52e-01
2005 09 29  2145    53642   78300      0    1.29e+00    0    8.58e-01
2005 09 29  2150    53642   78600      0    1.27e+00    0    8.58e-01
2005 09 29  2155    53642   78900      0    1.22e+00    0    8.11e-01
2005 09 29  2200    53642   79200      0    1.26e+00    0    8.42e-01
2005 09 29  2205    53642   79500      0    1.28e+00    0    8.66e-01
2005 09 29  2210    53642   79800      0    1.26e+00    0    8.50e-01
2005 09 29  2215    53642   80100      0    1.28e+00    0    8.66e-01
2005 09 29  2220    53642   80400      0    1.26e+00    0    8.48e-01
2005 09 29  2225    53642   80700      0    1.30e+00    0    8.69e-01
2005 09 29  2230    53642   81000      0    1.32e+00    0    8.89e-01
2005 09 29  2235    53642   81300      0    1.30e+00    0    8.80e-01
2005 09 29  2240    53642   81600      0    1.25e+00    0    8.41e-01
2005 09 29  2245    53642   81900      0    1.26e+00    0    8.50e-01
2005 09 29  2250    53642   82200      0    1.26e+00    0    8.51e-01
2005 09 29  2255    53642   82500      0    1.24e+00    0    8.26e-01
2005 09 29  2300    53642   82800      0    1.27e+00    0    8.58e-01
2005 09 29  2305    53642   83100      0    1.26e+00    0    8.32e-01
2005 09 29  2310    53642   83400      0    1.25e+00    0    8.40e-01
2005 09 29  2315    53642   83700      0    1.23e+00    0    8.17e-01
2005 09 29  2320    53642   84000      0    1.27e+00    0    8.54e-01
2005 09 29  2325    53642   84300      0    1.30e+00    0    8.64e-01
2005 09 29  2330    53642   84600      0    1.28e+00    0    8.58e-01
2005 09 29  2335    53642   84900      0    1.24e+00    0    8.39e-01
2005 09 29  2340    53642   85200      0    1.25e+00    0    8.41e-01
2005 09 29  2345    53642   85500      0    1.25e+00    0    8.44e-01
2005 09 29  2350    53642   85800      0    1.25e+00    0    8.46e-01
2005 09 29  2355    53642   86100      0    1.25e+00    0    8.37e-01
