:Data_list: 20050831_ace_sis_5m.txt
:Created: 2005 Sep 01 0011 UT
# Prepared by the U.S. Dept. of Commerce, NOAA, Space Environment Center.
# Please send comments and suggestions to SEC.Webmaster@noaa.gov 
# 
# Units: proton flux p/cs2-sec-ster
# Status(S): 0 = nominal data, 1 to 8 = bad data record, 9 = no data
# Missing data values: -1.00e+05
# Source: ACE Satellite - Solar Isotope Spectrometer
#
# 5-minute averaged Real-time Integral Flux of High-energy Solar Protons
# 
#                 Modified Seconds
# UT Date   Time   Julian  of the      ---- Integral Proton Flux ----
# YR MO DA  HHMM     Day     Day       S    > 10 MeV    S    > 30 MeV
#--------------------------------------------------------------------
2005 08 31  0000    53613       0      0    1.83e+00    0    1.00e+00
2005 08 31  0005    53613     300      0    1.80e+00    0    9.81e-01
2005 08 31  0010    53613     600      0    1.70e+00    0    9.38e-01
2005 08 31  0015    53613     900      0    1.69e+00    0    9.55e-01
2005 08 31  0020    53613    1200      0    1.74e+00    0    9.71e-01
2005 08 31  0025    53613    1500      0    1.75e+00    0    9.79e-01
2005 08 31  0030    53613    1800      0    1.75e+00    0    9.91e-01
2005 08 31  0035    53613    2100      0    1.70e+00    0    9.30e-01
2005 08 31  0040    53613    2400      0    1.71e+00    0    9.80e-01
2005 08 31  0045    53613    2700      0    1.70e+00    0    9.64e-01
2005 08 31  0050    53613    3000      0    1.72e+00    0    9.50e-01
2005 08 31  0055    53613    3300      0    1.67e+00    0    9.54e-01
2005 08 31  0100    53613    3600      0    1.67e+00    0    9.44e-01
2005 08 31  0105    53613    3900      0    1.73e+00    0    9.63e-01
2005 08 31  0110    53613    4200      0    1.75e+00    0    9.87e-01
2005 08 31  0115    53613    4500      0    1.73e+00    0    9.72e-01
2005 08 31  0120    53613    4800      0    1.69e+00    0    9.46e-01
2005 08 31  0125    53613    5100      0    1.73e+00    0    9.76e-01
2005 08 31  0130    53613    5400      0    1.69e+00    0    9.48e-01
2005 08 31  0135    53613    5700      0    1.66e+00    0    9.31e-01
2005 08 31  0140    53613    6000      0    1.72e+00    0    9.68e-01
2005 08 31  0145    53613    6300      0    1.72e+00    0    9.49e-01
2005 08 31  0150    53613    6600      0    1.80e+00    0    9.84e-01
2005 08 31  0155    53613    6900      0    1.79e+00    0    9.89e-01
2005 08 31  0200    53613    7200      0    1.73e+00    0    9.75e-01
2005 08 31  0205    53613    7500      0    1.72e+00    0    9.69e-01
2005 08 31  0210    53613    7800      0    1.78e+00    0    9.84e-01
2005 08 31  0215    53613    8100      0    1.80e+00    0    1.00e+00
2005 08 31  0220    53613    8400      0    1.75e+00    0    9.84e-01
2005 08 31  0225    53613    8700      0    1.72e+00    0    9.58e-01
2005 08 31  0230    53613    9000      0    1.74e+00    0    9.84e-01
2005 08 31  0235    53613    9300      0    1.73e+00    0    9.66e-01
2005 08 31  0240    53613    9600      0    1.69e+00    0    9.42e-01
2005 08 31  0245    53613    9900      0    1.69e+00    0    9.56e-01
2005 08 31  0250    53613   10200      0    1.76e+00    0    9.93e-01
2005 08 31  0255    53613   10500      0    1.72e+00    0    9.93e-01
2005 08 31  0300    53613   10800      0    1.69e+00    0    9.61e-01
2005 08 31  0305    53613   11100      0    1.69e+00    0    9.60e-01
2005 08 31  0310    53613   11400      0    1.64e+00    0    9.21e-01
2005 08 31  0315    53613   11700      0    1.67e+00    0    9.36e-01
2005 08 31  0320    53613   12000      0    1.70e+00    0    9.62e-01
2005 08 31  0325    53613   12300      0    1.71e+00    0    9.70e-01
2005 08 31  0330    53613   12600      0    1.71e+00    0    9.52e-01
2005 08 31  0335    53613   12900      0    1.64e+00    0    9.38e-01
2005 08 31  0340    53613   13200      0    1.69e+00    0    9.68e-01
2005 08 31  0345    53613   13500      0    1.61e+00    0    9.14e-01
2005 08 31  0350    53613   13800      0    1.67e+00    0    9.61e-01
2005 08 31  0355    53613   14100      0    1.66e+00    0    9.67e-01
2005 08 31  0400    53613   14400      0    1.56e+00    0    8.97e-01
2005 08 31  0405    53613   14700      0    1.61e+00    0    9.40e-01
2005 08 31  0410    53613   15000      0    1.64e+00    0    9.72e-01
2005 08 31  0415    53613   15300      0    1.62e+00    0    9.59e-01
2005 08 31  0420    53613   15600      0    1.60e+00    0    9.38e-01
2005 08 31  0425    53613   15900      0    1.62e+00    0    9.46e-01
2005 08 31  0430    53613   16200      0    1.63e+00    0    9.48e-01
2005 08 31  0435    53613   16500      0    1.63e+00    0    9.44e-01
2005 08 31  0440    53613   16800      0    1.65e+00    0    9.58e-01
2005 08 31  0445    53613   17100      0    1.66e+00    0    9.78e-01
2005 08 31  0450    53613   17400      0    1.55e+00    0    9.21e-01
2005 08 31  0455    53613   17700      0    1.54e+00    0    9.37e-01
2005 08 31  0500    53613   18000      0    1.52e+00    0    9.07e-01
2005 08 31  0505    53613   18300      0    1.58e+00    0    9.34e-01
2005 08 31  0510    53613   18600      0    1.58e+00    0    9.51e-01
2005 08 31  0515    53613   18900      0    1.52e+00    0    9.19e-01
2005 08 31  0520    53613   19200      0    1.53e+00    0    9.26e-01
2005 08 31  0525    53613   19500      0    1.52e+00    0    9.17e-01
2005 08 31  0530    53613   19800      0    1.48e+00    0    9.09e-01
2005 08 31  0535    53613   20100      0    1.48e+00    0    9.14e-01
2005 08 31  0540    53613   20400      0    1.50e+00    0    9.34e-01
2005 08 31  0545    53613   20700      0    1.50e+00    0    9.19e-01
2005 08 31  0550    53613   21000      0    1.57e+00    0    9.48e-01
2005 08 31  0555    53613   21300      0    1.57e+00    0    9.41e-01
2005 08 31  0600    53613   21600      0    1.48e+00    0    8.97e-01
2005 08 31  0605    53613   21900      0    1.41e+00    0    8.96e-01
2005 08 31  0610    53613   22200      0    1.38e+00    0    8.82e-01
2005 08 31  0615    53613   22500      0    1.42e+00    0    9.03e-01
2005 08 31  0620    53613   22800      0    1.42e+00    0    9.01e-01
2005 08 31  0625    53613   23100      0    1.38e+00    0    8.87e-01
2005 08 31  0630    53613   23400      0    1.40e+00    0    9.00e-01
2005 08 31  0635    53613   23700      0    1.41e+00    0    9.14e-01
2005 08 31  0640    53613   24000      0    1.40e+00    0    8.96e-01
2005 08 31  0645    53613   24300      0    1.42e+00    0    9.14e-01
2005 08 31  0650    53613   24600      0    1.39e+00    0    8.93e-01
2005 08 31  0655    53613   24900      0    1.39e+00    0    8.82e-01
2005 08 31  0700    53613   25200      0    1.39e+00    0    8.80e-01
2005 08 31  0705    53613   25500      0    1.36e+00    0    8.61e-01
2005 08 31  0710    53613   25800      0    1.42e+00    0    9.16e-01
2005 08 31  0715    53613   26100      0    1.36e+00    0    8.73e-01
2005 08 31  0720    53613   26400      0    1.41e+00    0    8.96e-01
2005 08 31  0725    53613   26700      0    1.38e+00    0    8.97e-01
2005 08 31  0730    53613   27000      0    1.38e+00    0    8.96e-01
2005 08 31  0735    53613   27300      0    1.35e+00    0    8.70e-01
2005 08 31  0740    53613   27600      0    1.37e+00    0    8.94e-01
2005 08 31  0745    53613   27900      0    1.35e+00    0    8.94e-01
2005 08 31  0750    53613   28200      0    1.31e+00    0    8.60e-01
2005 08 31  0755    53613   28500      0    1.33e+00    0    8.73e-01
2005 08 31  0800    53613   28800      0    1.34e+00    0    8.81e-01
2005 08 31  0805    53613   29100      0    1.35e+00    0    8.71e-01
2005 08 31  0810    53613   29400      0    1.31e+00    0    8.70e-01
2005 08 31  0815    53613   29700      0    1.32e+00    0    8.63e-01
2005 08 31  0820    53613   30000      0    1.34e+00    0    8.83e-01
2005 08 31  0825    53613   30300      0    1.37e+00    0    9.01e-01
2005 08 31  0830    53613   30600      0    1.36e+00    0    8.93e-01
2005 08 31  0835    53613   30900      0    1.36e+00    0    8.92e-01
2005 08 31  0840    53613   31200      0    1.34e+00    0    8.71e-01
2005 08 31  0845    53613   31500      0    1.35e+00    0    8.73e-01
2005 08 31  0850    53613   31800      0    1.38e+00    0    9.02e-01
2005 08 31  0855    53613   32100      0    1.36e+00    0    8.85e-01
2005 08 31  0900    53613   32400      0    1.35e+00    0    8.66e-01
2005 08 31  0905    53613   32700      0    1.35e+00    0    8.86e-01
2005 08 31  0910    53613   33000      0    1.38e+00    0    9.16e-01
2005 08 31  0915    53613   33300      0    1.33e+00    0    8.76e-01
2005 08 31  0920    53613   33600      0    1.34e+00    0    8.71e-01
2005 08 31  0925    53613   33900      0    1.35e+00    0    8.96e-01
2005 08 31  0930    53613   34200      0    1.34e+00    0    8.93e-01
2005 08 31  0935    53613   34500      0    1.34e+00    0    8.76e-01
2005 08 31  0940    53613   34800      0    1.36e+00    0    8.88e-01
2005 08 31  0945    53613   35100      0    1.33e+00    0    8.71e-01
2005 08 31  0950    53613   35400      0    1.34e+00    0    8.69e-01
2005 08 31  0955    53613   35700      0    1.35e+00    0    8.87e-01
2005 08 31  1000    53613   36000      0    1.35e+00    0    8.70e-01
2005 08 31  1005    53613   36300      0    1.39e+00    0    8.97e-01
2005 08 31  1010    53613   36600      0    1.27e+00    0    8.28e-01
2005 08 31  1015    53613   36900      0    1.35e+00    0    8.76e-01
2005 08 31  1020    53613   37200      0    1.36e+00    0    8.82e-01
2005 08 31  1025    53613   37500      0    1.36e+00    0    8.85e-01
2005 08 31  1030    53613   37800      0    1.38e+00    0    8.87e-01
2005 08 31  1035    53613   38100      0    1.38e+00    0    8.96e-01
2005 08 31  1040    53613   38400      0    1.40e+00    0    8.91e-01
2005 08 31  1045    53613   38700      0    1.38e+00    0    8.81e-01
2005 08 31  1050    53613   39000      0    1.40e+00    0    9.06e-01
2005 08 31  1055    53613   39300      0    1.39e+00    0    8.82e-01
2005 08 31  1100    53613   39600      0    1.42e+00    0    8.90e-01
2005 08 31  1105    53613   39900      0    1.41e+00    0    8.79e-01
2005 08 31  1110    53613   40200      0    1.39e+00    0    8.99e-01
2005 08 31  1115    53613   40500      0    1.37e+00    0    8.78e-01
2005 08 31  1120    53613   40800      0    1.38e+00    0    8.72e-01
2005 08 31  1125    53613   41100      0    1.39e+00    0    8.92e-01
2005 08 31  1130    53613   41400      0    1.39e+00    0    8.89e-01
2005 08 31  1135    53613   41700      0    1.38e+00    0    8.77e-01
2005 08 31  1140    53613   42000      0    1.40e+00    0    8.89e-01
2005 08 31  1145    53613   42300      0    1.39e+00    0    8.87e-01
2005 08 31  1150    53613   42600      0    1.40e+00    0    8.89e-01
2005 08 31  1155    53613   42900      0    1.42e+00    0    8.90e-01
2005 08 31  1200    53613   43200      0    1.40e+00    0    9.00e-01
2005 08 31  1205    53613   43500      0    1.41e+00    0    8.96e-01
2005 08 31  1210    53613   43800      0    1.42e+00    0    9.16e-01
2005 08 31  1215    53613   44100      0    1.45e+00    0    9.22e-01
2005 08 31  1220    53613   44400      0    1.41e+00    0    9.13e-01
2005 08 31  1225    53613   44700      0    1.39e+00    0    8.90e-01
2005 08 31  1230    53613   45000      0    1.38e+00    0    8.86e-01
2005 08 31  1235    53613   45300      0    1.38e+00    0    8.77e-01
2005 08 31  1240    53613   45600      0    1.38e+00    0    8.80e-01
2005 08 31  1245    53613   45900      0    1.39e+00    0    8.81e-01
2005 08 31  1250    53613   46200      0    1.38e+00    0    8.86e-01
2005 08 31  1255    53613   46500      0    1.38e+00    0    8.71e-01
2005 08 31  1300    53613   46800      0    1.39e+00    0    8.83e-01
2005 08 31  1305    53613   47100      0    1.40e+00    0    8.95e-01
2005 08 31  1310    53613   47400      0    1.41e+00    0    8.98e-01
2005 08 31  1315    53613   47700      0    1.40e+00    0    8.86e-01
2005 08 31  1320    53613   48000      0    1.43e+00    0    9.06e-01
2005 08 31  1325    53613   48300      0    1.44e+00    0    9.23e-01
2005 08 31  1330    53613   48600      0    1.44e+00    0    9.19e-01
2005 08 31  1335    53613   48900      0    1.43e+00    0    9.02e-01
2005 08 31  1340    53613   49200      0    1.43e+00    0    9.13e-01
2005 08 31  1345    53613   49500      0    1.39e+00    0    8.80e-01
2005 08 31  1350    53613   49800      0    1.42e+00    0    8.96e-01
2005 08 31  1355    53613   50100      0    1.40e+00    0    8.90e-01
2005 08 31  1400    53613   50400      0    1.39e+00    0    8.91e-01
2005 08 31  1405    53613   50700      0    1.40e+00    0    9.03e-01
2005 08 31  1410    53613   51000      0    1.40e+00    0    8.98e-01
2005 08 31  1415    53613   51300      0    1.42e+00    0    9.04e-01
2005 08 31  1420    53613   51600      0    1.39e+00    0    8.96e-01
2005 08 31  1425    53613   51900      0    1.39e+00    0    8.89e-01
2005 08 31  1430    53613   52200      0    1.43e+00    0    8.98e-01
2005 08 31  1435    53613   52500      0    1.44e+00    0    9.17e-01
2005 08 31  1440    53613   52800      0    1.40e+00    0    8.81e-01
2005 08 31  1445    53613   53100      0    1.44e+00    0    9.07e-01
2005 08 31  1450    53613   53400      0    1.42e+00    0    8.91e-01
2005 08 31  1455    53613   53700      0    1.40e+00    0    8.90e-01
2005 08 31  1500    53613   54000      0    1.44e+00    0    9.03e-01
2005 08 31  1505    53613   54300      0    1.40e+00    0    8.84e-01
2005 08 31  1510    53613   54600      0    1.42e+00    0    8.81e-01
2005 08 31  1515    53613   54900      0    1.40e+00    0    8.80e-01
2005 08 31  1520    53613   55200      0    1.42e+00    0    8.92e-01
2005 08 31  1525    53613   55500      0    1.44e+00    0    9.12e-01
2005 08 31  1530    53613   55800      0    1.41e+00    0    8.87e-01
2005 08 31  1535    53613   56100      0    1.38e+00    0    8.67e-01
2005 08 31  1540    53613   56400      0    1.38e+00    0    8.77e-01
2005 08 31  1545    53613   56700      0    1.41e+00    0    9.00e-01
2005 08 31  1550    53613   57000      0    1.42e+00    0    8.96e-01
2005 08 31  1555    53613   57300      0    1.40e+00    0    8.91e-01
2005 08 31  1600    53613   57600      0    1.39e+00    0    8.87e-01
2005 08 31  1605    53613   57900      0    1.38e+00    0    8.91e-01
2005 08 31  1610    53613   58200      0    1.37e+00    0    8.91e-01
2005 08 31  1615    53613   58500      0    1.34e+00    0    8.70e-01
2005 08 31  1620    53613   58800      0    1.35e+00    0    8.68e-01
2005 08 31  1625    53613   59100      0    1.36e+00    0    8.60e-01
2005 08 31  1630    53613   59400      0    1.39e+00    0    8.99e-01
2005 08 31  1635    53613   59700      0    1.36e+00    0    8.90e-01
2005 08 31  1640    53613   60000      0    1.38e+00    0    8.88e-01
2005 08 31  1645    53613   60300      0    1.38e+00    0    8.85e-01
2005 08 31  1650    53613   60600      0    1.41e+00    0    9.20e-01
2005 08 31  1655    53613   60900      0    1.37e+00    0    8.89e-01
2005 08 31  1700    53613   61200      0    1.34e+00    0    8.55e-01
2005 08 31  1705    53613   61500      0    1.33e+00    0    8.81e-01
2005 08 31  1710    53613   61800      0    1.35e+00    0    8.76e-01
2005 08 31  1715    53613   62100      0    1.37e+00    0    8.86e-01
2005 08 31  1720    53613   62400      0    1.34e+00    0    8.76e-01
2005 08 31  1725    53613   62700      0    1.36e+00    0    8.79e-01
2005 08 31  1730    53613   63000      0    1.15e+00    0    7.42e-01
2005 08 31  1735    53613   63300      0    1.31e+00    0    8.59e-01
2005 08 31  1740    53613   63600      0    1.34e+00    0    8.83e-01
2005 08 31  1745    53613   63900      0    1.32e+00    0    8.64e-01
2005 08 31  1750    53613   64200      0    1.38e+00    0    8.88e-01
2005 08 31  1755    53613   64500      0    1.40e+00    0    8.96e-01
2005 08 31  1800    53613   64800      0    1.38e+00    0    8.81e-01
2005 08 31  1805    53613   65100      0    1.35e+00    0    8.64e-01
2005 08 31  1810    53613   65400      0    1.39e+00    0    8.97e-01
2005 08 31  1815    53613   65700      0    1.41e+00    0    9.20e-01
2005 08 31  1820    53613   66000      0    1.40e+00    0    8.95e-01
2005 08 31  1825    53613   66300      0    1.35e+00    0    8.66e-01
2005 08 31  1830    53613   66600      0    1.39e+00    0    8.91e-01
2005 08 31  1835    53613   66900      0    1.39e+00    0    8.83e-01
2005 08 31  1840    53613   67200      0    1.39e+00    0    8.96e-01
2005 08 31  1845    53613   67500      0    1.40e+00    0    9.05e-01
2005 08 31  1850    53613   67800      0    1.39e+00    0    9.11e-01
2005 08 31  1855    53613   68100      0    1.40e+00    0    9.02e-01
2005 08 31  1900    53613   68400      0    1.39e+00    0    8.85e-01
2005 08 31  1905    53613   68700      0    1.37e+00    0    8.83e-01
2005 08 31  1910    53613   69000      0    1.37e+00    0    8.78e-01
2005 08 31  1915    53613   69300      0    1.38e+00    0    8.76e-01
2005 08 31  1920    53613   69600      0    1.37e+00    0    8.93e-01
2005 08 31  1925    53613   69900      0    1.39e+00    0    8.91e-01
2005 08 31  1930    53613   70200      0    1.38e+00    0    8.84e-01
2005 08 31  1935    53613   70500      0    1.39e+00    0    9.07e-01
2005 08 31  1940    53613   70800      0    1.36e+00    0    8.74e-01
2005 08 31  1945    53613   71100      0    1.38e+00    0    8.83e-01
2005 08 31  1950    53613   71400      0    1.39e+00    0    8.94e-01
2005 08 31  1955    53613   71700      0    1.39e+00    0    9.08e-01
2005 08 31  2000    53613   72000      0    1.40e+00    0    8.97e-01
2005 08 31  2005    53613   72300      0    1.39e+00    0    9.09e-01
2005 08 31  2010    53613   72600      0    1.37e+00    0    8.92e-01
2005 08 31  2015    53613   72900      0    1.36e+00    0    8.87e-01
2005 08 31  2020    53613   73200      0    1.39e+00    0    9.04e-01
2005 08 31  2025    53613   73500      0    1.38e+00    0    8.88e-01
2005 08 31  2030    53613   73800      0    1.38e+00    0    8.86e-01
2005 08 31  2035    53613   74100      0    1.39e+00    0    9.03e-01
2005 08 31  2040    53613   74400      0    1.36e+00    0    8.84e-01
2005 08 31  2045    53613   74700      0    1.40e+00    0    9.07e-01
2005 08 31  2050    53613   75000      0    1.37e+00    0    8.81e-01
2005 08 31  2055    53613   75300      0    1.40e+00    0    8.97e-01
2005 08 31  2100    53613   75600      0    1.39e+00    0    9.16e-01
2005 08 31  2105    53613   75900      0    1.39e+00    0    9.01e-01
2005 08 31  2110    53613   76200      0    1.39e+00    0    9.09e-01
2005 08 31  2115    53613   76500      0    1.35e+00    0    8.82e-01
2005 08 31  2120    53613   76800      0    1.37e+00    0    8.78e-01
2005 08 31  2125    53613   77100      0    1.40e+00    0    9.07e-01
2005 08 31  2130    53613   77400      0    1.35e+00    0    8.64e-01
2005 08 31  2135    53613   77700      0    1.35e+00    0    8.87e-01
2005 08 31  2140    53613   78000      0    1.37e+00    0    8.94e-01
2005 08 31  2145    53613   78300      0    1.38e+00    0    9.03e-01
2005 08 31  2150    53613   78600      0    1.37e+00    0    8.89e-01
2005 08 31  2155    53613   78900      0    1.37e+00    0    8.88e-01
2005 08 31  2200    53613   79200      0    1.36e+00    0    8.97e-01
2005 08 31  2205    53613   79500      0    1.36e+00    0    8.78e-01
2005 08 31  2210    53613   79800      0    1.39e+00    0    9.01e-01
2005 08 31  2215    53613   80100      0    1.41e+00    0    9.14e-01
2005 08 31  2220    53613   80400      0    1.36e+00    0    8.86e-01
2005 08 31  2225    53613   80700      0    1.39e+00    0    9.12e-01
2005 08 31  2230    53613   81000      0    1.36e+00    0    8.92e-01
2005 08 31  2235    53613   81300      0    1.33e+00    0    8.73e-01
2005 08 31  2240    53613   81600      0    1.36e+00    0    8.87e-01
2005 08 31  2245    53613   81900      0    1.35e+00    0    8.93e-01
2005 08 31  2250    53613   82200      0    1.34e+00    0    8.70e-01
2005 08 31  2255    53613   82500      0    1.34e+00    0    8.92e-01
2005 08 31  2300    53613   82800      0    1.35e+00    0    8.92e-01
2005 08 31  2305    53613   83100      0    1.35e+00    0    8.96e-01
2005 08 31  2310    53613   83400      0    1.33e+00    0    8.74e-01
2005 08 31  2315    53613   83700      0    1.31e+00    0    8.59e-01
2005 08 31  2320    53613   84000      0    1.34e+00    0    9.06e-01
2005 08 31  2325    53613   84300      0    1.33e+00    0    8.91e-01
2005 08 31  2330    53613   84600      0    1.33e+00    0    8.84e-01
2005 08 31  2335    53613   84900      0    1.32e+00    0    8.76e-01
2005 08 31  2340    53613   85200      0    1.31e+00    0    8.69e-01
2005 08 31  2345    53613   85500      0    1.32e+00    0    8.94e-01
2005 08 31  2350    53613   85800      0    1.36e+00    0    9.10e-01
2005 08 31  2355    53613   86100      0    1.37e+00    0    9.22e-01
