:Data_list: 20051109_ace_sis_5m.txt
:Created: 2005 Nov 10 0011 UT
# Prepared by the U.S. Dept. of Commerce, NOAA, Space Environment Center.
# Please send comments and suggestions to SEC.Webmaster@noaa.gov 
# 
# Units: proton flux p/cs2-sec-ster
# Status(S): 0 = nominal data, 1 to 8 = bad data record, 9 = no data
# Missing data values: -1.00e+05
# Source: ACE Satellite - Solar Isotope Spectrometer
#
# 5-minute averaged Real-time Integral Flux of High-energy Solar Protons
# 
#                 Modified Seconds
# UT Date   Time   Julian  of the      ---- Integral Proton Flux ----
# YR MO DA  HHMM     Day     Day       S    > 10 MeV    S    > 30 MeV
#--------------------------------------------------------------------
2005 11 09  0000    53683       0      0    1.36e+00    0    9.63e-01
2005 11 09  0005    53683     300      0    1.33e+00    0    9.36e-01
2005 11 09  0010    53683     600      0    1.37e+00    0    9.42e-01
2005 11 09  0015    53683     900      0    1.34e+00    0    9.33e-01
2005 11 09  0020    53683    1200      0    1.37e+00    0    9.69e-01
2005 11 09  0025    53683    1500      0    1.34e+00    0    9.48e-01
2005 11 09  0030    53683    1800      0    1.34e+00    0    9.43e-01
2005 11 09  0035    53683    2100      0    1.35e+00    0    9.51e-01
2005 11 09  0040    53683    2400      0    1.35e+00    0    9.49e-01
2005 11 09  0045    53683    2700      0    1.37e+00    0    9.58e-01
2005 11 09  0050    53683    3000      0    1.32e+00    0    9.34e-01
2005 11 09  0055    53683    3300      0    1.33e+00    0    9.36e-01
2005 11 09  0100    53683    3600      0    1.34e+00    0    9.46e-01
2005 11 09  0105    53683    3900      0    1.34e+00    0    9.30e-01
2005 11 09  0110    53683    4200      0    1.34e+00    0    9.42e-01
2005 11 09  0115    53683    4500      0    1.34e+00    0    9.38e-01
2005 11 09  0120    53683    4800      0    1.31e+00    0    9.19e-01
2005 11 09  0125    53683    5100      0    1.35e+00    0    9.42e-01
2005 11 09  0130    53683    5400      0    1.32e+00    0    9.37e-01
2005 11 09  0135    53683    5700      0    1.38e+00    0    9.64e-01
2005 11 09  0140    53683    6000      0    1.31e+00    0    9.15e-01
2005 11 09  0145    53683    6300      0    1.33e+00    0    9.32e-01
2005 11 09  0150    53683    6600      0    1.35e+00    0    9.42e-01
2005 11 09  0155    53683    6900      0    1.34e+00    0    9.44e-01
2005 11 09  0200    53683    7200      0    1.35e+00    0    9.52e-01
2005 11 09  0205    53683    7500      0    1.34e+00    0    9.44e-01
2005 11 09  0210    53683    7800      0    1.34e+00    0    9.44e-01
2005 11 09  0215    53683    8100      0    1.36e+00    0    9.54e-01
2005 11 09  0220    53683    8400      0    1.36e+00    0    9.63e-01
2005 11 09  0225    53683    8700      0    1.35e+00    0    9.51e-01
2005 11 09  0230    53683    9000      0    1.35e+00    0    9.38e-01
2005 11 09  0235    53683    9300      0    1.35e+00    0    9.48e-01
2005 11 09  0240    53683    9600      0    1.33e+00    0    9.36e-01
2005 11 09  0245    53683    9900      0    1.34e+00    0    9.47e-01
2005 11 09  0250    53683   10200      0    1.33e+00    0    9.32e-01
2005 11 09  0255    53683   10500      0    1.40e+00    0    9.87e-01
2005 11 09  0300    53683   10800      0    1.35e+00    0    9.37e-01
2005 11 09  0305    53683   11100      0    1.36e+00    0    9.56e-01
2005 11 09  0310    53683   11400      0    1.31e+00    0    9.29e-01
2005 11 09  0315    53683   11700      0    1.35e+00    0    9.50e-01
2005 11 09  0320    53683   12000      0    1.34e+00    0    9.38e-01
2005 11 09  0325    53683   12300      0    1.34e+00    0    9.46e-01
2005 11 09  0330    53683   12600      0    1.31e+00    0    9.08e-01
2005 11 09  0335    53683   12900      0    1.33e+00    0    9.32e-01
2005 11 09  0340    53683   13200      0    1.31e+00    0    9.13e-01
2005 11 09  0345    53683   13500      0    1.35e+00    0    9.57e-01
2005 11 09  0350    53683   13800      0    1.36e+00    0    9.61e-01
2005 11 09  0355    53683   14100      0    1.33e+00    0    9.45e-01
2005 11 09  0400    53683   14400      0    1.34e+00    0    9.48e-01
2005 11 09  0405    53683   14700      0    1.35e+00    0    9.49e-01
2005 11 09  0410    53683   15000      0    1.36e+00    0    9.49e-01
2005 11 09  0415    53683   15300      0    1.36e+00    0    9.69e-01
2005 11 09  0420    53683   15600      0    1.35e+00    0    9.58e-01
2005 11 09  0425    53683   15900      0    1.38e+00    0    9.86e-01
2005 11 09  0430    53683   16200      0    1.38e+00    0    9.72e-01
2005 11 09  0435    53683   16500      0    1.39e+00    0    9.81e-01
2005 11 09  0440    53683   16800      0    1.36e+00    0    9.47e-01
2005 11 09  0445    53683   17100      0    1.39e+00    0    9.68e-01
2005 11 09  0450    53683   17400      0    1.34e+00    0    9.36e-01
2005 11 09  0455    53683   17700      0    1.34e+00    0    9.49e-01
2005 11 09  0500    53683   18000      0    1.36e+00    0    9.56e-01
2005 11 09  0505    53683   18300      0    1.34e+00    0    9.28e-01
2005 11 09  0510    53683   18600      0    1.35e+00    0    9.48e-01
2005 11 09  0515    53683   18900      0    1.35e+00    0    9.50e-01
2005 11 09  0520    53683   19200      0    1.36e+00    0    9.64e-01
2005 11 09  0525    53683   19500      0    1.36e+00    0    9.57e-01
2005 11 09  0530    53683   19800      0    1.34e+00    0    9.42e-01
2005 11 09  0535    53683   20100      0    1.34e+00    0    9.42e-01
2005 11 09  0540    53683   20400      0    1.36e+00    0    9.62e-01
2005 11 09  0545    53683   20700      0    1.35e+00    0    9.52e-01
2005 11 09  0550    53683   21000      0    1.35e+00    0    9.56e-01
2005 11 09  0555    53683   21300      0    1.25e+00    0    8.83e-01
2005 11 09  0600    53683   21600      0    1.36e+00    0    9.53e-01
2005 11 09  0605    53683   21900      0    1.37e+00    0    9.70e-01
2005 11 09  0610    53683   22200      0    1.33e+00    0    9.37e-01
2005 11 09  0615    53683   22500      0    1.36e+00    0    9.59e-01
2005 11 09  0620    53683   22800      0    1.35e+00    0    9.50e-01
2005 11 09  0625    53683   23100      0    1.36e+00    0    9.58e-01
2005 11 09  0630    53683   23400      0    1.36e+00    0    9.67e-01
2005 11 09  0635    53683   23700      0    1.30e+00    0    9.16e-01
2005 11 09  0640    53683   24000      0    1.33e+00    0    9.47e-01
2005 11 09  0645    53683   24300      0    1.33e+00    0    9.37e-01
2005 11 09  0650    53683   24600      0    1.36e+00    0    9.41e-01
2005 11 09  0655    53683   24900      0    1.35e+00    0    9.44e-01
2005 11 09  0700    53683   25200      0    1.36e+00    0    9.64e-01
2005 11 09  0705    53683   25500      0    1.36e+00    0    9.51e-01
2005 11 09  0710    53683   25800      0    1.35e+00    0    9.52e-01
2005 11 09  0715    53683   26100      0    1.39e+00    0    9.81e-01
2005 11 09  0720    53683   26400      0    1.36e+00    0    9.51e-01
2005 11 09  0725    53683   26700      0    1.34e+00    0    9.45e-01
2005 11 09  0730    53683   27000      0    1.34e+00    0    9.64e-01
2005 11 09  0735    53683   27300      0    1.35e+00    0    9.46e-01
2005 11 09  0740    53683   27600      0    1.34e+00    0    9.53e-01
2005 11 09  0745    53683   27900      0    1.35e+00    0    9.42e-01
2005 11 09  0750    53683   28200      0    1.36e+00    0    9.71e-01
2005 11 09  0755    53683   28500      0    1.34e+00    0    9.31e-01
2005 11 09  0800    53683   28800      0    1.34e+00    0    9.43e-01
2005 11 09  0805    53683   29100      0    1.34e+00    0    9.34e-01
2005 11 09  0810    53683   29400      0    1.36e+00    0    9.63e-01
2005 11 09  0815    53683   29700      0    1.33e+00    0    9.37e-01
2005 11 09  0820    53683   30000      0    1.35e+00    0    9.47e-01
2005 11 09  0825    53683   30300      0    1.34e+00    0    9.26e-01
2005 11 09  0830    53683   30600      0    1.34e+00    0    9.40e-01
2005 11 09  0835    53683   30900      0    1.34e+00    0    9.36e-01
2005 11 09  0840    53683   31200      0    1.37e+00    0    9.58e-01
2005 11 09  0845    53683   31500      0    1.34e+00    0    9.48e-01
2005 11 09  0850    53683   31800      0    1.36e+00    0    9.57e-01
2005 11 09  0855    53683   32100      0    1.36e+00    0    9.56e-01
2005 11 09  0900    53683   32400      0    1.36e+00    0    9.61e-01
2005 11 09  0905    53683   32700      0    1.36e+00    0    9.62e-01
2005 11 09  0910    53683   33000      0    1.39e+00    0    9.77e-01
2005 11 09  0915    53683   33300      0    1.38e+00    0    9.59e-01
2005 11 09  0920    53683   33600      0    1.37e+00    0    9.70e-01
2005 11 09  0925    53683   33900      0    1.36e+00    0    9.59e-01
2005 11 09  0930    53683   34200      0    1.33e+00    0    9.36e-01
2005 11 09  0935    53683   34500      0    1.34e+00    0    9.39e-01
2005 11 09  0940    53683   34800      0    1.35e+00    0    9.59e-01
2005 11 09  0945    53683   35100      0    1.37e+00    0    9.66e-01
2005 11 09  0950    53683   35400      0    1.33e+00    0    9.26e-01
2005 11 09  0955    53683   35700      0    1.37e+00    0    9.62e-01
2005 11 09  1000    53683   36000      0    1.35e+00    0    9.50e-01
2005 11 09  1005    53683   36300      0    1.35e+00    0    9.44e-01
2005 11 09  1010    53683   36600      0    1.38e+00    0    9.74e-01
2005 11 09  1015    53683   36900      0    1.36e+00    0    9.58e-01
2005 11 09  1020    53683   37200      0    1.35e+00    0    9.48e-01
2005 11 09  1025    53683   37500      0    1.36e+00    0    9.56e-01
2005 11 09  1030    53683   37800      0    1.34e+00    0    9.44e-01
2005 11 09  1035    53683   38100      0    1.34e+00    0    9.39e-01
2005 11 09  1040    53683   38400      0    1.35e+00    0    9.52e-01
2005 11 09  1045    53683   38700      0    1.37e+00    0    9.69e-01
2005 11 09  1050    53683   39000      0    1.40e+00    0    9.82e-01
2005 11 09  1055    53683   39300      0    1.36e+00    0    9.51e-01
2005 11 09  1100    53683   39600      0    1.35e+00    0    9.47e-01
2005 11 09  1105    53683   39900      0    1.38e+00    0    9.73e-01
2005 11 09  1110    53683   40200      0    1.37e+00    0    9.66e-01
2005 11 09  1115    53683   40500      0    1.35e+00    0    9.48e-01
2005 11 09  1120    53683   40800      0    1.34e+00    0    9.44e-01
2005 11 09  1125    53683   41100      0    1.37e+00    0    9.61e-01
2005 11 09  1130    53683   41400      0    1.36e+00    0    9.46e-01
2005 11 09  1135    53683   41700      0    1.34e+00    0    9.42e-01
2005 11 09  1140    53683   42000      0    1.36e+00    0    9.58e-01
2005 11 09  1145    53683   42300      0    1.31e+00    0    9.17e-01
2005 11 09  1150    53683   42600      0    1.34e+00    0    9.59e-01
2005 11 09  1155    53683   42900      0    1.38e+00    0    9.72e-01
2005 11 09  1200    53683   43200      0    1.37e+00    0    9.59e-01
2005 11 09  1205    53683   43500      0    1.34e+00    0    9.47e-01
2005 11 09  1210    53683   43800      0    1.34e+00    0    9.39e-01
2005 11 09  1215    53683   44100      0    1.36e+00    0    9.56e-01
2005 11 09  1220    53683   44400      0    1.39e+00    0    9.74e-01
2005 11 09  1225    53683   44700      0    1.34e+00    0    9.34e-01
2005 11 09  1230    53683   45000      0    1.33e+00    0    9.37e-01
2005 11 09  1235    53683   45300      0    1.35e+00    0    9.50e-01
2005 11 09  1240    53683   45600      0    1.35e+00    0    9.46e-01
2005 11 09  1245    53683   45900      0    1.34e+00    0    9.37e-01
2005 11 09  1250    53683   46200      0    1.34e+00    0    9.44e-01
2005 11 09  1255    53683   46500      0    1.37e+00    0    9.66e-01
2005 11 09  1300    53683   46800      0    1.37e+00    0    9.57e-01
2005 11 09  1305    53683   47100      0    1.38e+00    0    9.76e-01
2005 11 09  1310    53683   47400      0    1.36e+00    0    9.52e-01
2005 11 09  1315    53683   47700      0    1.35e+00    0    9.48e-01
2005 11 09  1320    53683   48000      0    1.37e+00    0    9.60e-01
2005 11 09  1325    53683   48300      0    1.33e+00    0    9.30e-01
2005 11 09  1330    53683   48600      0    1.34e+00    0    9.31e-01
2005 11 09  1335    53683   48900      0    1.38e+00    0    9.66e-01
2005 11 09  1340    53683   49200      0    1.35e+00    0    9.37e-01
2005 11 09  1345    53683   49500      0    1.39e+00    0    9.92e-01
2005 11 09  1350    53683   49800      0    1.40e+00    0    9.79e-01
2005 11 09  1355    53683   50100      0    1.36e+00    0    9.66e-01
2005 11 09  1400    53683   50400      0    1.36e+00    0    9.56e-01
2005 11 09  1405    53683   50700      0    1.35e+00    0    9.41e-01
2005 11 09  1410    53683   51000      0    1.36e+00    0    9.61e-01
2005 11 09  1415    53683   51300      0    1.38e+00    0    9.63e-01
2005 11 09  1420    53683   51600      0    1.36e+00    0    9.51e-01
2005 11 09  1425    53683   51900      0    1.34e+00    0    9.37e-01
2005 11 09  1430    53683   52200      0    1.35e+00    0    9.39e-01
2005 11 09  1435    53683   52500      0    1.37e+00    0    9.67e-01
2005 11 09  1440    53683   52800      0    1.35e+00    0    9.39e-01
2005 11 09  1445    53683   53100      0    1.38e+00    0    9.71e-01
2005 11 09  1450    53683   53400      0    1.35e+00    0    9.56e-01
2005 11 09  1455    53683   53700      0    1.35e+00    0    9.48e-01
2005 11 09  1500    53683   54000      0    1.36e+00    0    9.67e-01
2005 11 09  1505    53683   54300      0    1.33e+00    0    9.29e-01
2005 11 09  1510    53683   54600      0    1.39e+00    0    9.78e-01
2005 11 09  1515    53683   54900      0    1.35e+00    0    9.46e-01
2005 11 09  1520    53683   55200      0    1.35e+00    0    9.53e-01
2005 11 09  1525    53683   55500      0    1.35e+00    0    9.43e-01
2005 11 09  1530    53683   55800      0    1.38e+00    0    9.66e-01
2005 11 09  1535    53683   56100      0    1.34e+00    0    9.44e-01
2005 11 09  1540    53683   56400      0    1.34e+00    0    9.37e-01
2005 11 09  1545    53683   56700      0    1.37e+00    0    9.58e-01
2005 11 09  1550    53683   57000      0    1.34e+00    0    9.38e-01
2005 11 09  1555    53683   57300      0    1.35e+00    0    9.49e-01
2005 11 09  1600    53683   57600      0    1.36e+00    0    9.57e-01
2005 11 09  1605    53683   57900      0    1.36e+00    0    9.42e-01
2005 11 09  1610    53683   58200      0    1.36e+00    0    9.65e-01
2005 11 09  1615    53683   58500      0    1.34e+00    0    9.41e-01
2005 11 09  1620    53683   58800      0    1.37e+00    0    9.69e-01
2005 11 09  1625    53683   59100      0    1.38e+00    0    9.74e-01
2005 11 09  1630    53683   59400      0    1.32e+00    0    9.18e-01
2005 11 09  1635    53683   59700      0    9.85e+00    0    9.50e-01
2005 11 09  1640    53683   60000      0    1.35e+00    0    9.57e-01
2005 11 09  1645    53683   60300      0    1.35e+00    0    9.47e-01
2005 11 09  1650    53683   60600      0    1.34e+00    0    9.45e-01
2005 11 09  1655    53683   60900      0    1.34e+00    0    9.41e-01
2005 11 09  1700    53683   61200      0    1.34e+00    0    9.45e-01
2005 11 09  1705    53683   61500      0    1.34e+00    0    9.41e-01
2005 11 09  1710    53683   61800      0    1.36e+00    0    9.52e-01
2005 11 09  1715    53683   62100      0    1.35e+00    0    9.43e-01
2005 11 09  1720    53683   62400      0    1.34e+00    0    9.56e-01
2005 11 09  1725    53683   62700      0    1.33e+00    0    9.34e-01
2005 11 09  1730    53683   63000      0    1.36e+00    0    9.46e-01
2005 11 09  1735    53683   63300      0    1.37e+00    0    9.71e-01
2005 11 09  1740    53683   63600      0    1.33e+00    0    9.38e-01
2005 11 09  1745    53683   63900      0    1.36e+00    0    9.59e-01
2005 11 09  1750    53683   64200      0    1.39e+00    0    9.91e-01
2005 11 09  1755    53683   64500      0    1.38e+00    0    9.68e-01
2005 11 09  1800    53683   64800      0    1.33e+00    0    9.34e-01
2005 11 09  1805    53683   65100      0    1.35e+00    0    9.47e-01
2005 11 09  1810    53683   65400      0    1.37e+00    0    9.62e-01
2005 11 09  1815    53683   65700      0    1.34e+00    0    9.41e-01
2005 11 09  1820    53683   66000      0    1.37e+00    0    9.59e-01
2005 11 09  1825    53683   66300      0    1.32e+00    0    9.29e-01
2005 11 09  1830    53683   66600      0    1.34e+00    0    9.30e-01
2005 11 09  1835    53683   66900      0    1.33e+00    0    9.36e-01
2005 11 09  1840    53683   67200      0    1.38e+00    0    9.54e-01
2005 11 09  1845    53683   67500      0    1.37e+00    0    9.68e-01
2005 11 09  1850    53683   67800      0    1.32e+00    0    9.24e-01
2005 11 09  1855    53683   68100      0    1.34e+00    0    9.41e-01
2005 11 09  1900    53683   68400      0    1.37e+00    0    9.52e-01
2005 11 09  1905    53683   68700      0    1.33e+00    0    9.32e-01
2005 11 09  1910    53683   69000      0    1.37e+00    0    9.66e-01
2005 11 09  1915    53683   69300      0    1.36e+00    0    9.57e-01
2005 11 09  1920    53683   69600      0    1.37e+00    0    9.59e-01
2005 11 09  1925    53683   69900      0    1.36e+00    0    9.49e-01
2005 11 09  1930    53683   70200      0    1.37e+00    0    9.48e-01
2005 11 09  1935    53683   70500      0    1.35e+00    0    9.39e-01
2005 11 09  1940    53683   70800      0    1.37e+00    0    9.69e-01
2005 11 09  1945    53683   71100      0    1.33e+00    0    9.39e-01
2005 11 09  1950    53683   71400      0    1.35e+00    0    9.42e-01
2005 11 09  1955    53683   71700      0    1.37e+00    0    9.53e-01
2005 11 09  2000    53683   72000      0    1.37e+00    0    9.67e-01
2005 11 09  2005    53683   72300      0    1.37e+00    0    9.59e-01
2005 11 09  2010    53683   72600      0    1.37e+00    0    9.62e-01
2005 11 09  2015    53683   72900      0    1.36e+00    0    9.53e-01
2005 11 09  2020    53683   73200      0    1.37e+00    0    9.68e-01
2005 11 09  2025    53683   73500      0    1.35e+00    0    9.51e-01
2005 11 09  2030    53683   73800      0    1.36e+00    0    9.48e-01
2005 11 09  2035    53683   74100      0    1.37e+00    0    9.63e-01
2005 11 09  2040    53683   74400      0    1.38e+00    0    9.68e-01
2005 11 09  2045    53683   74700      0    1.36e+00    0    9.64e-01
2005 11 09  2050    53683   75000      0    1.38e+00    0    9.70e-01
2005 11 09  2055    53683   75300      0    1.37e+00    0    9.69e-01
2005 11 09  2100    53683   75600      0    1.37e+00    0    9.48e-01
2005 11 09  2105    53683   75900      0    1.38e+00    0    9.57e-01
2005 11 09  2110    53683   76200      0    1.37e+00    0    9.55e-01
2005 11 09  2115    53683   76500      0    1.35e+00    0    9.55e-01
2005 11 09  2120    53683   76800      0    1.37e+00    0    9.69e-01
2005 11 09  2125    53683   77100      0    1.39e+00    0    9.75e-01
2005 11 09  2130    53683   77400      0    1.38e+00    0    9.56e-01
2005 11 09  2135    53683   77700      0    1.34e+00    0    9.41e-01
2005 11 09  2140    53683   78000      0    1.39e+00    0    9.78e-01
2005 11 09  2145    53683   78300      0    1.39e+00    0    9.69e-01
2005 11 09  2150    53683   78600      0    1.37e+00    0    9.61e-01
2005 11 09  2155    53683   78900      0    1.37e+00    0    9.55e-01
2005 11 09  2200    53683   79200      0    1.38e+00    0    9.76e-01
2005 11 09  2205    53683   79500      0    1.41e+00    0    9.85e-01
2005 11 09  2210    53683   79800      0    1.39e+00    0    9.80e-01
2005 11 09  2215    53683   80100      0    1.40e+00    0    9.87e-01
2005 11 09  2220    53683   80400      0    1.37e+00    0    9.63e-01
2005 11 09  2225    53683   80700      0    1.37e+00    0    9.83e-01
2005 11 09  2230    53683   81000      0    1.36e+00    0    9.64e-01
2005 11 09  2235    53683   81300      0    1.37e+00    0    9.58e-01
2005 11 09  2240    53683   81600      0    1.37e+00    0    9.62e-01
2005 11 09  2245    53683   81900      0    1.34e+00    0    9.45e-01
2005 11 09  2250    53683   82200      0    1.38e+00    0    9.59e-01
2005 11 09  2255    53683   82500      0    1.37e+00    0    9.68e-01
2005 11 09  2300    53683   82800      0    1.37e+00    0    9.61e-01
2005 11 09  2305    53683   83100      0    1.37e+00    0    9.57e-01
2005 11 09  2310    53683   83400      0    1.39e+00    0    9.70e-01
2005 11 09  2315    53683   83700      0    1.35e+00    0    9.49e-01
2005 11 09  2320    53683   84000      0    1.36e+00    0    9.41e-01
2005 11 09  2325    53683   84300      0    1.37e+00    0    9.69e-01
2005 11 09  2330    53683   84600      0    1.38e+00    0    9.69e-01
2005 11 09  2335    53683   84900      0    1.36e+00    0    9.54e-01
2005 11 09  2340    53683   85200      0    1.38e+00    0    9.62e-01
2005 11 09  2345    53683   85500      0    1.38e+00    0    9.61e-01
2005 11 09  2350    53683   85800      0    1.37e+00    0    9.73e-01
2005 11 09  2355    53683   86100      0    1.37e+00    0    9.64e-01
