:Data_list: 20051119_ace_sis_5m.txt
:Created: 2005 Nov 20 0011 UT
# Prepared by the U.S. Dept. of Commerce, NOAA, Space Environment Center.
# Please send comments and suggestions to SEC.Webmaster@noaa.gov 
# 
# Units: proton flux p/cs2-sec-ster
# Status(S): 0 = nominal data, 1 to 8 = bad data record, 9 = no data
# Missing data values: -1.00e+05
# Source: ACE Satellite - Solar Isotope Spectrometer
#
# 5-minute averaged Real-time Integral Flux of High-energy Solar Protons
# 
#                 Modified Seconds
# UT Date   Time   Julian  of the      ---- Integral Proton Flux ----
# YR MO DA  HHMM     Day     Day       S    > 10 MeV    S    > 30 MeV
#--------------------------------------------------------------------
2005 11 19  0000    53693       0      0    1.37e+00    0    9.58e-01
2005 11 19  0005    53693     300      0    1.40e+00    0    9.78e-01
2005 11 19  0010    53693     600      0    1.40e+00    0    9.88e-01
2005 11 19  0015    53693     900      0    1.38e+00    0    9.76e-01
2005 11 19  0020    53693    1200      0    1.40e+00    0    9.85e-01
2005 11 19  0025    53693    1500      9   -1.00e+05    9   -1.00e+05
2005 11 19  0030    53693    1800      0    1.36e+00    0    9.50e-01
2005 11 19  0035    53693    2100      0    1.37e+00    0    9.60e-01
2005 11 19  0040    53693    2400      0    1.36e+00    0    9.54e-01
2005 11 19  0045    53693    2700      0    1.37e+00    0    9.62e-01
2005 11 19  0050    53693    3000      0    1.38e+00    0    9.62e-01
2005 11 19  0055    53693    3300      0    1.35e+00    0    9.39e-01
2005 11 19  0100    53693    3600      0    1.40e+00    0    9.84e-01
2005 11 19  0105    53693    3900      0    1.40e+00    0    9.86e-01
2005 11 19  0110    53693    4200      0    1.37e+00    0    9.57e-01
2005 11 19  0115    53693    4500      0    1.34e+00    0    9.42e-01
2005 11 19  0120    53693    4800      0    1.33e+00    0    9.28e-01
2005 11 19  0125    53693    5100      0    1.38e+00    0    9.64e-01
2005 11 19  0130    53693    5400      0    1.35e+00    0    9.40e-01
2005 11 19  0135    53693    5700      0    1.41e+00    0    9.91e-01
2005 11 19  0140    53693    6000      0    1.37e+00    0    9.57e-01
2005 11 19  0145    53693    6300      0    1.34e+00    0    9.41e-01
2005 11 19  0150    53693    6600      0    1.39e+00    0    9.74e-01
2005 11 19  0155    53693    6900      0    1.37e+00    0    9.61e-01
2005 11 19  0200    53693    7200      0    1.38e+00    0    9.62e-01
2005 11 19  0205    53693    7500      0    1.37e+00    0    9.60e-01
2005 11 19  0210    53693    7800      9   -1.00e+05    9   -1.00e+05
2005 11 19  0215    53693    8100      0    1.38e+00    0    9.70e-01
2005 11 19  0220    53693    8400      0    1.41e+00    0    1.00e+00
2005 11 19  0225    53693    8700      0    1.40e+00    0    9.84e-01
2005 11 19  0230    53693    9000      0    1.38e+00    0    9.72e-01
2005 11 19  0235    53693    9300      0    1.33e+00    0    9.31e-01
2005 11 19  0240    53693    9600      0    1.37e+00    0    9.50e-01
2005 11 19  0245    53693    9900      0    1.42e+00    0    9.97e-01
2005 11 19  0250    53693   10200      0    1.37e+00    0    9.59e-01
2005 11 19  0255    53693   10500      0    1.35e+00    0    9.54e-01
2005 11 19  0300    53693   10800      0    1.37e+00    0    9.52e-01
2005 11 19  0305    53693   11100      0    1.36e+00    0    9.64e-01
2005 11 19  0310    53693   11400      0    1.36e+00    0    9.48e-01
2005 11 19  0315    53693   11700      0    1.37e+00    0    9.56e-01
2005 11 19  0320    53693   12000      0    1.38e+00    0    9.59e-01
2005 11 19  0325    53693   12300      0    1.38e+00    0    9.57e-01
2005 11 19  0330    53693   12600      0    1.37e+00    0    9.53e-01
2005 11 19  0335    53693   12900      0    1.35e+00    0    9.56e-01
2005 11 19  0340    53693   13200      0    1.36e+00    0    9.54e-01
2005 11 19  0345    53693   13500      0    1.37e+00    0    9.58e-01
2005 11 19  0350    53693   13800      0    1.36e+00    0    9.69e-01
2005 11 19  0355    53693   14100      0    1.34e+00    0    9.40e-01
2005 11 19  0400    53693   14400      0    1.36e+00    0    9.51e-01
2005 11 19  0405    53693   14700      0    1.39e+00    0    9.73e-01
2005 11 19  0410    53693   15000      0    1.36e+00    0    9.56e-01
2005 11 19  0415    53693   15300      0    1.38e+00    0    9.78e-01
2005 11 19  0420    53693   15600      0    1.36e+00    0    9.48e-01
2005 11 19  0425    53693   15900      0    1.35e+00    0    9.42e-01
2005 11 19  0430    53693   16200      0    1.37e+00    0    9.52e-01
2005 11 19  0435    53693   16500      0    1.36e+00    0    9.65e-01
2005 11 19  0440    53693   16800      0    1.38e+00    0    9.69e-01
2005 11 19  0445    53693   17100      0    1.35e+00    0    9.42e-01
2005 11 19  0450    53693   17400      0    1.36e+00    0    9.60e-01
2005 11 19  0455    53693   17700      0    1.37e+00    0    9.67e-01
2005 11 19  0500    53693   18000      0    1.37e+00    0    9.68e-01
2005 11 19  0505    53693   18300      0    1.35e+00    0    9.43e-01
2005 11 19  0510    53693   18600      0    1.36e+00    0    9.53e-01
2005 11 19  0515    53693   18900      0    1.37e+00    0    9.62e-01
2005 11 19  0520    53693   19200      0    1.37e+00    0    9.77e-01
2005 11 19  0525    53693   19500      9   -1.00e+05    9   -1.00e+05
2005 11 19  0530    53693   19800      0    1.39e+00    0    9.71e-01
2005 11 19  0535    53693   20100      0    1.38e+00    0    9.61e-01
2005 11 19  0540    53693   20400      0    1.35e+00    0    9.47e-01
2005 11 19  0545    53693   20700      0    1.37e+00    0    9.59e-01
2005 11 19  0550    53693   21000      0    1.37e+00    0    9.66e-01
2005 11 19  0555    53693   21300      0    1.35e+00    0    9.43e-01
2005 11 19  0600    53693   21600      9   -1.00e+05    9   -1.00e+05
2005 11 19  0605    53693   21900      0    1.33e+00    0    9.27e-01
2005 11 19  0610    53693   22200      0    1.39e+00    0    9.70e-01
2005 11 19  0615    53693   22500      0    1.38e+00    0    9.64e-01
2005 11 19  0620    53693   22800      0    1.39e+00    0    9.83e-01
2005 11 19  0625    53693   23100      0    1.37e+00    0    9.63e-01
2005 11 19  0630    53693   23400      0    1.37e+00    0    9.58e-01
2005 11 19  0635    53693   23700      0    1.39e+00    0    9.71e-01
2005 11 19  0640    53693   24000      0    1.39e+00    0    9.78e-01
2005 11 19  0645    53693   24300      0    1.34e+00    0    9.48e-01
2005 11 19  0650    53693   24600      0    1.41e+00    0    9.97e-01
2005 11 19  0655    53693   24900      0    1.38e+00    0    9.78e-01
2005 11 19  0700    53693   25200      0    1.36e+00    0    9.57e-01
2005 11 19  0705    53693   25500      0    1.36e+00    0    9.60e-01
2005 11 19  0710    53693   25800      0    1.38e+00    0    9.68e-01
2005 11 19  0715    53693   26100      0    1.34e+00    0    9.30e-01
2005 11 19  0720    53693   26400      0    1.41e+00    0    9.89e-01
2005 11 19  0725    53693   26700      0    1.39e+00    0    9.74e-01
2005 11 19  0730    53693   27000      0    1.37e+00    0    9.63e-01
2005 11 19  0735    53693   27300      0    1.37e+00    0    9.70e-01
2005 11 19  0740    53693   27600      0    1.37e+00    0    9.66e-01
2005 11 19  0745    53693   27900      0    1.38e+00    0    9.72e-01
2005 11 19  0750    53693   28200      0    1.37e+00    0    9.68e-01
2005 11 19  0755    53693   28500      0    1.35e+00    0    9.43e-01
2005 11 19  0800    53693   28800      0    1.39e+00    0    9.93e-01
2005 11 19  0805    53693   29100      0    1.35e+00    0    9.54e-01
2005 11 19  0810    53693   29400      0    1.36e+00    0    9.53e-01
2005 11 19  0815    53693   29700      0    1.41e+00    0    9.93e-01
2005 11 19  0820    53693   30000      0    1.37e+00    0    9.59e-01
2005 11 19  0825    53693   30300      0    1.38e+00    0    9.76e-01
2005 11 19  0830    53693   30600      0    1.36e+00    0    9.60e-01
2005 11 19  0835    53693   30900      0    1.36e+00    0    9.58e-01
2005 11 19  0840    53693   31200      0    1.38e+00    0    9.71e-01
2005 11 19  0845    53693   31500      0    1.36e+00    0    9.59e-01
2005 11 19  0850    53693   31800      0    1.41e+00    0    9.87e-01
2005 11 19  0855    53693   32100      0    1.41e+00    0    1.01e+00
2005 11 19  0900    53693   32400      0    1.35e+00    0    9.51e-01
2005 11 19  0905    53693   32700      0    1.40e+00    0    9.90e-01
2005 11 19  0910    53693   33000      0    1.33e+00    0    9.29e-01
2005 11 19  0915    53693   33300      0    1.37e+00    0    9.57e-01
2005 11 19  0920    53693   33600      0    1.38e+00    0    9.64e-01
2005 11 19  0925    53693   33900      0    1.39e+00    0    9.71e-01
2005 11 19  0930    53693   34200      0    1.38e+00    0    9.73e-01
2005 11 19  0935    53693   34500      0    1.39e+00    0    9.73e-01
2005 11 19  0940    53693   34800      0    1.32e+00    0    9.26e-01
2005 11 19  0945    53693   35100      0    1.36e+00    0    9.49e-01
2005 11 19  0950    53693   35400      0    1.41e+00    0    9.86e-01
2005 11 19  0955    53693   35700      0    1.39e+00    0    9.63e-01
2005 11 19  1000    53693   36000      0    1.35e+00    0    9.53e-01
2005 11 19  1005    53693   36300      0    1.41e+00    0    9.95e-01
2005 11 19  1010    53693   36600      0    1.37e+00    0    9.57e-01
2005 11 19  1015    53693   36900      0    1.37e+00    0    9.68e-01
2005 11 19  1020    53693   37200      0    1.36e+00    0    9.41e-01
2005 11 19  1025    53693   37500      0    1.37e+00    0    9.61e-01
2005 11 19  1030    53693   37800      0    1.37e+00    0    9.59e-01
2005 11 19  1035    53693   38100      0    1.37e+00    0    9.64e-01
2005 11 19  1040    53693   38400      0    1.39e+00    0    9.78e-01
2005 11 19  1045    53693   38700      0    1.36e+00    0    9.60e-01
2005 11 19  1050    53693   39000      9   -1.00e+05    9   -1.00e+05
2005 11 19  1055    53693   39300      0    1.37e+00    0    9.40e-01
2005 11 19  1100    53693   39600      0    1.39e+00    0    9.78e-01
2005 11 19  1105    53693   39900      0    1.37e+00    0    9.54e-01
2005 11 19  1110    53693   40200      0    1.36e+00    0    9.49e-01
2005 11 19  1115    53693   40500      0    1.38e+00    0    9.71e-01
2005 11 19  1120    53693   40800      0    1.38e+00    0    9.60e-01
2005 11 19  1125    53693   41100      0    1.36e+00    0    9.64e-01
2005 11 19  1130    53693   41400      0    1.39e+00    0    9.62e-01
2005 11 19  1135    53693   41700      0    1.32e+00    0    9.13e-01
2005 11 19  1140    53693   42000      0    1.36e+00    0    9.62e-01
2005 11 19  1145    53693   42300      0    1.37e+00    0    9.68e-01
2005 11 19  1150    53693   42600      0    1.39e+00    0    9.83e-01
2005 11 19  1155    53693   42900      0    1.35e+00    0    9.46e-01
2005 11 19  1200    53693   43200      0    1.36e+00    0    9.60e-01
2005 11 19  1205    53693   43500      0    1.41e+00    0    1.00e+00
2005 11 19  1210    53693   43800      0    1.40e+00    0    9.78e-01
2005 11 19  1215    53693   44100      0    1.38e+00    0    9.77e-01
2005 11 19  1220    53693   44400      0    1.35e+00    0    9.48e-01
2005 11 19  1225    53693   44700      0    1.36e+00    0    9.60e-01
2005 11 19  1230    53693   45000      0    1.37e+00    0    9.63e-01
2005 11 19  1235    53693   45300      0    1.36e+00    0    9.50e-01
2005 11 19  1240    53693   45600      0    1.34e+00    0    9.30e-01
2005 11 19  1245    53693   45900      0    1.34e+00    0    9.41e-01
2005 11 19  1250    53693   46200      0    1.35e+00    0    9.51e-01
2005 11 19  1255    53693   46500      0    1.42e+00    0    9.80e-01
2005 11 19  1300    53693   46800      0    1.35e+00    0    9.41e-01
2005 11 19  1305    53693   47100      0    1.36e+00    0    9.56e-01
2005 11 19  1310    53693   47400      0    1.34e+00    0    9.48e-01
2005 11 19  1315    53693   47700      0    1.37e+00    0    9.61e-01
2005 11 19  1320    53693   48000      0    1.37e+00    0    9.74e-01
2005 11 19  1325    53693   48300      0    1.36e+00    0    9.59e-01
2005 11 19  1330    53693   48600      0    1.34e+00    0    9.39e-01
2005 11 19  1335    53693   48900      0    1.33e+00    0    9.36e-01
2005 11 19  1340    53693   49200      0    1.35e+00    0    9.47e-01
2005 11 19  1345    53693   49500      0    1.33e+00    0    9.33e-01
2005 11 19  1350    53693   49800      0    1.35e+00    0    9.50e-01
2005 11 19  1355    53693   50100      0    1.35e+00    0    9.39e-01
2005 11 19  1400    53693   50400      0    1.38e+00    0    9.60e-01
2005 11 19  1405    53693   50700      0    1.37e+00    0    9.63e-01
2005 11 19  1410    53693   51000      0    1.34e+00    0    9.48e-01
2005 11 19  1415    53693   51300      0    1.30e+00    0    9.06e-01
2005 11 19  1420    53693   51600      0    1.37e+00    0    9.67e-01
2005 11 19  1425    53693   51900      0    1.35e+00    0    9.40e-01
2005 11 19  1430    53693   52200      0    1.38e+00    0    9.70e-01
2005 11 19  1435    53693   52500      0    1.32e+00    0    9.26e-01
2005 11 19  1440    53693   52800      0    1.36e+00    0    9.49e-01
2005 11 19  1445    53693   53100      0    1.32e+00    0    9.21e-01
2005 11 19  1450    53693   53400      0    1.36e+00    0    9.53e-01
2005 11 19  1455    53693   53700      0    1.34e+00    0    9.41e-01
2005 11 19  1500    53693   54000      0    1.36e+00    0    9.55e-01
2005 11 19  1505    53693   54300      0    1.38e+00    0    9.72e-01
2005 11 19  1510    53693   54600      0    1.33e+00    0    9.40e-01
2005 11 19  1515    53693   54900      0    1.36e+00    0    9.58e-01
2005 11 19  1520    53693   55200      0    1.36e+00    0    9.51e-01
2005 11 19  1525    53693   55500      0    1.36e+00    0    9.58e-01
2005 11 19  1530    53693   55800      0    1.37e+00    0    9.63e-01
2005 11 19  1535    53693   56100      0    1.37e+00    0    9.56e-01
2005 11 19  1540    53693   56400      0    1.38e+00    0    9.66e-01
2005 11 19  1545    53693   56700      0    1.38e+00    0    9.68e-01
2005 11 19  1550    53693   57000      0    1.39e+00    0    9.76e-01
2005 11 19  1555    53693   57300      0    1.38e+00    0    9.66e-01
2005 11 19  1600    53693   57600      0    1.38e+00    0    9.59e-01
2005 11 19  1605    53693   57900      0    1.39e+00    0    9.77e-01
2005 11 19  1610    53693   58200      0    1.35e+00    0    9.42e-01
2005 11 19  1615    53693   58500      0    1.40e+00    0    9.74e-01
2005 11 19  1620    53693   58800      0    1.38e+00    0    9.68e-01
2005 11 19  1625    53693   59100      0    1.40e+00    0    9.79e-01
2005 11 19  1630    53693   59400      0    1.37e+00    0    9.60e-01
2005 11 19  1635    53693   59700      0    1.36e+00    0    9.51e-01
2005 11 19  1640    53693   60000      0    1.37e+00    0    9.67e-01
2005 11 19  1645    53693   60300      0    1.37e+00    0    9.57e-01
2005 11 19  1650    53693   60600      0    1.36e+00    0    9.49e-01
2005 11 19  1655    53693   60900      0    1.35e+00    0    9.43e-01
2005 11 19  1700    53693   61200      0    1.36e+00    0    9.59e-01
2005 11 19  1705    53693   61500      0    1.37e+00    0    9.70e-01
2005 11 19  1710    53693   61800      0    1.34e+00    0    9.36e-01
2005 11 19  1715    53693   62100      0    1.37e+00    0    9.63e-01
2005 11 19  1720    53693   62400      0    1.37e+00    0    9.54e-01
2005 11 19  1725    53693   62700      0    1.32e+00    0    9.37e-01
2005 11 19  1730    53693   63000      0    1.34e+00    0    9.44e-01
2005 11 19  1735    53693   63300      0    1.36e+00    0    9.52e-01
2005 11 19  1740    53693   63600      0    1.35e+00    0    9.51e-01
2005 11 19  1745    53693   63900      0    1.33e+00    0    9.36e-01
2005 11 19  1750    53693   64200      0    1.36e+00    0    9.57e-01
2005 11 19  1755    53693   64500      0    1.35e+00    0    9.57e-01
2005 11 19  1800    53693   64800      0    1.35e+00    0    9.50e-01
2005 11 19  1805    53693   65100      0    1.41e+00    0    9.96e-01
2005 11 19  1810    53693   65400      0    1.37e+00    0    9.59e-01
2005 11 19  1815    53693   65700      0    1.32e+00    0    9.11e-01
2005 11 19  1820    53693   66000      0    1.35e+00    0    9.40e-01
2005 11 19  1825    53693   66300      0    1.35e+00    0    9.44e-01
2005 11 19  1830    53693   66600      0    1.36e+00    0    9.46e-01
2005 11 19  1835    53693   66900      0    1.38e+00    0    9.66e-01
2005 11 19  1840    53693   67200      0    1.33e+00    0    9.44e-01
2005 11 19  1845    53693   67500      0    1.36e+00    0    9.53e-01
2005 11 19  1850    53693   67800      0    1.37e+00    0    9.70e-01
2005 11 19  1855    53693   68100      0    1.32e+00    0    9.24e-01
2005 11 19  1900    53693   68400      0    1.32e+00    0    9.21e-01
2005 11 19  1905    53693   68700      0    1.37e+00    0    9.60e-01
2005 11 19  1910    53693   69000      0    1.35e+00    0    9.42e-01
2005 11 19  1915    53693   69300      0    1.37e+00    0    9.65e-01
2005 11 19  1920    53693   69600      0    1.33e+00    0    9.34e-01
2005 11 19  1925    53693   69900      0    1.36e+00    0    9.57e-01
2005 11 19  1930    53693   70200      0    1.33e+00    0    9.40e-01
2005 11 19  1935    53693   70500      0    1.41e+00    0    9.85e-01
2005 11 19  1940    53693   70800      9   -1.00e+05    9   -1.00e+05
2005 11 19  1945    53693   71100      9   -1.00e+05    9   -1.00e+05
2005 11 19  1950    53693   71400      0    2.00e-01    0    1.20e-01
2005 11 19  1955    53693   71700      0    1.34e+00    0    9.44e-01
2005 11 19  2000    53693   72000      0    1.33e+00    0    9.32e-01
2005 11 19  2005    53693   72300      0    1.37e+00    0    9.57e-01
2005 11 19  2010    53693   72600      0    1.35e+00    0    9.48e-01
2005 11 19  2015    53693   72900      0    1.35e+00    0    9.43e-01
2005 11 19  2020    53693   73200      0    1.38e+00    0    9.61e-01
2005 11 19  2025    53693   73500      0    1.33e+00    0    9.24e-01
2005 11 19  2030    53693   73800      0    1.35e+00    0    9.49e-01
2005 11 19  2035    53693   74100      0    1.34e+00    0    9.44e-01
2005 11 19  2040    53693   74400      0    1.35e+00    0    9.50e-01
2005 11 19  2045    53693   74700      0    1.39e+00    0    9.73e-01
2005 11 19  2050    53693   75000      0    1.37e+00    0    9.60e-01
2005 11 19  2055    53693   75300      0    1.37e+00    0    9.58e-01
2005 11 19  2100    53693   75600      0    1.36e+00    0    9.52e-01
2005 11 19  2105    53693   75900      0    1.35e+00    0    9.54e-01
2005 11 19  2110    53693   76200      0    1.34e+00    0    9.40e-01
2005 11 19  2115    53693   76500      0    1.34e+00    0    9.36e-01
2005 11 19  2120    53693   76800      0    1.37e+00    0    9.53e-01
2005 11 19  2125    53693   77100      0    1.34e+00    0    9.42e-01
2005 11 19  2130    53693   77400      0    1.37e+00    0    9.56e-01
2005 11 19  2135    53693   77700      0    1.34e+00    0    9.40e-01
2005 11 19  2140    53693   78000      0    1.35e+00    0    9.52e-01
2005 11 19  2145    53693   78300      0    1.35e+00    0    9.47e-01
2005 11 19  2150    53693   78600      0    1.35e+00    0    9.43e-01
2005 11 19  2155    53693   78900      0    1.37e+00    0    9.63e-01
2005 11 19  2200    53693   79200      0    1.33e+00    0    9.40e-01
2005 11 19  2205    53693   79500      0    1.37e+00    0    9.61e-01
2005 11 19  2210    53693   79800      0    1.38e+00    0    9.71e-01
2005 11 19  2215    53693   80100      0    1.33e+00    0    9.27e-01
2005 11 19  2220    53693   80400      0    1.38e+00    0    9.58e-01
2005 11 19  2225    53693   80700      0    1.36e+00    0    9.59e-01
2005 11 19  2230    53693   81000      0    1.35e+00    0    9.54e-01
2005 11 19  2235    53693   81300      0    1.36e+00    0    9.56e-01
2005 11 19  2240    53693   81600      0    1.33e+00    0    9.39e-01
2005 11 19  2245    53693   81900      0    1.34e+00    0    9.46e-01
2005 11 19  2250    53693   82200      0    1.38e+00    0    9.64e-01
2005 11 19  2255    53693   82500      0    1.34e+00    0    9.47e-01
2005 11 19  2300    53693   82800      0    1.33e+00    0    9.43e-01
2005 11 19  2305    53693   83100      0    1.36e+00    0    9.67e-01
2005 11 19  2310    53693   83400      0    1.34e+00    0    9.47e-01
2005 11 19  2315    53693   83700      0    1.34e+00    0    9.41e-01
2005 11 19  2320    53693   84000      0    1.32e+00    0    9.23e-01
2005 11 19  2325    53693   84300      0    1.28e+00    0    9.03e-01
2005 11 19  2330    53693   84600      0    1.36e+00    0    9.58e-01
2005 11 19  2335    53693   84900      0    1.35e+00    0    9.51e-01
2005 11 19  2340    53693   85200      0    1.40e+00    0    9.85e-01
2005 11 19  2345    53693   85500      0    1.38e+00    0    9.70e-01
2005 11 19  2350    53693   85800      0    1.36e+00    0    9.45e-01
2005 11 19  2355    53693   86100      0    1.36e+00    0    9.60e-01
