:Data_list: 20050728_ace_sis_5m.txt
:Created: 2005 Jul 29 0011 UT
# Prepared by the U.S. Dept. of Commerce, NOAA, Space Environment Center.
# Please send comments and suggestions to SEC.Webmaster@noaa.gov 
# 
# Units: proton flux p/cs2-sec-ster
# Status(S): 0 = nominal data, 1 to 8 = bad data record, 9 = no data
# Missing data values: -1.00e+05
# Source: ACE Satellite - Solar Isotope Spectrometer
#
# 5-minute averaged Real-time Integral Flux of High-energy Solar Protons
# 
#                 Modified Seconds
# UT Date   Time   Julian  of the      ---- Integral Proton Flux ----
# YR MO DA  HHMM     Day     Day       S    > 10 MeV    S    > 30 MeV
#--------------------------------------------------------------------
2005 07 28  0000    53579       0      0    2.34e+01    0    3.83e+00
2005 07 28  0005    53579     300      0    2.33e+01    0    4.01e+00
2005 07 28  0010    53579     600      0    2.45e+01    0    3.98e+00
2005 07 28  0015    53579     900      0    2.26e+01    0    3.67e+00
2005 07 28  0020    53579    1200      0    1.99e+01    0    3.44e+00
2005 07 28  0025    53579    1500      0    1.96e+01    0    3.40e+00
2005 07 28  0030    53579    1800      0    2.03e+01    0    3.36e+00
2005 07 28  0035    53579    2100      0    2.09e+01    0    3.41e+00
2005 07 28  0040    53579    2400      0    2.16e+01    0    3.62e+00
2005 07 28  0045    53579    2700      0    2.24e+01    0    3.67e+00
2005 07 28  0050    53579    3000      0    2.27e+01    0    3.84e+00
2005 07 28  0055    53579    3300      0    2.31e+01    0    3.77e+00
2005 07 28  0100    53579    3600      0    2.48e+01    0    3.92e+00
2005 07 28  0105    53579    3900      0    2.86e+01    0    4.35e+00
2005 07 28  0110    53579    4200      0    3.18e+01    0    4.72e+00
2005 07 28  0115    53579    4500      0    3.10e+01    0    4.52e+00
2005 07 28  0120    53579    4800      0    2.92e+01    0    4.38e+00
2005 07 28  0125    53579    5100      0    2.68e+01    0    4.19e+00
2005 07 28  0130    53579    5400      0    2.78e+01    0    4.30e+00
2005 07 28  0135    53579    5700      0    3.12e+01    0    4.54e+00
2005 07 28  0140    53579    6000      0    3.08e+01    0    4.54e+00
2005 07 28  0145    53579    6300      0    2.91e+01    0    4.44e+00
2005 07 28  0150    53579    6600      0    2.95e+01    0    4.40e+00
2005 07 28  0155    53579    6900      0    2.93e+01    0    4.48e+00
2005 07 28  0200    53579    7200      0    2.98e+01    0    4.38e+00
2005 07 28  0205    53579    7500      0    2.97e+01    0    4.35e+00
2005 07 28  0210    53579    7800      0    2.96e+01    0    4.48e+00
2005 07 28  0215    53579    8100      0    2.90e+01    0    4.30e+00
2005 07 28  0220    53579    8400      0    2.92e+01    0    4.25e+00
2005 07 28  0225    53579    8700      0    2.89e+01    0    4.29e+00
2005 07 28  0230    53579    9000      0    2.89e+01    0    4.20e+00
2005 07 28  0235    53579    9300      0    2.87e+01    0    4.27e+00
2005 07 28  0240    53579    9600      0    2.87e+01    0    4.26e+00
2005 07 28  0245    53579    9900      0    2.91e+01    0    4.32e+00
2005 07 28  0250    53579   10200      0    2.89e+01    0    4.12e+00
2005 07 28  0255    53579   10500      0    2.94e+01    0    4.32e+00
2005 07 28  0300    53579   10800      0    2.96e+01    0    4.29e+00
2005 07 28  0305    53579   11100      0    3.18e+01    0    4.40e+00
2005 07 28  0310    53579   11400      0    3.36e+01    0    4.37e+00
2005 07 28  0315    53579   11700      0    3.35e+01    0    4.71e+00
2005 07 28  0320    53579   12000      0    3.26e+01    0    4.62e+00
2005 07 28  0325    53579   12300      0    3.32e+01    0    4.62e+00
2005 07 28  0330    53579   12600      0    3.33e+01    0    4.63e+00
2005 07 28  0335    53579   12900      0    3.35e+01    0    4.60e+00
2005 07 28  0340    53579   13200      0    3.28e+01    0    4.59e+00
2005 07 28  0345    53579   13500      0    3.36e+01    0    4.63e+00
2005 07 28  0350    53579   13800      0    3.28e+01    0    4.70e+00
2005 07 28  0355    53579   14100      0    3.41e+01    0    4.78e+00
2005 07 28  0400    53579   14400      0    3.69e+01    0    4.80e+00
2005 07 28  0405    53579   14700      0    3.72e+01    0    5.00e+00
2005 07 28  0410    53579   15000      0    3.62e+01    0    4.73e+00
2005 07 28  0415    53579   15300      0    3.53e+01    0    4.61e+00
2005 07 28  0420    53579   15600      0    3.55e+01    0    4.90e+00
2005 07 28  0425    53579   15900      0    3.52e+01    0    4.83e+00
2005 07 28  0430    53579   16200      0    3.56e+01    0    4.87e+00
2005 07 28  0435    53579   16500      0    3.54e+01    0    4.74e+00
2005 07 28  0440    53579   16800      0    3.55e+01    0    4.80e+00
2005 07 28  0445    53579   17100      0    3.58e+01    0    4.63e+00
2005 07 28  0450    53579   17400      0    3.60e+01    0    4.73e+00
2005 07 28  0455    53579   17700      0    3.62e+01    0    4.65e+00
2005 07 28  0500    53579   18000      0    3.65e+01    0    4.76e+00
2005 07 28  0505    53579   18300      0    3.67e+01    0    4.85e+00
2005 07 28  0510    53579   18600      0    3.75e+01    0    5.15e+00
2005 07 28  0515    53579   18900      0    3.75e+01    0    5.01e+00
2005 07 28  0520    53579   19200      0    3.77e+01    0    4.94e+00
2005 07 28  0525    53579   19500      0    3.66e+01    0    4.85e+00
2005 07 28  0530    53579   19800      0    3.62e+01    0    4.79e+00
2005 07 28  0535    53579   20100      0    3.69e+01    0    5.01e+00
2005 07 28  0540    53579   20400      0    3.65e+01    0    4.74e+00
2005 07 28  0545    53579   20700      0    3.73e+01    0    4.76e+00
2005 07 28  0550    53579   21000      0    3.78e+01    0    4.94e+00
2005 07 28  0555    53579   21300      0    3.77e+01    0    4.85e+00
2005 07 28  0600    53579   21600      0    3.64e+01    0    4.82e+00
2005 07 28  0605    53579   21900      0    3.43e+01    0    4.82e+00
2005 07 28  0610    53579   22200      0    3.39e+01    0    4.33e+00
2005 07 28  0615    53579   22500      0    3.46e+01    0    4.46e+00
2005 07 28  0620    53579   22800      0    3.47e+01    0    4.49e+00
2005 07 28  0625    53579   23100      0    3.57e+01    0    4.78e+00
2005 07 28  0630    53579   23400      0    3.70e+01    0    4.90e+00
2005 07 28  0635    53579   23700      0    3.68e+01    0    4.70e+00
2005 07 28  0640    53579   24000      0    3.67e+01    0    4.79e+00
2005 07 28  0645    53579   24300      0    3.59e+01    0    4.57e+00
2005 07 28  0650    53579   24600      0    3.58e+01    0    4.70e+00
2005 07 28  0655    53579   24900      0    3.59e+01    0    4.69e+00
2005 07 28  0700    53579   25200      0    3.66e+01    0    4.77e+00
2005 07 28  0705    53579   25500      0    3.66e+01    0    4.83e+00
2005 07 28  0710    53579   25800      0    3.64e+01    0    4.81e+00
2005 07 28  0715    53579   26100      0    3.60e+01    0    4.71e+00
2005 07 28  0720    53579   26400      0    3.62e+01    0    4.74e+00
2005 07 28  0725    53579   26700      0    3.62e+01    0    4.57e+00
2005 07 28  0730    53579   27000      0    3.65e+01    0    4.66e+00
2005 07 28  0735    53579   27300      0    3.71e+01    0    4.83e+00
2005 07 28  0740    53579   27600      0    3.73e+01    0    4.94e+00
2005 07 28  0745    53579   27900      0    3.71e+01    0    4.73e+00
2005 07 28  0750    53579   28200      0    3.63e+01    0    4.51e+00
2005 07 28  0755    53579   28500      0    3.51e+01    0    4.42e+00
2005 07 28  0800    53579   28800      0    3.46e+01    0    4.53e+00
2005 07 28  0805    53579   29100      0    3.49e+01    0    4.63e+00
2005 07 28  0810    53579   29400      0    3.51e+01    0    4.50e+00
2005 07 28  0815    53579   29700      0    3.51e+01    0    4.48e+00
2005 07 28  0820    53579   30000      0    3.59e+01    0    4.59e+00
2005 07 28  0825    53579   30300      0    3.46e+01    0    4.25e+00
2005 07 28  0830    53579   30600      0    3.47e+01    0    4.42e+00
2005 07 28  0835    53579   30900      0    3.31e+01    0    4.38e+00
2005 07 28  0840    53579   31200      0    3.23e+01    0    4.22e+00
2005 07 28  0845    53579   31500      0    3.21e+01    0    4.15e+00
2005 07 28  0850    53579   31800      0    3.14e+01    0    4.01e+00
2005 07 28  0855    53579   32100      0    3.10e+01    0    3.97e+00
2005 07 28  0900    53579   32400      0    3.10e+01    0    3.98e+00
2005 07 28  0905    53579   32700      0    3.13e+01    0    3.92e+00
2005 07 28  0910    53579   33000      0    3.19e+01    0    4.25e+00
2005 07 28  0915    53579   33300      0    3.23e+01    0    4.29e+00
2005 07 28  0920    53579   33600      0    3.32e+01    0    4.28e+00
2005 07 28  0925    53579   33900      0    3.31e+01    0    4.35e+00
2005 07 28  0930    53579   34200      0    3.31e+01    0    4.19e+00
2005 07 28  0935    53579   34500      0    3.36e+01    0    4.32e+00
2005 07 28  0940    53579   34800      0    3.31e+01    0    4.21e+00
2005 07 28  0945    53579   35100      0    3.39e+01    0    4.25e+00
2005 07 28  0950    53579   35400      0    3.68e+01    0    4.54e+00
2005 07 28  0955    53579   35700      0    3.78e+01    0    4.53e+00
2005 07 28  1000    53579   36000      0    3.71e+01    0    4.51e+00
2005 07 28  1005    53579   36300      0    3.73e+01    0    4.48e+00
2005 07 28  1010    53579   36600      0    3.58e+01    0    4.50e+00
2005 07 28  1015    53579   36900      0    3.64e+01    0    4.46e+00
2005 07 28  1020    53579   37200      0    3.72e+01    0    4.65e+00
2005 07 28  1025    53579   37500      0    3.87e+01    0    4.59e+00
2005 07 28  1030    53579   37800      0    3.81e+01    0    4.57e+00
2005 07 28  1035    53579   38100      0    3.72e+01    0    4.42e+00
2005 07 28  1040    53579   38400      0    3.78e+01    0    4.45e+00
2005 07 28  1045    53579   38700      0    3.76e+01    0    4.68e+00
2005 07 28  1050    53579   39000      0    3.76e+01    0    4.38e+00
2005 07 28  1055    53579   39300      0    3.78e+01    0    4.63e+00
2005 07 28  1100    53579   39600      0    3.86e+01    0    4.69e+00
2005 07 28  1105    53579   39900      0    3.85e+01    0    4.78e+00
2005 07 28  1110    53579   40200      0    3.82e+01    0    4.39e+00
2005 07 28  1115    53579   40500      0    3.95e+01    0    4.56e+00
2005 07 28  1120    53579   40800      0    4.24e+01    0    4.97e+00
2005 07 28  1125    53579   41100      0    4.22e+01    0    4.71e+00
2005 07 28  1130    53579   41400      0    4.32e+01    0    4.97e+00
2005 07 28  1135    53579   41700      0    4.17e+01    0    5.13e+00
2005 07 28  1140    53579   42000      0    4.06e+01    0    4.69e+00
2005 07 28  1145    53579   42300      0    3.95e+01    0    4.45e+00
2005 07 28  1150    53579   42600      0    3.93e+01    0    4.50e+00
2005 07 28  1155    53579   42900      0    4.34e+01    0    4.77e+00
2005 07 28  1200    53579   43200      0    4.39e+01    0    5.02e+00
2005 07 28  1205    53579   43500      0    4.43e+01    0    4.92e+00
2005 07 28  1210    53579   43800      0    4.39e+01    0    4.85e+00
2005 07 28  1215    53579   44100      0    4.30e+01    0    4.83e+00
2005 07 28  1220    53579   44400      0    4.47e+01    0    4.84e+00
2005 07 28  1225    53579   44700      0    4.31e+01    0    4.84e+00
2005 07 28  1230    53579   45000      0    4.52e+01    0    5.14e+00
2005 07 28  1235    53579   45300      0    4.61e+01    0    4.93e+00
2005 07 28  1240    53579   45600      0    4.64e+01    0    5.28e+00
2005 07 28  1245    53579   45900      0    4.65e+01    0    5.01e+00
2005 07 28  1250    53579   46200      0    4.64e+01    0    5.24e+00
2005 07 28  1255    53579   46500      0    4.70e+01    0    5.48e+00
2005 07 28  1300    53579   46800      0    4.73e+01    0    5.04e+00
2005 07 28  1305    53579   47100      0    4.68e+01    0    5.31e+00
2005 07 28  1310    53579   47400      0    4.52e+01    0    5.17e+00
2005 07 28  1315    53579   47700      0    4.47e+01    0    5.14e+00
2005 07 28  1320    53579   48000      0    4.46e+01    0    5.32e+00
2005 07 28  1325    53579   48300      0    4.52e+01    0    4.88e+00
2005 07 28  1330    53579   48600      0    4.63e+01    0    5.15e+00
2005 07 28  1335    53579   48900      0    4.44e+01    0    4.95e+00
2005 07 28  1340    53579   49200      0    4.32e+01    0    4.73e+00
2005 07 28  1345    53579   49500      0    4.45e+01    0    4.97e+00
2005 07 28  1350    53579   49800      0    4.47e+01    0    4.94e+00
2005 07 28  1355    53579   50100      0    4.54e+01    0    5.16e+00
2005 07 28  1400    53579   50400      0    4.49e+01    0    4.96e+00
2005 07 28  1405    53579   50700      0    4.39e+01    0    4.97e+00
2005 07 28  1410    53579   51000      0    4.37e+01    0    5.24e+00
2005 07 28  1415    53579   51300      0    4.33e+01    0    4.95e+00
2005 07 28  1420    53579   51600      0    4.28e+01    0    4.78e+00
2005 07 28  1425    53579   51900      0    4.38e+01    0    4.82e+00
2005 07 28  1430    53579   52200      0    4.28e+01    0    4.49e+00
2005 07 28  1435    53579   52500      0    4.14e+01    0    4.69e+00
2005 07 28  1440    53579   52800      0    4.15e+01    0    4.63e+00
2005 07 28  1445    53579   53100      0    4.24e+01    0    4.73e+00
2005 07 28  1450    53579   53400      0    4.25e+01    0    4.76e+00
2005 07 28  1455    53579   53700      0    4.08e+01    0    4.40e+00
2005 07 28  1500    53579   54000      0    4.01e+01    0    4.47e+00
2005 07 28  1505    53579   54300      0    3.94e+01    0    4.19e+00
2005 07 28  1510    53579   54600      0    3.95e+01    0    4.37e+00
2005 07 28  1515    53579   54900      0    4.12e+01    0    4.58e+00
2005 07 28  1520    53579   55200      0    4.27e+01    0    4.56e+00
2005 07 28  1525    53579   55500      0    4.34e+01    0    4.76e+00
2005 07 28  1530    53579   55800      0    4.48e+01    0    4.88e+00
2005 07 28  1535    53579   56100      0    4.45e+01    0    4.93e+00
2005 07 28  1540    53579   56400      0    4.45e+01    0    5.05e+00
2005 07 28  1545    53579   56700      0    4.35e+01    0    4.78e+00
2005 07 28  1550    53579   57000      0    4.18e+01    0    4.67e+00
2005 07 28  1555    53579   57300      0    3.97e+01    0    4.40e+00
2005 07 28  1600    53579   57600      0    3.96e+01    0    4.45e+00
2005 07 28  1605    53579   57900      0    3.91e+01    0    4.26e+00
2005 07 28  1610    53579   58200      0    3.93e+01    0    4.58e+00
2005 07 28  1615    53579   58500      0    3.90e+01    0    4.44e+00
2005 07 28  1620    53579   58800      0    3.92e+01    0    4.62e+00
2005 07 28  1625    53579   59100      0    3.91e+01    0    4.35e+00
2005 07 28  1630    53579   59400      0    4.08e+01    0    4.62e+00
2005 07 28  1635    53579   59700      0    4.38e+01    0    5.00e+00
2005 07 28  1640    53579   60000      0    4.57e+01    0    4.86e+00
2005 07 28  1645    53579   60300      0    4.40e+01    0    5.01e+00
2005 07 28  1650    53579   60600      0    4.07e+01    0    4.80e+00
2005 07 28  1655    53579   60900      0    3.93e+01    0    4.59e+00
2005 07 28  1700    53579   61200      0    3.97e+01    0    4.50e+00
2005 07 28  1705    53579   61500      0    3.98e+01    0    4.50e+00
2005 07 28  1710    53579   61800      0    3.96e+01    0    4.33e+00
2005 07 28  1715    53579   62100      0    3.88e+01    0    4.33e+00
2005 07 28  1720    53579   62400      0    3.88e+01    0    4.40e+00
2005 07 28  1725    53579   62700      0    3.87e+01    0    4.35e+00
2005 07 28  1730    53579   63000      0    3.85e+01    0    4.44e+00
2005 07 28  1735    53579   63300      0    3.90e+01    0    4.39e+00
2005 07 28  1740    53579   63600      0    3.89e+01    0    4.35e+00
2005 07 28  1745    53579   63900      0    3.89e+01    0    4.33e+00
2005 07 28  1750    53579   64200      0    3.93e+01    0    4.45e+00
2005 07 28  1755    53579   64500      0    3.94e+01    0    4.51e+00
2005 07 28  1800    53579   64800      0    3.92e+01    0    4.42e+00
2005 07 28  1805    53579   65100      9   -1.00e+05    9   -1.00e+05
2005 07 28  1810    53579   65400      0    3.91e+01    0    4.45e+00
2005 07 28  1815    53579   65700      0    3.90e+01    0    4.22e+00
2005 07 28  1820    53579   66000      0    3.79e+01    0    4.26e+00
2005 07 28  1825    53579   66300      0    3.89e+01    0    4.23e+00
2005 07 28  1830    53579   66600      9   -1.00e+05    9   -1.00e+05
2005 07 28  1835    53579   66900      0    3.78e+01    0    4.45e+00
2005 07 28  1840    53579   67200      0    3.84e+01    0    4.27e+00
2005 07 28  1845    53579   67500      0    3.82e+01    0    4.20e+00
2005 07 28  1850    53579   67800      0    3.83e+01    0    4.10e+00
2005 07 28  1855    53579   68100      0    3.80e+01    0    4.17e+00
2005 07 28  1900    53579   68400      0    3.78e+01    0    4.24e+00
2005 07 28  1905    53579   68700      0    3.87e+01    0    4.21e+00
2005 07 28  1910    53579   69000      0    3.87e+01    0    4.20e+00
2005 07 28  1915    53579   69300      0    3.91e+01    0    4.44e+00
2005 07 28  1920    53579   69600      0    3.81e+01    0    4.37e+00
2005 07 28  1925    53579   69900      9   -1.00e+05    9   -1.00e+05
2005 07 28  1930    53579   70200      9   -1.00e+05    9   -1.00e+05
2005 07 28  1935    53579   70500      9   -1.00e+05    9   -1.00e+05
2005 07 28  1940    53579   70800      0    3.78e+01    0    4.22e+00
2005 07 28  1945    53579   71100      0    3.79e+01    0    4.35e+00
2005 07 28  1950    53579   71400      0    3.78e+01    0    4.33e+00
2005 07 28  1955    53579   71700      0    3.83e+01    0    4.34e+00
2005 07 28  2000    53579   72000      0    3.81e+01    0    4.16e+00
2005 07 28  2005    53579   72300      0    3.85e+01    0    4.41e+00
2005 07 28  2010    53579   72600      0    3.85e+01    0    4.25e+00
2005 07 28  2015    53579   72900      0    3.90e+01    0    4.34e+00
2005 07 28  2020    53579   73200      0    3.88e+01    0    4.56e+00
2005 07 28  2025    53579   73500      0    3.85e+01    0    4.26e+00
2005 07 28  2030    53579   73800      0    3.83e+01    0    4.21e+00
2005 07 28  2035    53579   74100      0    3.83e+01    0    4.10e+00
2005 07 28  2040    53579   74400      0    3.86e+01    0    4.21e+00
2005 07 28  2045    53579   74700      0    3.82e+01    0    4.18e+00
2005 07 28  2050    53579   75000      0    3.78e+01    0    4.11e+00
2005 07 28  2055    53579   75300      0    3.83e+01    0    4.26e+00
2005 07 28  2100    53579   75600      0    3.82e+01    0    4.15e+00
2005 07 28  2105    53579   75900      0    3.80e+01    0    3.89e+00
2005 07 28  2110    53579   76200      0    3.88e+01    0    4.30e+00
2005 07 28  2115    53579   76500      0    3.82e+01    0    4.47e+00
2005 07 28  2120    53579   76800      0    3.86e+01    0    4.27e+00
2005 07 28  2125    53579   77100      0    3.79e+01    0    4.14e+00
2005 07 28  2130    53579   77400      0    3.77e+01    0    4.05e+00
2005 07 28  2135    53579   77700      0    3.79e+01    0    4.11e+00
2005 07 28  2140    53579   78000      0    3.79e+01    0    4.06e+00
2005 07 28  2145    53579   78300      0    3.78e+01    0    4.07e+00
2005 07 28  2150    53579   78600      0    3.81e+01    0    4.27e+00
2005 07 28  2155    53579   78900      0    3.78e+01    0    4.23e+00
2005 07 28  2200    53579   79200      0    3.79e+01    0    4.11e+00
2005 07 28  2205    53579   79500      0    3.73e+01    0    4.18e+00
2005 07 28  2210    53579   79800      0    3.81e+01    0    4.14e+00
2005 07 28  2215    53579   80100      0    3.75e+01    0    4.10e+00
2005 07 28  2220    53579   80400      0    3.79e+01    0    3.99e+00
2005 07 28  2225    53579   80700      0    3.78e+01    0    4.08e+00
2005 07 28  2230    53579   81000      0    3.81e+01    0    4.14e+00
2005 07 28  2235    53579   81300      0    3.77e+01    0    4.23e+00
2005 07 28  2240    53579   81600      0    3.72e+01    0    4.11e+00
2005 07 28  2245    53579   81900      0    3.72e+01    0    4.09e+00
2005 07 28  2250    53579   82200      0    3.66e+01    0    4.13e+00
2005 07 28  2255    53579   82500      0    3.82e+01    0    3.99e+00
2005 07 28  2300    53579   82800      0    3.73e+01    0    3.95e+00
2005 07 28  2305    53579   83100      0    3.73e+01    0    4.02e+00
2005 07 28  2310    53579   83400      0    3.72e+01    0    3.98e+00
2005 07 28  2315    53579   83700      0    3.67e+01    0    3.95e+00
2005 07 28  2320    53579   84000      0    3.70e+01    0    4.12e+00
2005 07 28  2325    53579   84300      0    3.71e+01    0    4.20e+00
2005 07 28  2330    53579   84600      0    3.87e+01    0    4.33e+00
2005 07 28  2335    53579   84900      0    3.86e+01    0    4.18e+00
2005 07 28  2340    53579   85200      0    3.86e+01    0    4.19e+00
2005 07 28  2345    53579   85500      0    3.87e+01    0    4.35e+00
2005 07 28  2350    53579   85800      0    3.82e+01    0    4.22e+00
2005 07 28  2355    53579   86100      0    3.84e+01    0    4.19e+00
