:Data_list: 20050921_ace_sis_5m.txt
:Created: 2005 Sep 22 0011 UT
# Prepared by the U.S. Dept. of Commerce, NOAA, Space Environment Center.
# Please send comments and suggestions to SEC.Webmaster@noaa.gov 
# 
# Units: proton flux p/cs2-sec-ster
# Status(S): 0 = nominal data, 1 to 8 = bad data record, 9 = no data
# Missing data values: -1.00e+05
# Source: ACE Satellite - Solar Isotope Spectrometer
#
# 5-minute averaged Real-time Integral Flux of High-energy Solar Protons
# 
#                 Modified Seconds
# UT Date   Time   Julian  of the      ---- Integral Proton Flux ----
# YR MO DA  HHMM     Day     Day       S    > 10 MeV    S    > 30 MeV
#--------------------------------------------------------------------
2005 09 21  0000    53634       0      0    1.91e+00    0    9.49e-01
2005 09 21  0005    53634     300      0    1.91e+00    0    9.49e-01
2005 09 21  0010    53634     600      0    1.92e+00    0    9.62e-01
2005 09 21  0015    53634     900      0    1.90e+00    0    9.33e-01
2005 09 21  0020    53634    1200      0    1.91e+00    0    9.48e-01
2005 09 21  0025    53634    1500      0    1.85e+00    0    9.12e-01
2005 09 21  0030    53634    1800      0    1.90e+00    0    9.73e-01
2005 09 21  0035    53634    2100      0    1.85e+00    0    9.33e-01
2005 09 21  0040    53634    2400      0    1.85e+00    0    9.59e-01
2005 09 21  0045    53634    2700      0    1.74e+00    0    8.97e-01
2005 09 21  0050    53634    3000      0    1.75e+00    0    8.95e-01
2005 09 21  0055    53634    3300      0    1.74e+00    0    9.08e-01
2005 09 21  0100    53634    3600      0    1.75e+00    0    9.14e-01
2005 09 21  0105    53634    3900      0    1.76e+00    0    9.25e-01
2005 09 21  0110    53634    4200      0    1.71e+00    0    8.88e-01
2005 09 21  0115    53634    4500      0    1.73e+00    0    9.16e-01
2005 09 21  0120    53634    4800      0    1.67e+00    0    9.06e-01
2005 09 21  0125    53634    5100      0    1.58e+00    0    8.59e-01
2005 09 21  0130    53634    5400      0    1.61e+00    0    8.88e-01
2005 09 21  0135    53634    5700      0    1.61e+00    0    8.80e-01
2005 09 21  0140    53634    6000      0    1.61e+00    0    8.68e-01
2005 09 21  0145    53634    6300      0    1.60e+00    0    8.55e-01
2005 09 21  0150    53634    6600      0    1.64e+00    0    8.78e-01
2005 09 21  0155    53634    6900      0    1.65e+00    0    8.88e-01
2005 09 21  0200    53634    7200      0    1.61e+00    0    8.71e-01
2005 09 21  0205    53634    7500      0    1.56e+00    0    8.69e-01
2005 09 21  0210    53634    7800      0    1.52e+00    0    8.66e-01
2005 09 21  0215    53634    8100      0    1.41e+00    0    7.99e-01
2005 09 21  0220    53634    8400      0    1.45e+00    0    8.34e-01
2005 09 21  0225    53634    8700      0    1.45e+00    0    8.41e-01
2005 09 21  0230    53634    9000      0    1.39e+00    0    8.17e-01
2005 09 21  0235    53634    9300      0    1.41e+00    0    8.28e-01
2005 09 21  0240    53634    9600      0    1.41e+00    0    8.31e-01
2005 09 21  0245    53634    9900      0    1.46e+00    0    8.42e-01
2005 09 21  0250    53634   10200      0    1.52e+00    0    8.66e-01
2005 09 21  0255    53634   10500      0    1.45e+00    0    8.44e-01
2005 09 21  0300    53634   10800      0    1.40e+00    0    8.19e-01
2005 09 21  0305    53634   11100      0    1.37e+00    0    7.92e-01
2005 09 21  0310    53634   11400      0    1.39e+00    0    8.02e-01
2005 09 21  0315    53634   11700      0    1.37e+00    0    7.99e-01
2005 09 21  0320    53634   12000      0    1.45e+00    0    8.36e-01
2005 09 21  0325    53634   12300      0    1.38e+00    0    8.13e-01
2005 09 21  0330    53634   12600      0    1.37e+00    0    8.01e-01
2005 09 21  0335    53634   12900      0    1.40e+00    0    8.30e-01
2005 09 21  0340    53634   13200      0    1.36e+00    0    8.04e-01
2005 09 21  0345    53634   13500      0    1.41e+00    0    8.35e-01
2005 09 21  0350    53634   13800      0    1.38e+00    0    8.11e-01
2005 09 21  0355    53634   14100      0    1.40e+00    0    8.21e-01
2005 09 21  0400    53634   14400      0    1.40e+00    0    8.08e-01
2005 09 21  0405    53634   14700      0    1.42e+00    0    8.18e-01
2005 09 21  0410    53634   15000      0    1.43e+00    0    8.22e-01
2005 09 21  0415    53634   15300      0    1.45e+00    0    8.47e-01
2005 09 21  0420    53634   15600      0    1.43e+00    0    8.40e-01
2005 09 21  0425    53634   15900      0    1.49e+00    0    8.28e-01
2005 09 21  0430    53634   16200      0    1.60e+00    0    8.60e-01
2005 09 21  0435    53634   16500      0    1.57e+00    0    8.33e-01
2005 09 21  0440    53634   16800      0    1.47e+00    0    8.28e-01
2005 09 21  0445    53634   17100      0    1.44e+00    0    8.44e-01
2005 09 21  0450    53634   17400      0    1.38e+00    0    8.07e-01
2005 09 21  0455    53634   17700      0    1.39e+00    0    8.29e-01
2005 09 21  0500    53634   18000      0    1.40e+00    0    8.30e-01
2005 09 21  0505    53634   18300      0    1.39e+00    0    8.20e-01
2005 09 21  0510    53634   18600      0    1.39e+00    0    8.08e-01
2005 09 21  0515    53634   18900      0    1.37e+00    0    7.98e-01
2005 09 21  0520    53634   19200      0    1.40e+00    0    8.10e-01
2005 09 21  0525    53634   19500      0    1.41e+00    0    8.39e-01
2005 09 21  0530    53634   19800      0    1.38e+00    0    8.02e-01
2005 09 21  0535    53634   20100      0    1.47e+00    0    8.40e-01
2005 09 21  0540    53634   20400      0    1.51e+00    0    8.53e-01
2005 09 21  0545    53634   20700      0    1.49e+00    0    8.30e-01
2005 09 21  0550    53634   21000      0    1.52e+00    0    8.58e-01
2005 09 21  0555    53634   21300      0    1.38e+00    0    8.07e-01
2005 09 21  0600    53634   21600      0    1.42e+00    0    8.40e-01
2005 09 21  0605    53634   21900      0    1.40e+00    0    8.28e-01
2005 09 21  0610    53634   22200      0    1.46e+00    0    8.47e-01
2005 09 21  0615    53634   22500      0    1.56e+00    0    8.70e-01
2005 09 21  0620    53634   22800      0    1.62e+00    0    8.83e-01
2005 09 21  0625    53634   23100      0    1.60e+00    0    8.67e-01
2005 09 21  0630    53634   23400      0    1.57e+00    0    8.68e-01
2005 09 21  0635    53634   23700      0    1.53e+00    0    8.68e-01
2005 09 21  0640    53634   24000      0    1.53e+00    0    8.42e-01
2005 09 21  0645    53634   24300      0    1.51e+00    0    8.29e-01
2005 09 21  0650    53634   24600      0    1.48e+00    0    8.27e-01
2005 09 21  0655    53634   24900      0    1.43e+00    0    8.33e-01
2005 09 21  0700    53634   25200      0    1.39e+00    0    8.00e-01
2005 09 21  0705    53634   25500      0    1.42e+00    0    8.36e-01
2005 09 21  0710    53634   25800      0    1.44e+00    0    8.29e-01
2005 09 21  0715    53634   26100      0    1.44e+00    0    8.34e-01
2005 09 21  0720    53634   26400      0    1.40e+00    0    8.28e-01
2005 09 21  0725    53634   26700      0    1.41e+00    0    8.36e-01
2005 09 21  0730    53634   27000      0    1.33e+00    0    7.87e-01
2005 09 21  0735    53634   27300      0    1.38e+00    0    8.02e-01
2005 09 21  0740    53634   27600      0    1.38e+00    0    8.11e-01
2005 09 21  0745    53634   27900      0    1.40e+00    0    8.19e-01
2005 09 21  0750    53634   28200      0    1.45e+00    0    8.44e-01
2005 09 21  0755    53634   28500      0    1.41e+00    0    8.26e-01
2005 09 21  0800    53634   28800      0    1.45e+00    0    8.43e-01
2005 09 21  0805    53634   29100      0    1.48e+00    0    8.44e-01
2005 09 21  0810    53634   29400      0    1.48e+00    0    8.59e-01
2005 09 21  0815    53634   29700      0    1.46e+00    0    8.42e-01
2005 09 21  0820    53634   30000      0    1.44e+00    0    8.46e-01
2005 09 21  0825    53634   30300      0    1.39e+00    0    8.20e-01
2005 09 21  0830    53634   30600      0    1.40e+00    0    8.13e-01
2005 09 21  0835    53634   30900      0    1.47e+00    0    8.61e-01
2005 09 21  0840    53634   31200      0    1.46e+00    0    8.56e-01
2005 09 21  0845    53634   31500      0    1.45e+00    0    8.32e-01
2005 09 21  0850    53634   31800      0    1.45e+00    0    8.51e-01
2005 09 21  0855    53634   32100      0    1.42e+00    0    8.37e-01
2005 09 21  0900    53634   32400      0    1.44e+00    0    8.30e-01
2005 09 21  0905    53634   32700      0    1.41e+00    0    8.35e-01
2005 09 21  0910    53634   33000      0    1.43e+00    0    8.39e-01
2005 09 21  0915    53634   33300      0    1.41e+00    0    8.27e-01
2005 09 21  0920    53634   33600      0    1.45e+00    0    8.50e-01
2005 09 21  0925    53634   33900      0    1.43e+00    0    8.28e-01
2005 09 21  0930    53634   34200      0    1.44e+00    0    8.35e-01
2005 09 21  0935    53634   34500      0    1.47e+00    0    8.47e-01
2005 09 21  0940    53634   34800      0    1.44e+00    0    8.18e-01
2005 09 21  0945    53634   35100      0    1.47e+00    0    8.45e-01
2005 09 21  0950    53634   35400      0    1.43e+00    0    8.17e-01
2005 09 21  0955    53634   35700      0    1.47e+00    0    8.28e-01
2005 09 21  1000    53634   36000      0    1.48e+00    0    8.39e-01
2005 09 21  1005    53634   36300      0    1.43e+00    0    8.27e-01
2005 09 21  1010    53634   36600      0    1.44e+00    0    8.27e-01
2005 09 21  1015    53634   36900      0    1.39e+00    0    8.20e-01
2005 09 21  1020    53634   37200      0    1.41e+00    0    8.44e-01
2005 09 21  1025    53634   37500      0    1.41e+00    0    8.26e-01
2005 09 21  1030    53634   37800      0    1.44e+00    0    8.43e-01
2005 09 21  1035    53634   38100      0    1.39e+00    0    8.12e-01
2005 09 21  1040    53634   38400      0    1.47e+00    0    8.46e-01
2005 09 21  1045    53634   38700      0    1.43e+00    0    8.34e-01
2005 09 21  1050    53634   39000      0    1.41e+00    0    8.27e-01
2005 09 21  1055    53634   39300      0    1.38e+00    0    8.20e-01
2005 09 21  1100    53634   39600      0    1.39e+00    0    8.27e-01
2005 09 21  1105    53634   39900      0    1.41e+00    0    8.44e-01
2005 09 21  1110    53634   40200      0    1.38e+00    0    8.19e-01
2005 09 21  1115    53634   40500      0    1.40e+00    0    8.34e-01
2005 09 21  1120    53634   40800      0    1.42e+00    0    8.50e-01
2005 09 21  1125    53634   41100      0    1.39e+00    0    8.34e-01
2005 09 21  1130    53634   41400      0    1.35e+00    0    8.20e-01
2005 09 21  1135    53634   41700      0    1.33e+00    0    8.13e-01
2005 09 21  1140    53634   42000      0    1.32e+00    0    8.06e-01
2005 09 21  1145    53634   42300      0    1.31e+00    0    7.98e-01
2005 09 21  1150    53634   42600      0    1.33e+00    0    7.91e-01
2005 09 21  1155    53634   42900      0    1.31e+00    0    8.06e-01
2005 09 21  1200    53634   43200      0    1.32e+00    0    7.95e-01
2005 09 21  1205    53634   43500      0    1.33e+00    0    8.06e-01
2005 09 21  1210    53634   43800      0    1.35e+00    0    8.18e-01
2005 09 21  1215    53634   44100      0    1.29e+00    0    7.90e-01
2005 09 21  1220    53634   44400      0    1.31e+00    0    8.07e-01
2005 09 21  1225    53634   44700      0    1.36e+00    0    8.00e-01
2005 09 21  1230    53634   45000      0    1.48e+00    0    8.39e-01
2005 09 21  1235    53634   45300      0    1.50e+00    0    8.62e-01
2005 09 21  1240    53634   45600      0    1.49e+00    0    8.50e-01
2005 09 21  1245    53634   45900      0    1.52e+00    0    8.60e-01
2005 09 21  1250    53634   46200      0    1.48e+00    0    8.37e-01
2005 09 21  1255    53634   46500      0    1.49e+00    0    8.41e-01
2005 09 21  1300    53634   46800      0    1.55e+00    0    8.78e-01
2005 09 21  1305    53634   47100      0    1.49e+00    0    8.41e-01
2005 09 21  1310    53634   47400      0    1.50e+00    0    8.59e-01
2005 09 21  1315    53634   47700      0    1.50e+00    0    8.56e-01
2005 09 21  1320    53634   48000      0    1.52e+00    0    8.80e-01
2005 09 21  1325    53634   48300      0    1.51e+00    0    8.68e-01
2005 09 21  1330    53634   48600      0    1.51e+00    0    8.61e-01
2005 09 21  1335    53634   48900      0    1.45e+00    0    8.28e-01
2005 09 21  1340    53634   49200      0    1.47e+00    0    8.28e-01
2005 09 21  1345    53634   49500      0    1.50e+00    0    8.61e-01
2005 09 21  1350    53634   49800      0    1.48e+00    0    8.49e-01
2005 09 21  1355    53634   50100      0    1.45e+00    0    8.38e-01
2005 09 21  1400    53634   50400      0    1.51e+00    0    8.69e-01
2005 09 21  1405    53634   50700      0    1.47e+00    0    8.33e-01
2005 09 21  1410    53634   51000      0    1.47e+00    0    8.48e-01
2005 09 21  1415    53634   51300      0    1.47e+00    0    8.42e-01
2005 09 21  1420    53634   51600      0    1.45e+00    0    8.47e-01
2005 09 21  1425    53634   51900      0    1.41e+00    0    8.28e-01
2005 09 21  1430    53634   52200      0    1.38e+00    0    8.41e-01
2005 09 21  1435    53634   52500      0    1.40e+00    0    8.24e-01
2005 09 21  1440    53634   52800      0    1.45e+00    0    8.61e-01
2005 09 21  1445    53634   53100      0    1.45e+00    0    8.61e-01
2005 09 21  1450    53634   53400      0    1.42e+00    0    8.26e-01
2005 09 21  1455    53634   53700      0    1.42e+00    0    8.58e-01
2005 09 21  1500    53634   54000      0    1.45e+00    0    8.69e-01
2005 09 21  1505    53634   54300      0    1.45e+00    0    8.57e-01
2005 09 21  1510    53634   54600      0    1.46e+00    0    8.64e-01
2005 09 21  1515    53634   54900      0    1.44e+00    0    8.37e-01
2005 09 21  1520    53634   55200      0    1.43e+00    0    8.33e-01
2005 09 21  1525    53634   55500      0    1.40e+00    0    8.21e-01
2005 09 21  1530    53634   55800      0    1.42e+00    0    8.49e-01
2005 09 21  1535    53634   56100      0    1.43e+00    0    8.44e-01
2005 09 21  1540    53634   56400      0    1.43e+00    0    8.26e-01
2005 09 21  1545    53634   56700      0    1.47e+00    0    8.65e-01
2005 09 21  1550    53634   57000      0    1.44e+00    0    8.32e-01
2005 09 21  1555    53634   57300      0    1.46e+00    0    8.74e-01
2005 09 21  1600    53634   57600      0    1.44e+00    0    8.54e-01
2005 09 21  1605    53634   57900      0    1.41e+00    0    8.34e-01
2005 09 21  1610    53634   58200      0    1.42e+00    0    8.42e-01
2005 09 21  1615    53634   58500      0    1.46e+00    0    8.57e-01
2005 09 21  1620    53634   58800      0    1.48e+00    0    8.36e-01
2005 09 21  1625    53634   59100      0    1.49e+00    0    8.46e-01
2005 09 21  1630    53634   59400      0    1.55e+00    0    8.97e-01
2005 09 21  1635    53634   59700      0    1.51e+00    0    8.71e-01
2005 09 21  1640    53634   60000      0    1.50e+00    0    8.65e-01
2005 09 21  1645    53634   60300      0    1.49e+00    0    8.51e-01
2005 09 21  1650    53634   60600      0    1.53e+00    0    8.71e-01
2005 09 21  1655    53634   60900      0    1.49e+00    0    8.49e-01
2005 09 21  1700    53634   61200      0    1.52e+00    0    8.60e-01
2005 09 21  1705    53634   61500      0    1.51e+00    0    8.41e-01
2005 09 21  1710    53634   61800      0    1.48e+00    0    8.61e-01
2005 09 21  1715    53634   62100      0    1.40e+00    0    8.36e-01
2005 09 21  1720    53634   62400      0    1.40e+00    0    8.45e-01
2005 09 21  1725    53634   62700      0    1.42e+00    0    8.63e-01
2005 09 21  1730    53634   63000      0    1.39e+00    0    8.38e-01
2005 09 21  1735    53634   63300      0    1.42e+00    0    8.65e-01
2005 09 21  1740    53634   63600      0    1.39e+00    0    8.50e-01
2005 09 21  1745    53634   63900      0    1.37e+00    0    8.38e-01
2005 09 21  1750    53634   64200      0    1.38e+00    0    8.41e-01
2005 09 21  1755    53634   64500      0    1.36e+00    0    8.17e-01
2005 09 21  1800    53634   64800      0    1.38e+00    0    8.23e-01
2005 09 21  1805    53634   65100      0    1.44e+00    0    8.63e-01
2005 09 21  1810    53634   65400      0    1.45e+00    0    8.48e-01
2005 09 21  1815    53634   65700      0    1.47e+00    0    8.59e-01
2005 09 21  1820    53634   66000      0    1.48e+00    0    8.67e-01
2005 09 21  1825    53634   66300      0    1.52e+00    0    8.89e-01
2005 09 21  1830    53634   66600      0    1.51e+00    0    8.77e-01
2005 09 21  1835    53634   66900      0    1.49e+00    0    8.72e-01
2005 09 21  1840    53634   67200      0    1.52e+00    0    8.84e-01
2005 09 21  1845    53634   67500      0    1.53e+00    0    8.74e-01
2005 09 21  1850    53634   67800      0    1.51e+00    0    8.62e-01
2005 09 21  1855    53634   68100      0    1.47e+00    0    8.61e-01
2005 09 21  1900    53634   68400      0    1.45e+00    0    8.48e-01
2005 09 21  1905    53634   68700      0    1.51e+00    0    8.80e-01
2005 09 21  1910    53634   69000      0    1.49e+00    0    8.62e-01
2005 09 21  1915    53634   69300      0    1.49e+00    0    8.80e-01
2005 09 21  1920    53634   69600      0    1.49e+00    0    8.61e-01
2005 09 21  1925    53634   69900      0    1.49e+00    0    8.46e-01
2005 09 21  1930    53634   70200      0    1.49e+00    0    8.61e-01
2005 09 21  1935    53634   70500      0    1.46e+00    0    8.44e-01
2005 09 21  1940    53634   70800      0    1.47e+00    0    8.43e-01
2005 09 21  1945    53634   71100      0    1.40e+00    0    8.11e-01
2005 09 21  1950    53634   71400      0    1.49e+00    0    8.61e-01
2005 09 21  1955    53634   71700      0    1.49e+00    0    8.67e-01
2005 09 21  2000    53634   72000      0    1.50e+00    0    8.71e-01
2005 09 21  2005    53634   72300      0    1.51e+00    0    8.71e-01
2005 09 21  2010    53634   72600      0    1.49e+00    0    8.52e-01
2005 09 21  2015    53634   72900      0    1.50e+00    0    8.68e-01
2005 09 21  2020    53634   73200      0    1.51e+00    0    8.68e-01
2005 09 21  2025    53634   73500      0    1.51e+00    0    8.73e-01
2005 09 21  2030    53634   73800      0    1.53e+00    0    8.93e-01
2005 09 21  2035    53634   74100      0    1.50e+00    0    8.70e-01
2005 09 21  2040    53634   74400      0    1.45e+00    0    8.41e-01
2005 09 21  2045    53634   74700      0    1.46e+00    0    8.64e-01
2005 09 21  2050    53634   75000      0    1.48e+00    0    8.64e-01
2005 09 21  2055    53634   75300      0    1.47e+00    0    8.60e-01
2005 09 21  2100    53634   75600      0    1.50e+00    0    8.74e-01
2005 09 21  2105    53634   75900      0    1.48e+00    0    8.64e-01
2005 09 21  2110    53634   76200      0    1.46e+00    0    8.59e-01
2005 09 21  2115    53634   76500      0    1.46e+00    0    8.58e-01
2005 09 21  2120    53634   76800      0    1.46e+00    0    8.34e-01
2005 09 21  2125    53634   77100      0    1.46e+00    0    8.44e-01
2005 09 21  2130    53634   77400      0    1.48e+00    0    8.62e-01
2005 09 21  2135    53634   77700      0    1.46e+00    0    8.59e-01
2005 09 21  2140    53634   78000      0    1.46e+00    0    8.57e-01
2005 09 21  2145    53634   78300      0    1.48e+00    0    8.68e-01
2005 09 21  2150    53634   78600      0    1.43e+00    0    8.42e-01
2005 09 21  2155    53634   78900      0    1.45e+00    0    8.58e-01
2005 09 21  2200    53634   79200      0    1.48e+00    0    8.71e-01
2005 09 21  2205    53634   79500      0    1.46e+00    0    8.49e-01
2005 09 21  2210    53634   79800      0    1.49e+00    0    8.63e-01
2005 09 21  2215    53634   80100      0    1.47e+00    0    8.53e-01
2005 09 21  2220    53634   80400      0    1.48e+00    0    8.52e-01
2005 09 21  2225    53634   80700      0    1.48e+00    0    8.61e-01
2005 09 21  2230    53634   81000      0    1.45e+00    0    8.34e-01
2005 09 21  2235    53634   81300      0    1.45e+00    0    8.47e-01
2005 09 21  2240    53634   81600      0    1.47e+00    0    8.59e-01
2005 09 21  2245    53634   81900      0    1.46e+00    0    8.50e-01
2005 09 21  2250    53634   82200      0    1.45e+00    0    8.48e-01
2005 09 21  2255    53634   82500      0    1.43e+00    0    8.27e-01
2005 09 21  2300    53634   82800      0    1.46e+00    0    8.64e-01
2005 09 21  2305    53634   83100      0    1.47e+00    0    8.63e-01
2005 09 21  2310    53634   83400      0    1.43e+00    0    8.38e-01
2005 09 21  2315    53634   83700      0    1.46e+00    0    8.60e-01
2005 09 21  2320    53634   84000      0    1.49e+00    0    8.63e-01
2005 09 21  2325    53634   84300      0    1.45e+00    0    8.41e-01
2005 09 21  2330    53634   84600      0    1.47e+00    0    8.56e-01
2005 09 21  2335    53634   84900      0    1.45e+00    0    8.50e-01
2005 09 21  2340    53634   85200      0    1.45e+00    0    8.46e-01
2005 09 21  2345    53634   85500      0    1.48e+00    0    8.64e-01
2005 09 21  2350    53634   85800      0    1.44e+00    0    8.49e-01
2005 09 21  2355    53634   86100      0    1.45e+00    0    8.43e-01
