:Data_list: 20051118_ace_sis_5m.txt
:Created: 2005 Nov 19 0011 UT
# Prepared by the U.S. Dept. of Commerce, NOAA, Space Environment Center.
# Please send comments and suggestions to SEC.Webmaster@noaa.gov 
# 
# Units: proton flux p/cs2-sec-ster
# Status(S): 0 = nominal data, 1 to 8 = bad data record, 9 = no data
# Missing data values: -1.00e+05
# Source: ACE Satellite - Solar Isotope Spectrometer
#
# 5-minute averaged Real-time Integral Flux of High-energy Solar Protons
# 
#                 Modified Seconds
# UT Date   Time   Julian  of the      ---- Integral Proton Flux ----
# YR MO DA  HHMM     Day     Day       S    > 10 MeV    S    > 30 MeV
#--------------------------------------------------------------------
2005 11 18  0000    53692       0      9   -1.00e+05    9   -1.00e+05
2005 11 18  0005    53692     300      9   -1.00e+05    9   -1.00e+05
2005 11 18  0010    53692     600      0    1.36e+00    0    9.57e-01
2005 11 18  0015    53692     900      0    1.39e+00    0    9.71e-01
2005 11 18  0020    53692    1200      0    1.38e+00    0    9.70e-01
2005 11 18  0025    53692    1500      0    1.40e+00    0    9.87e-01
2005 11 18  0030    53692    1800      0    1.36e+00    0    9.52e-01
2005 11 18  0035    53692    2100      0    1.39e+00    0    9.77e-01
2005 11 18  0040    53692    2400      0    1.42e+00    0    9.93e-01
2005 11 18  0045    53692    2700      0    1.39e+00    0    9.69e-01
2005 11 18  0050    53692    3000      0    1.40e+00    0    9.84e-01
2005 11 18  0055    53692    3300      0    1.36e+00    0    9.61e-01
2005 11 18  0100    53692    3600      0    1.41e+00    0    9.93e-01
2005 11 18  0105    53692    3900      0    1.40e+00    0    9.83e-01
2005 11 18  0110    53692    4200      0    1.40e+00    0    9.81e-01
2005 11 18  0115    53692    4500      0    1.38e+00    0    9.68e-01
2005 11 18  0120    53692    4800      0    1.37e+00    0    9.63e-01
2005 11 18  0125    53692    5100      0    1.40e+00    0    9.97e-01
2005 11 18  0130    53692    5400      0    1.37e+00    0    9.58e-01
2005 11 18  0135    53692    5700      0    1.36e+00    0    9.59e-01
2005 11 18  0140    53692    6000      0    1.37e+00    0    9.61e-01
2005 11 18  0145    53692    6300      0    1.39e+00    0    9.75e-01
2005 11 18  0150    53692    6600      0    1.38e+00    0    9.67e-01
2005 11 18  0155    53692    6900      0    1.38e+00    0    9.67e-01
2005 11 18  0200    53692    7200      0    1.39e+00    0    9.78e-01
2005 11 18  0205    53692    7500      0    1.40e+00    0    9.81e-01
2005 11 18  0210    53692    7800      0    1.36e+00    0    9.58e-01
2005 11 18  0215    53692    8100      0    1.38e+00    0    9.70e-01
2005 11 18  0220    53692    8400      9   -1.00e+05    9   -1.00e+05
2005 11 18  0225    53692    8700      9   -1.00e+05    9   -1.00e+05
2005 11 18  0230    53692    9000      9   -1.00e+05    9   -1.00e+05
2005 11 18  0235    53692    9300      9   -1.00e+05    9   -1.00e+05
2005 11 18  0240    53692    9600      9   -1.00e+05    9   -1.00e+05
2005 11 18  0245    53692    9900      9   -1.00e+05    9   -1.00e+05
2005 11 18  0250    53692   10200      9   -1.00e+05    9   -1.00e+05
2005 11 18  0255    53692   10500      9   -1.00e+05    9   -1.00e+05
2005 11 18  0300    53692   10800      9   -1.00e+05    9   -1.00e+05
2005 11 18  0305    53692   11100      9   -1.00e+05    9   -1.00e+05
2005 11 18  0310    53692   11400      9   -1.00e+05    9   -1.00e+05
2005 11 18  0315    53692   11700      9   -1.00e+05    9   -1.00e+05
2005 11 18  0320    53692   12000      9   -1.00e+05    9   -1.00e+05
2005 11 18  0325    53692   12300      9   -1.00e+05    9   -1.00e+05
2005 11 18  0330    53692   12600      9   -1.00e+05    9   -1.00e+05
2005 11 18  0335    53692   12900      9   -1.00e+05    9   -1.00e+05
2005 11 18  0340    53692   13200      0    1.41e+00    0    9.93e-01
2005 11 18  0345    53692   13500      0    1.42e+00    0    1.00e+00
2005 11 18  0350    53692   13800      0    1.40e+00    0    9.79e-01
2005 11 18  0355    53692   14100      0    1.42e+00    0    1.00e+00
2005 11 18  0400    53692   14400      0    1.37e+00    0    9.59e-01
2005 11 18  0405    53692   14700      0    1.42e+00    0    9.97e-01
2005 11 18  0410    53692   15000      0    1.38e+00    0    9.74e-01
2005 11 18  0415    53692   15300      0    1.38e+00    0    9.64e-01
2005 11 18  0420    53692   15600      0    1.41e+00    0    9.89e-01
2005 11 18  0425    53692   15900      0    1.39e+00    0    9.73e-01
2005 11 18  0430    53692   16200      0    1.38e+00    0    9.60e-01
2005 11 18  0435    53692   16500      0    1.39e+00    0    9.72e-01
2005 11 18  0440    53692   16800      0    1.41e+00    0    9.83e-01
2005 11 18  0445    53692   17100      0    1.43e+00    0    1.00e+00
2005 11 18  0450    53692   17400      0    1.38e+00    0    9.70e-01
2005 11 18  0455    53692   17700      0    1.39e+00    0    9.83e-01
2005 11 18  0500    53692   18000      0    1.41e+00    0    9.90e-01
2005 11 18  0505    53692   18300      0    1.40e+00    0    9.81e-01
2005 11 18  0510    53692   18600      0    1.40e+00    0    9.83e-01
2005 11 18  0515    53692   18900      0    1.41e+00    0    9.75e-01
2005 11 18  0520    53692   19200      0    1.38e+00    0    9.71e-01
2005 11 18  0525    53692   19500      0    1.39e+00    0    9.74e-01
2005 11 18  0530    53692   19800      0    1.39e+00    0    9.83e-01
2005 11 18  0535    53692   20100      0    1.33e+00    0    9.23e-01
2005 11 18  0540    53692   20400      0    1.42e+00    0    9.89e-01
2005 11 18  0545    53692   20700      0    1.39e+00    0    9.84e-01
2005 11 18  0550    53692   21000      0    1.39e+00    0    9.68e-01
2005 11 18  0555    53692   21300      0    1.38e+00    0    9.68e-01
2005 11 18  0600    53692   21600      0    1.41e+00    0    9.92e-01
2005 11 18  0605    53692   21900      0    1.38e+00    0    9.61e-01
2005 11 18  0610    53692   22200      0    1.36e+00    0    9.53e-01
2005 11 18  0615    53692   22500      0    1.37e+00    0    9.49e-01
2005 11 18  0620    53692   22800      0    1.36e+00    0    9.46e-01
2005 11 18  0625    53692   23100      0    1.41e+00    0    9.86e-01
2005 11 18  0630    53692   23400      0    1.40e+00    0    9.68e-01
2005 11 18  0635    53692   23700      0    1.38e+00    0    9.68e-01
2005 11 18  0640    53692   24000      0    1.42e+00    0    9.91e-01
2005 11 18  0645    53692   24300      0    1.43e+00    0    9.99e-01
2005 11 18  0650    53692   24600      0    1.37e+00    0    9.53e-01
2005 11 18  0655    53692   24900      0    1.37e+00    0    9.69e-01
2005 11 18  0700    53692   25200      0    1.36e+00    0    9.58e-01
2005 11 18  0705    53692   25500      0    1.40e+00    0    9.83e-01
2005 11 18  0710    53692   25800      0    1.37e+00    0    9.58e-01
2005 11 18  0715    53692   26100      0    1.37e+00    0    9.60e-01
2005 11 18  0720    53692   26400      0    1.42e+00    0    9.90e-01
2005 11 18  0725    53692   26700      0    1.40e+00    0    9.73e-01
2005 11 18  0730    53692   27000      0    1.37e+00    0    9.59e-01
2005 11 18  0735    53692   27300      0    1.40e+00    0    9.72e-01
2005 11 18  0740    53692   27600      0    1.39e+00    0    9.71e-01
2005 11 18  0745    53692   27900      0    1.39e+00    0    9.72e-01
2005 11 18  0750    53692   28200      0    1.40e+00    0    9.78e-01
2005 11 18  0755    53692   28500      0    1.36e+00    0    9.47e-01
2005 11 18  0800    53692   28800      0    1.43e+00    0    1.01e+00
2005 11 18  0805    53692   29100      0    1.39e+00    0    9.83e-01
2005 11 18  0810    53692   29400      0    1.37e+00    0    9.58e-01
2005 11 18  0815    53692   29700      0    1.38e+00    0    9.70e-01
2005 11 18  0820    53692   30000      0    1.39e+00    0    9.74e-01
2005 11 18  0825    53692   30300      0    1.39e+00    0    9.74e-01
2005 11 18  0830    53692   30600      0    1.36e+00    0    9.50e-01
2005 11 18  0835    53692   30900      0    1.36e+00    0    9.46e-01
2005 11 18  0840    53692   31200      0    1.37e+00    0    9.60e-01
2005 11 18  0845    53692   31500      0    1.41e+00    0    9.92e-01
2005 11 18  0850    53692   31800      0    1.42e+00    0    1.00e+00
2005 11 18  0855    53692   32100      0    1.41e+00    0    9.89e-01
2005 11 18  0900    53692   32400      0    1.39e+00    0    9.68e-01
2005 11 18  0905    53692   32700      0    1.41e+00    0    9.92e-01
2005 11 18  0910    53692   33000      0    1.38e+00    0    9.76e-01
2005 11 18  0915    53692   33300      0    1.38e+00    0    9.60e-01
2005 11 18  0920    53692   33600      0    1.37e+00    0    9.54e-01
2005 11 18  0925    53692   33900      0    1.37e+00    0    9.67e-01
2005 11 18  0930    53692   34200      0    1.41e+00    0    9.81e-01
2005 11 18  0935    53692   34500      0    1.37e+00    0    9.68e-01
2005 11 18  0940    53692   34800      0    1.41e+00    0    9.89e-01
2005 11 18  0945    53692   35100      0    1.36e+00    0    9.43e-01
2005 11 18  0950    53692   35400      0    1.39e+00    0    9.72e-01
2005 11 18  0955    53692   35700      0    1.40e+00    0    9.83e-01
2005 11 18  1000    53692   36000      0    1.40e+00    0    9.87e-01
2005 11 18  1005    53692   36300      0    1.38e+00    0    9.74e-01
2005 11 18  1010    53692   36600      0    1.38e+00    0    9.78e-01
2005 11 18  1015    53692   36900      0    1.37e+00    0    9.62e-01
2005 11 18  1020    53692   37200      0    1.39e+00    0    9.74e-01
2005 11 18  1025    53692   37500      0    1.36e+00    0    9.56e-01
2005 11 18  1030    53692   37800      0    1.35e+00    0    9.30e-01
2005 11 18  1035    53692   38100      0    1.37e+00    0    9.57e-01
2005 11 18  1040    53692   38400      0    1.39e+00    0    9.77e-01
2005 11 18  1045    53692   38700      0    1.38e+00    0    9.64e-01
2005 11 18  1050    53692   39000      0    1.38e+00    0    9.72e-01
2005 11 18  1055    53692   39300      0    1.40e+00    0    9.78e-01
2005 11 18  1100    53692   39600      0    1.38e+00    0    9.67e-01
2005 11 18  1105    53692   39900      0    1.41e+00    0    9.89e-01
2005 11 18  1110    53692   40200      0    1.42e+00    0    9.80e-01
2005 11 18  1115    53692   40500      0    1.38e+00    0    9.55e-01
2005 11 18  1120    53692   40800      0    1.39e+00    0    9.74e-01
2005 11 18  1125    53692   41100      0    1.39e+00    0    9.69e-01
2005 11 18  1130    53692   41400      0    1.37e+00    0    9.73e-01
2005 11 18  1135    53692   41700      0    1.36e+00    0    9.52e-01
2005 11 18  1140    53692   42000      0    1.37e+00    0    9.70e-01
2005 11 18  1145    53692   42300      0    1.37e+00    0    9.64e-01
2005 11 18  1150    53692   42600      0    1.39e+00    0    9.81e-01
2005 11 18  1155    53692   42900      0    1.27e+00    0    8.92e-01
2005 11 18  1200    53692   43200      0    1.39e+00    0    9.69e-01
2005 11 18  1205    53692   43500      0    1.37e+00    0    9.67e-01
2005 11 18  1210    53692   43800      0    1.40e+00    0    9.81e-01
2005 11 18  1215    53692   44100      0    1.38e+00    0    9.62e-01
2005 11 18  1220    53692   44400      0    1.41e+00    0    1.01e+00
2005 11 18  1225    53692   44700      0    1.38e+00    0    9.55e-01
2005 11 18  1230    53692   45000      9   -1.00e+05    9   -1.00e+05
2005 11 18  1235    53692   45300      9   -1.00e+05    9   -1.00e+05
2005 11 18  1240    53692   45600      0    1.07e+00    0    3.83e-01
2005 11 18  1245    53692   45900      0    1.40e+00    0    9.73e-01
2005 11 18  1250    53692   46200      0    1.39e+00    0    9.67e-01
2005 11 18  1255    53692   46500      0    1.40e+00    0    9.92e-01
2005 11 18  1300    53692   46800      0    1.39e+00    0    9.80e-01
2005 11 18  1305    53692   47100      0    1.39e+00    0    9.68e-01
2005 11 18  1310    53692   47400      0    1.38e+00    0    9.61e-01
2005 11 18  1315    53692   47700      0    1.39e+00    0    9.68e-01
2005 11 18  1320    53692   48000      0    1.39e+00    0    9.81e-01
2005 11 18  1325    53692   48300      0    1.41e+00    0    9.88e-01
2005 11 18  1330    53692   48600      0    1.42e+00    0    9.96e-01
2005 11 18  1335    53692   48900      0    1.40e+00    0    9.91e-01
2005 11 18  1340    53692   49200      0    1.37e+00    0    9.50e-01
2005 11 18  1345    53692   49500      0    1.41e+00    0    9.80e-01
2005 11 18  1350    53692   49800      0    1.40e+00    0    9.82e-01
2005 11 18  1355    53692   50100      0    1.40e+00    0    9.74e-01
2005 11 18  1400    53692   50400      0    1.38e+00    0    9.70e-01
2005 11 18  1405    53692   50700      0    1.41e+00    0    9.97e-01
2005 11 18  1410    53692   51000      0    1.37e+00    0    9.67e-01
2005 11 18  1415    53692   51300      0    1.38e+00    0    9.67e-01
2005 11 18  1420    53692   51600      0    1.39e+00    0    9.70e-01
2005 11 18  1425    53692   51900      0    1.37e+00    0    9.63e-01
2005 11 18  1430    53692   52200      0    1.39e+00    0    9.79e-01
2005 11 18  1435    53692   52500      0    1.39e+00    0    9.79e-01
2005 11 18  1440    53692   52800      0    1.41e+00    0    9.89e-01
2005 11 18  1445    53692   53100      0    1.39e+00    0    9.76e-01
2005 11 18  1450    53692   53400      0    1.38e+00    0    9.70e-01
2005 11 18  1455    53692   53700      0    1.37e+00    0    9.58e-01
2005 11 18  1500    53692   54000      0    1.39e+00    0    9.70e-01
2005 11 18  1505    53692   54300      0    1.40e+00    0    9.80e-01
2005 11 18  1510    53692   54600      0    1.42e+00    0    1.01e+00
2005 11 18  1515    53692   54900      0    1.39e+00    0    9.80e-01
2005 11 18  1520    53692   55200      0    1.37e+00    0    9.66e-01
2005 11 18  1525    53692   55500      0    1.39e+00    0    9.84e-01
2005 11 18  1530    53692   55800      0    1.42e+00    0    9.95e-01
2005 11 18  1535    53692   56100      0    1.38e+00    0    9.69e-01
2005 11 18  1540    53692   56400      0    1.39e+00    0    9.71e-01
2005 11 18  1545    53692   56700      0    1.34e+00    0    9.49e-01
2005 11 18  1550    53692   57000      0    1.36e+00    0    9.54e-01
2005 11 18  1555    53692   57300      0    1.42e+00    0    9.99e-01
2005 11 18  1600    53692   57600      0    1.41e+00    0    9.83e-01
2005 11 18  1605    53692   57900      0    1.42e+00    0    9.98e-01
2005 11 18  1610    53692   58200      0    1.39e+00    0    9.68e-01
2005 11 18  1615    53692   58500      0    1.39e+00    0    9.76e-01
2005 11 18  1620    53692   58800      0    1.42e+00    0    9.90e-01
2005 11 18  1625    53692   59100      0    1.39e+00    0    9.72e-01
2005 11 18  1630    53692   59400      0    1.37e+00    0    9.70e-01
2005 11 18  1635    53692   59700      0    1.38e+00    0    9.61e-01
2005 11 18  1640    53692   60000      0    1.39e+00    0    9.69e-01
2005 11 18  1645    53692   60300      0    1.41e+00    0    9.85e-01
2005 11 18  1650    53692   60600      0    1.38e+00    0    9.73e-01
2005 11 18  1655    53692   60900      0    1.41e+00    0    9.97e-01
2005 11 18  1700    53692   61200      0    1.41e+00    0    9.94e-01
2005 11 18  1705    53692   61500      0    1.37e+00    0    9.78e-01
2005 11 18  1710    53692   61800      0    1.40e+00    0    9.86e-01
2005 11 18  1715    53692   62100      0    1.38e+00    0    9.63e-01
2005 11 18  1720    53692   62400      0    1.39e+00    0    9.79e-01
2005 11 18  1725    53692   62700      0    1.38e+00    0    9.67e-01
2005 11 18  1730    53692   63000      0    1.39e+00    0    9.81e-01
2005 11 18  1735    53692   63300      0    1.38e+00    0    9.70e-01
2005 11 18  1740    53692   63600      0    1.41e+00    0    9.84e-01
2005 11 18  1745    53692   63900      0    1.40e+00    0    9.77e-01
2005 11 18  1750    53692   64200      0    1.40e+00    0    9.81e-01
2005 11 18  1755    53692   64500      0    1.38e+00    0    9.74e-01
2005 11 18  1800    53692   64800      0    1.37e+00    0    9.58e-01
2005 11 18  1805    53692   65100      0    1.41e+00    0    9.91e-01
2005 11 18  1810    53692   65400      0    1.38e+00    0    9.62e-01
2005 11 18  1815    53692   65700      0    1.37e+00    0    9.62e-01
2005 11 18  1820    53692   66000      0    1.38e+00    0    9.65e-01
2005 11 18  1825    53692   66300      0    1.37e+00    0    9.71e-01
2005 11 18  1830    53692   66600      0    1.38e+00    0    9.68e-01
2005 11 18  1835    53692   66900      0    1.35e+00    0    9.51e-01
2005 11 18  1840    53692   67200      0    1.38e+00    0    9.60e-01
2005 11 18  1845    53692   67500      0    1.42e+00    0    9.93e-01
2005 11 18  1850    53692   67800      0    1.36e+00    0    9.49e-01
2005 11 18  1855    53692   68100      0    1.41e+00    0    9.92e-01
2005 11 18  1900    53692   68400      0    1.40e+00    0    9.82e-01
2005 11 18  1905    53692   68700      0    1.37e+00    0    9.59e-01
2005 11 18  1910    53692   69000      0    1.40e+00    0    9.88e-01
2005 11 18  1915    53692   69300      0    1.33e+00    0    9.20e-01
2005 11 18  1920    53692   69600      9   -1.00e+05    9   -1.00e+05
2005 11 18  1925    53692   69900      9   -1.00e+05    9   -1.00e+05
2005 11 18  1930    53692   70200      0    1.38e+00    0    9.57e-01
2005 11 18  1935    53692   70500      0    1.34e+00    0    9.52e-01
2005 11 18  1940    53692   70800      0    1.36e+00    0    9.44e-01
2005 11 18  1945    53692   71100      0    1.39e+00    0    9.71e-01
2005 11 18  1950    53692   71400      0    1.37e+00    0    9.63e-01
2005 11 18  1955    53692   71700      0    1.37e+00    0    9.66e-01
2005 11 18  2000    53692   72000      0    1.37e+00    0    9.57e-01
2005 11 18  2005    53692   72300      0    1.36e+00    0    9.59e-01
2005 11 18  2010    53692   72600      0    1.36e+00    0    9.49e-01
2005 11 18  2015    53692   72900      0    1.36e+00    0    9.48e-01
2005 11 18  2020    53692   73200      0    1.36e+00    0    9.56e-01
2005 11 18  2025    53692   73500      0    1.37e+00    0    9.66e-01
2005 11 18  2030    53692   73800      0    1.40e+00    0    9.78e-01
2005 11 18  2035    53692   74100      0    1.36e+00    0    9.67e-01
2005 11 18  2040    53692   74400      0    1.38e+00    0    9.77e-01
2005 11 18  2045    53692   74700      0    1.34e+00    0    9.46e-01
2005 11 18  2050    53692   75000      0    1.39e+00    0    9.67e-01
2005 11 18  2055    53692   75300      0    1.35e+00    0    9.48e-01
2005 11 18  2100    53692   75600      0    1.39e+00    0    9.73e-01
2005 11 18  2105    53692   75900      0    1.42e+00    0    1.00e+00
2005 11 18  2110    53692   76200      0    1.38e+00    0    9.71e-01
2005 11 18  2115    53692   76500      0    1.37e+00    0    9.59e-01
2005 11 18  2120    53692   76800      0    1.38e+00    0    9.67e-01
2005 11 18  2125    53692   77100      0    1.37e+00    0    9.53e-01
2005 11 18  2130    53692   77400      0    1.39e+00    0    9.72e-01
2005 11 18  2135    53692   77700      0    1.42e+00    0    9.94e-01
2005 11 18  2140    53692   78000      0    1.35e+00    0    9.49e-01
2005 11 18  2145    53692   78300      0    1.38e+00    0    9.68e-01
2005 11 18  2150    53692   78600      0    1.35e+00    0    9.46e-01
2005 11 18  2155    53692   78900      0    1.35e+00    0    9.52e-01
2005 11 18  2200    53692   79200      0    1.38e+00    0    9.67e-01
2005 11 18  2205    53692   79500      0    1.37e+00    0    9.70e-01
2005 11 18  2210    53692   79800      0    1.37e+00    0    9.62e-01
2005 11 18  2215    53692   80100      0    1.34e+00    0    9.46e-01
2005 11 18  2220    53692   80400      0    1.35e+00    0    9.51e-01
2005 11 18  2225    53692   80700      0    1.37e+00    0    9.62e-01
2005 11 18  2230    53692   81000      0    1.39e+00    0    9.73e-01
2005 11 18  2235    53692   81300      0    1.36e+00    0    9.56e-01
2005 11 18  2240    53692   81600      0    1.36e+00    0    9.56e-01
2005 11 18  2245    53692   81900      0    1.37e+00    0    9.69e-01
2005 11 18  2250    53692   82200      0    1.37e+00    0    9.54e-01
2005 11 18  2255    53692   82500      0    1.37e+00    0    9.60e-01
2005 11 18  2300    53692   82800      0    1.35e+00    0    9.51e-01
2005 11 18  2305    53692   83100      0    1.32e+00    0    9.55e-01
2005 11 18  2310    53692   83400      9   -1.00e+05    9   -1.00e+05
2005 11 18  2315    53692   83700      0    1.36e+00    0    9.48e-01
2005 11 18  2320    53692   84000      0    1.38e+00    0    9.69e-01
2005 11 18  2325    53692   84300      0    1.36e+00    0    9.51e-01
2005 11 18  2330    53692   84600      0    1.36e+00    0    9.54e-01
2005 11 18  2335    53692   84900      0    1.40e+00    0    9.92e-01
2005 11 18  2340    53692   85200      0    1.35e+00    0    9.46e-01
2005 11 18  2345    53692   85500      0    1.40e+00    0    9.91e-01
2005 11 18  2350    53692   85800      0    1.38e+00    0    9.61e-01
2005 11 18  2355    53692   86100      0    1.36e+00    0    9.60e-01
