:Data_list: 20051003_ace_sis_5m.txt
:Created: 2005 Oct 04 0011 UT
# Prepared by the U.S. Dept. of Commerce, NOAA, Space Environment Center.
# Please send comments and suggestions to SEC.Webmaster@noaa.gov 
# 
# Units: proton flux p/cs2-sec-ster
# Status(S): 0 = nominal data, 1 to 8 = bad data record, 9 = no data
# Missing data values: -1.00e+05
# Source: ACE Satellite - Solar Isotope Spectrometer
#
# 5-minute averaged Real-time Integral Flux of High-energy Solar Protons
# 
#                 Modified Seconds
# UT Date   Time   Julian  of the      ---- Integral Proton Flux ----
# YR MO DA  HHMM     Day     Day       S    > 10 MeV    S    > 30 MeV
#--------------------------------------------------------------------
2005 10 03  0000    53646       0      0    1.20e+00    0    8.36e-01
2005 10 03  0005    53646     300      0    1.22e+00    0    8.44e-01
2005 10 03  0010    53646     600      0    1.21e+00    0    8.37e-01
2005 10 03  0015    53646     900      0    1.21e+00    0    8.35e-01
2005 10 03  0020    53646    1200      0    1.21e+00    0    8.38e-01
2005 10 03  0025    53646    1500      0    1.20e+00    0    8.25e-01
2005 10 03  0030    53646    1800      0    1.22e+00    0    8.39e-01
2005 10 03  0035    53646    2100      0    1.21e+00    0    8.34e-01
2005 10 03  0040    53646    2400      0    1.18e+00    0    8.15e-01
2005 10 03  0045    53646    2700      0    1.22e+00    0    8.40e-01
2005 10 03  0050    53646    3000      0    1.22e+00    0    8.50e-01
2005 10 03  0055    53646    3300      0    1.24e+00    0    8.52e-01
2005 10 03  0100    53646    3600      0    1.20e+00    0    8.32e-01
2005 10 03  0105    53646    3900      0    1.19e+00    0    8.19e-01
2005 10 03  0110    53646    4200      0    1.19e+00    0    8.23e-01
2005 10 03  0115    53646    4500      0    1.22e+00    0    8.34e-01
2005 10 03  0120    53646    4800      0    1.22e+00    0    8.45e-01
2005 10 03  0125    53646    5100      0    1.20e+00    0    8.37e-01
2005 10 03  0130    53646    5400      0    1.24e+00    0    8.60e-01
2005 10 03  0135    53646    5700      0    1.22e+00    0    8.43e-01
2005 10 03  0140    53646    6000      0    1.23e+00    0    8.49e-01
2005 10 03  0145    53646    6300      0    1.21e+00    0    8.28e-01
2005 10 03  0150    53646    6600      0    1.21e+00    0    8.41e-01
2005 10 03  0155    53646    6900      0    1.22e+00    0    8.36e-01
2005 10 03  0200    53646    7200      0    1.21e+00    0    8.38e-01
2005 10 03  0205    53646    7500      0    1.23e+00    0    8.58e-01
2005 10 03  0210    53646    7800      0    1.22e+00    0    8.38e-01
2005 10 03  0215    53646    8100      0    1.21e+00    0    8.32e-01
2005 10 03  0220    53646    8400      0    1.22e+00    0    8.47e-01
2005 10 03  0225    53646    8700      0    1.22e+00    0    8.47e-01
2005 10 03  0230    53646    9000      0    1.22e+00    0    8.46e-01
2005 10 03  0235    53646    9300      0    1.23e+00    0    8.57e-01
2005 10 03  0240    53646    9600      0    1.21e+00    0    8.41e-01
2005 10 03  0245    53646    9900      0    1.16e+00    0    7.96e-01
2005 10 03  0250    53646   10200      0    1.22e+00    0    8.33e-01
2005 10 03  0255    53646   10500      0    1.21e+00    0    8.38e-01
2005 10 03  0300    53646   10800      0    1.20e+00    0    8.22e-01
2005 10 03  0305    53646   11100      0    1.22e+00    0    8.44e-01
2005 10 03  0310    53646   11400      0    1.23e+00    0    8.50e-01
2005 10 03  0315    53646   11700      0    1.22e+00    0    8.44e-01
2005 10 03  0320    53646   12000      0    1.20e+00    0    8.28e-01
2005 10 03  0325    53646   12300      0    1.20e+00    0    8.33e-01
2005 10 03  0330    53646   12600      0    1.19e+00    0    8.19e-01
2005 10 03  0335    53646   12900      0    1.20e+00    0    8.32e-01
2005 10 03  0340    53646   13200      0    1.22e+00    0    8.46e-01
2005 10 03  0345    53646   13500      0    1.23e+00    0    8.59e-01
2005 10 03  0350    53646   13800      0    1.25e+00    0    8.60e-01
2005 10 03  0355    53646   14100      0    1.22e+00    0    8.51e-01
2005 10 03  0400    53646   14400      0    1.21e+00    0    8.31e-01
2005 10 03  0405    53646   14700      0    1.21e+00    0    8.29e-01
2005 10 03  0410    53646   15000      0    1.17e+00    0    8.09e-01
2005 10 03  0415    53646   15300      0    1.21e+00    0    8.33e-01
2005 10 03  0420    53646   15600      0    1.22e+00    0    8.40e-01
2005 10 03  0425    53646   15900      0    1.21e+00    0    8.46e-01
2005 10 03  0430    53646   16200      0    1.22e+00    0    8.42e-01
2005 10 03  0435    53646   16500      0    1.23e+00    0    8.51e-01
2005 10 03  0440    53646   16800      0    1.18e+00    0    8.19e-01
2005 10 03  0445    53646   17100      0    1.20e+00    0    8.29e-01
2005 10 03  0450    53646   17400      0    1.21e+00    0    8.32e-01
2005 10 03  0455    53646   17700      0    1.23e+00    0    8.48e-01
2005 10 03  0500    53646   18000      0    1.23e+00    0    8.50e-01
2005 10 03  0505    53646   18300      0    1.23e+00    0    8.44e-01
2005 10 03  0510    53646   18600      0    1.21e+00    0    8.37e-01
2005 10 03  0515    53646   18900      0    1.23e+00    0    8.46e-01
2005 10 03  0520    53646   19200      0    1.21e+00    0    8.40e-01
2005 10 03  0525    53646   19500      0    1.21e+00    0    8.41e-01
2005 10 03  0530    53646   19800      0    1.22e+00    0    8.31e-01
2005 10 03  0535    53646   20100      0    1.21e+00    0    8.35e-01
2005 10 03  0540    53646   20400      0    1.21e+00    0    8.42e-01
2005 10 03  0545    53646   20700      0    1.19e+00    0    8.17e-01
2005 10 03  0550    53646   21000      0    1.20e+00    0    8.31e-01
2005 10 03  0555    53646   21300      0    1.21e+00    0    8.37e-01
2005 10 03  0600    53646   21600      0    1.22e+00    0    8.35e-01
2005 10 03  0605    53646   21900      0    1.28e+00    0    9.01e-01
2005 10 03  0610    53646   22200      0    1.23e+00    0    8.53e-01
2005 10 03  0615    53646   22500      0    1.24e+00    0    8.55e-01
2005 10 03  0620    53646   22800      0    1.23e+00    0    8.52e-01
2005 10 03  0625    53646   23100      0    1.23e+00    0    8.53e-01
2005 10 03  0630    53646   23400      0    1.20e+00    0    8.23e-01
2005 10 03  0635    53646   23700      0    1.25e+00    0    8.53e-01
2005 10 03  0640    53646   24000      0    1.19e+00    0    8.26e-01
2005 10 03  0645    53646   24300      0    1.20e+00    0    8.27e-01
2005 10 03  0650    53646   24600      0    1.22e+00    0    8.43e-01
2005 10 03  0655    53646   24900      0    1.23e+00    0    8.49e-01
2005 10 03  0700    53646   25200      0    1.21e+00    0    8.39e-01
2005 10 03  0705    53646   25500      0    1.22e+00    0    8.40e-01
2005 10 03  0710    53646   25800      0    1.23e+00    0    8.59e-01
2005 10 03  0715    53646   26100      0    1.21e+00    0    8.36e-01
2005 10 03  0720    53646   26400      0    1.24e+00    0    8.59e-01
2005 10 03  0725    53646   26700      0    1.20e+00    0    8.38e-01
2005 10 03  0730    53646   27000      0    1.22e+00    0    8.42e-01
2005 10 03  0735    53646   27300      0    1.19e+00    0    8.16e-01
2005 10 03  0740    53646   27600      0    1.24e+00    0    8.62e-01
2005 10 03  0745    53646   27900      0    1.21e+00    0    8.42e-01
2005 10 03  0750    53646   28200      0    1.20e+00    0    8.38e-01
2005 10 03  0755    53646   28500      0    1.19e+00    0    8.29e-01
2005 10 03  0800    53646   28800      0    1.20e+00    0    8.22e-01
2005 10 03  0805    53646   29100      0    1.21e+00    0    8.26e-01
2005 10 03  0810    53646   29400      0    1.22e+00    0    8.41e-01
2005 10 03  0815    53646   29700      0    1.24e+00    0    8.61e-01
2005 10 03  0820    53646   30000      0    1.23e+00    0    8.41e-01
2005 10 03  0825    53646   30300      0    1.24e+00    0    8.54e-01
2005 10 03  0830    53646   30600      0    1.23e+00    0    8.53e-01
2005 10 03  0835    53646   30900      0    1.24e+00    0    8.53e-01
2005 10 03  0840    53646   31200      0    1.21e+00    0    8.42e-01
2005 10 03  0845    53646   31500      0    1.21e+00    0    8.34e-01
2005 10 03  0850    53646   31800      0    1.19e+00    0    8.24e-01
2005 10 03  0855    53646   32100      0    1.21e+00    0    8.41e-01
2005 10 03  0900    53646   32400      0    1.22e+00    0    8.43e-01
2005 10 03  0905    53646   32700      0    1.21e+00    0    8.48e-01
2005 10 03  0910    53646   33000      0    1.23e+00    0    8.41e-01
2005 10 03  0915    53646   33300      0    1.24e+00    0    8.57e-01
2005 10 03  0920    53646   33600      0    1.23e+00    0    8.49e-01
2005 10 03  0925    53646   33900      0    1.22e+00    0    8.42e-01
2005 10 03  0930    53646   34200      0    1.23e+00    0    8.48e-01
2005 10 03  0935    53646   34500      0    1.23e+00    0    8.59e-01
2005 10 03  0940    53646   34800      0    1.22e+00    0    8.53e-01
2005 10 03  0945    53646   35100      0    1.21e+00    0    8.32e-01
2005 10 03  0950    53646   35400      0    1.21e+00    0    8.28e-01
2005 10 03  0955    53646   35700      0    1.24e+00    0    8.57e-01
2005 10 03  1000    53646   36000      0    1.22e+00    0    8.43e-01
2005 10 03  1005    53646   36300      0    1.20e+00    0    8.14e-01
2005 10 03  1010    53646   36600      0    1.19e+00    0    8.26e-01
2005 10 03  1015    53646   36900      0    1.20e+00    0    8.37e-01
2005 10 03  1020    53646   37200      0    1.21e+00    0    8.43e-01
2005 10 03  1025    53646   37500      0    1.25e+00    0    8.63e-01
2005 10 03  1030    53646   37800      0    1.22e+00    0    8.42e-01
2005 10 03  1035    53646   38100      0    1.23e+00    0    8.41e-01
2005 10 03  1040    53646   38400      0    1.24e+00    0    8.55e-01
2005 10 03  1045    53646   38700      0    1.22e+00    0    8.50e-01
2005 10 03  1050    53646   39000      0    1.23e+00    0    8.47e-01
2005 10 03  1055    53646   39300      0    1.23e+00    0    8.56e-01
2005 10 03  1100    53646   39600      0    1.19e+00    0    8.28e-01
2005 10 03  1105    53646   39900      0    1.23e+00    0    8.52e-01
2005 10 03  1110    53646   40200      0    1.21e+00    0    8.26e-01
2005 10 03  1115    53646   40500      0    1.19e+00    0    8.12e-01
2005 10 03  1120    53646   40800      0    1.20e+00    0    8.29e-01
2005 10 03  1125    53646   41100      0    1.24e+00    0    8.61e-01
2005 10 03  1130    53646   41400      0    1.21e+00    0    8.44e-01
2005 10 03  1135    53646   41700      0    1.25e+00    0    8.51e-01
2005 10 03  1140    53646   42000      0    1.21e+00    0    8.39e-01
2005 10 03  1145    53646   42300      0    1.20e+00    0    8.26e-01
2005 10 03  1150    53646   42600      0    1.23e+00    0    8.72e-01
2005 10 03  1155    53646   42900      0    1.21e+00    0    8.33e-01
2005 10 03  1200    53646   43200      0    1.22e+00    0    8.47e-01
2005 10 03  1205    53646   43500      0    1.24e+00    0    8.58e-01
2005 10 03  1210    53646   43800      0    1.18e+00    0    8.16e-01
2005 10 03  1215    53646   44100      0    1.21e+00    0    8.34e-01
2005 10 03  1220    53646   44400      0    1.21e+00    0    8.37e-01
2005 10 03  1225    53646   44700      0    1.21e+00    0    8.39e-01
2005 10 03  1230    53646   45000      0    1.23e+00    0    8.52e-01
2005 10 03  1235    53646   45300      0    1.20e+00    0    8.39e-01
2005 10 03  1240    53646   45600      0    1.21e+00    0    8.29e-01
2005 10 03  1245    53646   45900      0    1.22e+00    0    8.50e-01
2005 10 03  1250    53646   46200      0    1.23e+00    0    8.49e-01
2005 10 03  1255    53646   46500      0    1.27e+00    0    8.78e-01
2005 10 03  1300    53646   46800      0    1.27e+00    0    8.70e-01
2005 10 03  1305    53646   47100      0    1.22e+00    0    8.43e-01
2005 10 03  1310    53646   47400      0    1.20e+00    0    8.29e-01
2005 10 03  1315    53646   47700      0    1.21e+00    0    8.37e-01
2005 10 03  1320    53646   48000      0    1.23e+00    0    8.48e-01
2005 10 03  1325    53646   48300      0    1.22e+00    0    8.44e-01
2005 10 03  1330    53646   48600      0    1.19e+00    0    8.24e-01
2005 10 03  1335    53646   48900      0    1.22e+00    0    8.51e-01
2005 10 03  1340    53646   49200      0    1.22e+00    0    8.36e-01
2005 10 03  1345    53646   49500      0    1.22e+00    0    8.46e-01
2005 10 03  1350    53646   49800      0    1.24e+00    0    8.56e-01
2005 10 03  1355    53646   50100      0    1.22e+00    0    8.50e-01
2005 10 03  1400    53646   50400      0    1.24e+00    0    8.50e-01
2005 10 03  1405    53646   50700      0    1.23e+00    0    8.61e-01
2005 10 03  1410    53646   51000      0    1.23e+00    0    8.56e-01
2005 10 03  1415    53646   51300      0    1.24e+00    0    8.61e-01
2005 10 03  1420    53646   51600      0    1.22e+00    0    8.46e-01
2005 10 03  1425    53646   51900      0    1.22e+00    0    8.40e-01
2005 10 03  1430    53646   52200      0    1.21e+00    0    8.37e-01
2005 10 03  1435    53646   52500      0    1.23e+00    0    8.42e-01
2005 10 03  1440    53646   52800      0    1.23e+00    0    8.42e-01
2005 10 03  1445    53646   53100      0    1.22e+00    0    8.42e-01
2005 10 03  1450    53646   53400      0    1.22e+00    0    8.42e-01
2005 10 03  1455    53646   53700      0    1.20e+00    0    8.34e-01
2005 10 03  1500    53646   54000      0    1.18e+00    0    8.16e-01
2005 10 03  1505    53646   54300      0    1.23e+00    0    8.42e-01
2005 10 03  1510    53646   54600      0    1.28e+00    0    8.80e-01
2005 10 03  1515    53646   54900      0    1.27e+00    0    8.75e-01
2005 10 03  1520    53646   55200      0    1.24e+00    0    8.61e-01
2005 10 03  1525    53646   55500      0    1.22e+00    0    8.31e-01
2005 10 03  1530    53646   55800      0    1.23e+00    0    8.53e-01
2005 10 03  1535    53646   56100      0    1.23e+00    0    8.56e-01
2005 10 03  1540    53646   56400      0    1.23e+00    0    8.57e-01
2005 10 03  1545    53646   56700      0    1.19e+00    0    8.18e-01
2005 10 03  1550    53646   57000      0    1.20e+00    0    8.31e-01
2005 10 03  1555    53646   57300      0    1.23e+00    0    8.57e-01
2005 10 03  1600    53646   57600      0    1.21e+00    0    8.36e-01
2005 10 03  1605    53646   57900      0    1.19e+00    0    8.29e-01
2005 10 03  1610    53646   58200      0    1.22e+00    0    8.52e-01
2005 10 03  1615    53646   58500      0    1.23e+00    0    8.53e-01
2005 10 03  1620    53646   58800      0    1.22e+00    0    8.59e-01
2005 10 03  1625    53646   59100      0    1.22e+00    0    8.47e-01
2005 10 03  1630    53646   59400      0    1.20e+00    0    8.33e-01
2005 10 03  1635    53646   59700      0    1.23e+00    0    8.48e-01
2005 10 03  1640    53646   60000      0    1.23e+00    0    8.48e-01
2005 10 03  1645    53646   60300      0    1.23e+00    0    8.58e-01
2005 10 03  1650    53646   60600      0    1.22e+00    0    8.53e-01
2005 10 03  1655    53646   60900      0    1.22e+00    0    8.39e-01
2005 10 03  1700    53646   61200      0    1.20e+00    0    8.33e-01
2005 10 03  1705    53646   61500      0    1.20e+00    0    8.33e-01
2005 10 03  1710    53646   61800      0    1.21e+00    0    8.32e-01
2005 10 03  1715    53646   62100      0    1.22e+00    0    8.48e-01
2005 10 03  1720    53646   62400      0    1.20e+00    0    8.26e-01
2005 10 03  1725    53646   62700      0    1.26e+00    0    8.73e-01
2005 10 03  1730    53646   63000      0    1.25e+00    0    8.70e-01
2005 10 03  1735    53646   63300      0    1.21e+00    0    8.39e-01
2005 10 03  1740    53646   63600      0    1.22e+00    0    8.44e-01
2005 10 03  1745    53646   63900      0    1.20e+00    0    8.43e-01
2005 10 03  1750    53646   64200      0    1.19e+00    0    8.23e-01
2005 10 03  1755    53646   64500      0    1.20e+00    0    8.31e-01
2005 10 03  1800    53646   64800      0    1.23e+00    0    8.46e-01
2005 10 03  1805    53646   65100      0    1.23e+00    0    8.39e-01
2005 10 03  1810    53646   65400      0    1.22e+00    0    8.46e-01
2005 10 03  1815    53646   65700      0    1.26e+00    0    8.80e-01
2005 10 03  1820    53646   66000      0    1.22e+00    0    8.33e-01
2005 10 03  1825    53646   66300      0    1.20e+00    0    8.32e-01
2005 10 03  1830    53646   66600      0    1.23e+00    0    8.48e-01
2005 10 03  1835    53646   66900      0    1.23e+00    0    8.62e-01
2005 10 03  1840    53646   67200      0    1.21e+00    0    8.42e-01
2005 10 03  1845    53646   67500      0    1.23e+00    0    8.49e-01
2005 10 03  1850    53646   67800      0    1.24e+00    0    8.67e-01
2005 10 03  1855    53646   68100      0    1.23e+00    0    8.47e-01
2005 10 03  1900    53646   68400      0    1.21e+00    0    8.47e-01
2005 10 03  1905    53646   68700      0    1.23e+00    0    8.56e-01
2005 10 03  1910    53646   69000      0    1.20e+00    0    8.34e-01
2005 10 03  1915    53646   69300      0    1.22e+00    0    8.44e-01
2005 10 03  1920    53646   69600      0    1.23e+00    0    8.58e-01
2005 10 03  1925    53646   69900      0    1.24e+00    0    8.56e-01
2005 10 03  1930    53646   70200      0    1.23e+00    0    8.57e-01
2005 10 03  1935    53646   70500      0    1.22e+00    0    8.38e-01
2005 10 03  1940    53646   70800      0    1.26e+00    0    8.71e-01
2005 10 03  1945    53646   71100      0    1.26e+00    0    8.74e-01
2005 10 03  1950    53646   71400      0    1.26e+00    0    8.69e-01
2005 10 03  1955    53646   71700      0    1.23e+00    0    8.38e-01
2005 10 03  2000    53646   72000      0    1.22e+00    0    8.46e-01
2005 10 03  2005    53646   72300      0    1.23e+00    0    8.53e-01
2005 10 03  2010    53646   72600      0    1.26e+00    0    8.77e-01
2005 10 03  2015    53646   72900      0    1.22e+00    0    8.47e-01
2005 10 03  2020    53646   73200      0    1.24e+00    0    8.58e-01
2005 10 03  2025    53646   73500      0    1.25e+00    0    8.57e-01
2005 10 03  2030    53646   73800      0    1.23e+00    0    8.51e-01
2005 10 03  2035    53646   74100      0    1.23e+00    0    8.49e-01
2005 10 03  2040    53646   74400      0    1.22e+00    0    8.42e-01
2005 10 03  2045    53646   74700      0    1.21e+00    0    8.47e-01
2005 10 03  2050    53646   75000      0    1.21e+00    0    8.38e-01
2005 10 03  2055    53646   75300      0    1.23e+00    0    8.49e-01
2005 10 03  2100    53646   75600      0    1.24e+00    0    8.58e-01
2005 10 03  2105    53646   75900      0    1.24e+00    0    8.63e-01
2005 10 03  2110    53646   76200      0    1.23e+00    0    8.54e-01
2005 10 03  2115    53646   76500      0    1.21e+00    0    8.41e-01
2005 10 03  2120    53646   76800      0    1.20e+00    0    8.33e-01
2005 10 03  2125    53646   77100      0    1.24e+00    0    8.57e-01
2005 10 03  2130    53646   77400      0    1.24e+00    0    8.56e-01
2005 10 03  2135    53646   77700      0    1.22e+00    0    8.46e-01
2005 10 03  2140    53646   78000      0    1.22e+00    0    8.42e-01
2005 10 03  2145    53646   78300      0    1.21e+00    0    8.30e-01
2005 10 03  2150    53646   78600      0    1.21e+00    0    8.29e-01
2005 10 03  2155    53646   78900      0    1.22e+00    0    8.60e-01
2005 10 03  2200    53646   79200      0    1.28e+00    0    8.84e-01
2005 10 03  2205    53646   79500      0    1.27e+00    0    8.86e-01
2005 10 03  2210    53646   79800      0    1.23e+00    0    8.53e-01
2005 10 03  2215    53646   80100      0    1.24e+00    0    8.53e-01
2005 10 03  2220    53646   80400      0    1.22e+00    0    8.44e-01
2005 10 03  2225    53646   80700      0    1.20e+00    0    8.43e-01
2005 10 03  2230    53646   81000      0    1.24e+00    0    8.54e-01
2005 10 03  2235    53646   81300      0    1.24e+00    0    8.71e-01
2005 10 03  2240    53646   81600      0    1.22e+00    0    8.37e-01
2005 10 03  2245    53646   81900      0    1.23e+00    0    8.54e-01
2005 10 03  2250    53646   82200      0    1.25e+00    0    8.69e-01
2005 10 03  2255    53646   82500      0    1.25e+00    0    8.77e-01
2005 10 03  2300    53646   82800      0    1.19e+00    0    8.18e-01
2005 10 03  2305    53646   83100      0    1.24e+00    0    8.56e-01
2005 10 03  2310    53646   83400      0    1.25e+00    0    8.63e-01
2005 10 03  2315    53646   83700      0    1.22e+00    0    8.48e-01
2005 10 03  2320    53646   84000      0    1.20e+00    0    8.29e-01
2005 10 03  2325    53646   84300      0    1.23e+00    0    8.48e-01
2005 10 03  2330    53646   84600      0    1.25e+00    0    8.79e-01
2005 10 03  2335    53646   84900      0    1.26e+00    0    8.63e-01
2005 10 03  2340    53646   85200      0    1.22e+00    0    8.36e-01
2005 10 03  2345    53646   85500      0    1.21e+00    0    8.36e-01
2005 10 03  2350    53646   85800      0    1.23e+00    0    8.53e-01
2005 10 03  2355    53646   86100      0    1.23e+00    0    8.52e-01
