:Data_list: 20050309_ace_sis_5m.txt
:Created: 2005 Mar 10 0011 UT
# Prepared by the U.S. Dept. of Commerce, NOAA, Space Environment Center.
# Please send comments and suggestions to SEC.Webmaster@noaa.gov 
# 
# Units: proton flux p/cs2-sec-ster
# Status(S): 0 = nominal data, 1 to 8 = bad data record, 9 = no data
# Missing data values: -1.00e+05
# Source: ACE Satellite - Solar Isotope Spectrometer
#
# 5-minute averaged Real-time Integral Flux of High-energy Solar Protons
# 
#                 Modified Seconds
# UT Date   Time   Julian  of the      ---- Integral Proton Flux ----
# YR MO DA  HHMM     Day     Day       S    > 10 MeV    S    > 30 MeV
#--------------------------------------------------------------------
2005 03 09  0000    53438       0      0    1.20e+00    0    8.36e-01
2005 03 09  0005    53438     300      0    1.21e+00    0    8.48e-01
2005 03 09  0010    53438     600      0    1.19e+00    0    8.43e-01
2005 03 09  0015    53438     900      0    1.20e+00    0    8.43e-01
2005 03 09  0020    53438    1200      0    1.20e+00    0    8.47e-01
2005 03 09  0025    53438    1500      0    1.16e+00    0    8.14e-01
2005 03 09  0030    53438    1800      0    1.17e+00    0    8.20e-01
2005 03 09  0035    53438    2100      0    1.20e+00    0    8.36e-01
2005 03 09  0040    53438    2400      0    1.19e+00    0    8.19e-01
2005 03 09  0045    53438    2700      0    1.19e+00    0    8.28e-01
2005 03 09  0050    53438    3000      0    1.19e+00    0    8.32e-01
2005 03 09  0055    53438    3300      0    1.19e+00    0    8.30e-01
2005 03 09  0100    53438    3600      0    1.17e+00    0    8.28e-01
2005 03 09  0105    53438    3900      0    1.20e+00    0    8.31e-01
2005 03 09  0110    53438    4200      0    1.16e+00    0    8.22e-01
2005 03 09  0115    53438    4500      0    1.17e+00    0    8.26e-01
2005 03 09  0120    53438    4800      0    1.19e+00    0    8.37e-01
2005 03 09  0125    53438    5100      0    1.18e+00    0    8.28e-01
2005 03 09  0130    53438    5400      0    1.18e+00    0    8.22e-01
2005 03 09  0135    53438    5700      0    1.19e+00    0    8.36e-01
2005 03 09  0140    53438    6000      0    1.22e+00    0    8.43e-01
2005 03 09  0145    53438    6300      0    1.21e+00    0    8.54e-01
2005 03 09  0150    53438    6600      0    1.20e+00    0    8.49e-01
2005 03 09  0155    53438    6900      0    1.19e+00    0    8.36e-01
2005 03 09  0200    53438    7200      0    1.13e+00    0    7.88e-01
2005 03 09  0205    53438    7500      0    1.20e+00    0    8.36e-01
2005 03 09  0210    53438    7800      0    1.20e+00    0    8.41e-01
2005 03 09  0215    53438    8100      0    1.20e+00    0    8.47e-01
2005 03 09  0220    53438    8400      0    1.17e+00    0    8.11e-01
2005 03 09  0225    53438    8700      0    1.17e+00    0    8.25e-01
2005 03 09  0230    53438    9000      0    1.16e+00    0    8.12e-01
2005 03 09  0235    53438    9300      0    1.14e+00    0    8.07e-01
2005 03 09  0240    53438    9600      0    1.14e+00    0    7.91e-01
2005 03 09  0245    53438    9900      0    1.16e+00    0    8.09e-01
2005 03 09  0250    53438   10200      0    1.18e+00    0    8.19e-01
2005 03 09  0255    53438   10500      0    1.22e+00    0    8.57e-01
2005 03 09  0300    53438   10800      0    1.20e+00    0    8.49e-01
2005 03 09  0305    53438   11100      0    1.16e+00    0    8.15e-01
2005 03 09  0310    53438   11400      0    1.18e+00    0    8.24e-01
2005 03 09  0315    53438   11700      0    1.18e+00    0    8.32e-01
2005 03 09  0320    53438   12000      0    1.17e+00    0    8.25e-01
2005 03 09  0325    53438   12300      0    1.17e+00    0    8.16e-01
2005 03 09  0330    53438   12600      0    1.20e+00    0    8.43e-01
2005 03 09  0335    53438   12900      0    1.18e+00    0    8.26e-01
2005 03 09  0340    53438   13200      0    1.15e+00    0    7.98e-01
2005 03 09  0345    53438   13500      0    1.19e+00    0    8.26e-01
2005 03 09  0350    53438   13800      0    1.16e+00    0    8.13e-01
2005 03 09  0355    53438   14100      0    1.17e+00    0    8.13e-01
2005 03 09  0400    53438   14400      0    1.20e+00    0    8.40e-01
2005 03 09  0405    53438   14700      0    1.18e+00    0    8.17e-01
2005 03 09  0410    53438   15000      0    1.18e+00    0    8.18e-01
2005 03 09  0415    53438   15300      0    1.19e+00    0    8.24e-01
2005 03 09  0420    53438   15600      0    1.17e+00    0    8.21e-01
2005 03 09  0425    53438   15900      0    1.17e+00    0    8.30e-01
2005 03 09  0430    53438   16200      0    1.20e+00    0    8.33e-01
2005 03 09  0435    53438   16500      0    1.17e+00    0    8.23e-01
2005 03 09  0440    53438   16800      0    1.18e+00    0    8.17e-01
2005 03 09  0445    53438   17100      0    1.17e+00    0    8.28e-01
2005 03 09  0450    53438   17400      0    1.18e+00    0    8.26e-01
2005 03 09  0455    53438   17700      0    1.20e+00    0    8.38e-01
2005 03 09  0500    53438   18000      0    1.18e+00    0    8.33e-01
2005 03 09  0505    53438   18300      0    1.17e+00    0    8.26e-01
2005 03 09  0510    53438   18600      0    1.17e+00    0    8.20e-01
2005 03 09  0515    53438   18900      0    1.17e+00    0    8.20e-01
2005 03 09  0520    53438   19200      0    1.19e+00    0    8.22e-01
2005 03 09  0525    53438   19500      0    1.19e+00    0    8.34e-01
2005 03 09  0530    53438   19800      0    1.17e+00    0    8.14e-01
2005 03 09  0535    53438   20100      0    1.19e+00    0    8.35e-01
2005 03 09  0540    53438   20400      0    1.17e+00    0    8.29e-01
2005 03 09  0545    53438   20700      0    1.16e+00    0    8.10e-01
2005 03 09  0550    53438   21000      0    1.16e+00    0    8.17e-01
2005 03 09  0555    53438   21300      0    1.19e+00    0    8.32e-01
2005 03 09  0600    53438   21600      0    1.17e+00    0    8.15e-01
2005 03 09  0605    53438   21900      0    1.17e+00    0    8.13e-01
2005 03 09  0610    53438   22200      0    1.18e+00    0    8.30e-01
2005 03 09  0615    53438   22500      0    1.18e+00    0    8.22e-01
2005 03 09  0620    53438   22800      0    1.19e+00    0    8.31e-01
2005 03 09  0625    53438   23100      0    1.18e+00    0    8.27e-01
2005 03 09  0630    53438   23400      0    1.16e+00    0    7.92e-01
2005 03 09  0635    53438   23700      0    1.20e+00    0    8.42e-01
2005 03 09  0640    53438   24000      0    1.16e+00    0    8.05e-01
2005 03 09  0645    53438   24300      0    1.18e+00    0    8.37e-01
2005 03 09  0650    53438   24600      0    1.17e+00    0    8.22e-01
2005 03 09  0655    53438   24900      0    1.19e+00    0    8.31e-01
2005 03 09  0700    53438   25200      0    1.17e+00    0    8.27e-01
2005 03 09  0705    53438   25500      0    1.14e+00    0    8.00e-01
2005 03 09  0710    53438   25800      0    1.17e+00    0    8.16e-01
2005 03 09  0715    53438   26100      0    1.19e+00    0    8.31e-01
2005 03 09  0720    53438   26400      0    1.16e+00    0    8.13e-01
2005 03 09  0725    53438   26700      0    1.17e+00    0    8.19e-01
2005 03 09  0730    53438   27000      0    1.17e+00    0    8.18e-01
2005 03 09  0735    53438   27300      0    1.18e+00    0    8.29e-01
2005 03 09  0740    53438   27600      0    1.16e+00    0    8.18e-01
2005 03 09  0745    53438   27900      0    1.19e+00    0    8.41e-01
2005 03 09  0750    53438   28200      0    1.15e+00    0    7.99e-01
2005 03 09  0755    53438   28500      0    1.18e+00    0    8.22e-01
2005 03 09  0800    53438   28800      0    1.20e+00    0    8.43e-01
2005 03 09  0805    53438   29100      0    1.19e+00    0    8.28e-01
2005 03 09  0810    53438   29400      0    1.18e+00    0    8.23e-01
2005 03 09  0815    53438   29700      0    1.20e+00    0    8.45e-01
2005 03 09  0820    53438   30000      0    1.18e+00    0    8.26e-01
2005 03 09  0825    53438   30300      0    1.19e+00    0    8.36e-01
2005 03 09  0830    53438   30600      0    1.15e+00    0    8.08e-01
2005 03 09  0835    53438   30900      0    1.19e+00    0    8.33e-01
2005 03 09  0840    53438   31200      0    1.19e+00    0    8.26e-01
2005 03 09  0845    53438   31500      0    1.18e+00    0    8.28e-01
2005 03 09  0850    53438   31800      0    1.18e+00    0    8.34e-01
2005 03 09  0855    53438   32100      0    1.19e+00    0    8.31e-01
2005 03 09  0900    53438   32400      0    1.15e+00    0    8.02e-01
2005 03 09  0905    53438   32700      0    1.14e+00    0    7.89e-01
2005 03 09  0910    53438   33000      0    1.16e+00    0    8.14e-01
2005 03 09  0915    53438   33300      0    1.18e+00    0    8.28e-01
2005 03 09  0920    53438   33600      0    1.19e+00    0    8.40e-01
2005 03 09  0925    53438   33900      0    1.17e+00    0    8.30e-01
2005 03 09  0930    53438   34200      0    1.19e+00    0    8.34e-01
2005 03 09  0935    53438   34500      0    1.17e+00    0    8.25e-01
2005 03 09  0940    53438   34800      0    1.15e+00    0    7.98e-01
2005 03 09  0945    53438   35100      0    1.15e+00    0    8.00e-01
2005 03 09  0950    53438   35400      0    1.18e+00    0    8.23e-01
2005 03 09  0955    53438   35700      0    1.21e+00    0    8.56e-01
2005 03 09  1000    53438   36000      0    1.21e+00    0    8.37e-01
2005 03 09  1005    53438   36300      0    1.16e+00    0    8.14e-01
2005 03 09  1010    53438   36600      0    1.13e+00    0    7.94e-01
2005 03 09  1015    53438   36900      0    1.18e+00    0    8.24e-01
2005 03 09  1020    53438   37200      0    1.19e+00    0    8.41e-01
2005 03 09  1025    53438   37500      0    1.11e+00    0    7.74e-01
2005 03 09  1030    53438   37800      0    1.19e+00    0    8.39e-01
2005 03 09  1035    53438   38100      0    1.17e+00    0    8.21e-01
2005 03 09  1040    53438   38400      0    1.18e+00    0    8.27e-01
2005 03 09  1045    53438   38700      0    1.16e+00    0    8.09e-01
2005 03 09  1050    53438   39000      0    1.17e+00    0    8.22e-01
2005 03 09  1055    53438   39300      0    1.18e+00    0    8.32e-01
2005 03 09  1100    53438   39600      0    1.17e+00    0    8.18e-01
2005 03 09  1105    53438   39900      0    1.18e+00    0    8.20e-01
2005 03 09  1110    53438   40200      0    1.19e+00    0    8.47e-01
2005 03 09  1115    53438   40500      0    1.16e+00    0    8.07e-01
2005 03 09  1120    53438   40800      0    1.15e+00    0    8.04e-01
2005 03 09  1125    53438   41100      0    1.15e+00    0    7.99e-01
2005 03 09  1130    53438   41400      0    1.19e+00    0    8.31e-01
2005 03 09  1135    53438   41700      0    1.17e+00    0    8.20e-01
2005 03 09  1140    53438   42000      0    1.18e+00    0    8.32e-01
2005 03 09  1145    53438   42300      0    1.20e+00    0    8.46e-01
2005 03 09  1150    53438   42600      0    1.17e+00    0    8.26e-01
2005 03 09  1155    53438   42900      0    1.20e+00    0    8.48e-01
2005 03 09  1200    53438   43200      0    1.15e+00    0    8.03e-01
2005 03 09  1205    53438   43500      0    1.16e+00    0    8.08e-01
2005 03 09  1210    53438   43800      0    1.14e+00    0    8.02e-01
2005 03 09  1215    53438   44100      0    1.17e+00    0    8.26e-01
2005 03 09  1220    53438   44400      0    1.18e+00    0    8.29e-01
2005 03 09  1225    53438   44700      0    1.16e+00    0    8.14e-01
2005 03 09  1230    53438   45000      0    1.16e+00    0    8.13e-01
2005 03 09  1235    53438   45300      0    1.16e+00    0    8.21e-01
2005 03 09  1240    53438   45600      0    1.18e+00    0    8.33e-01
2005 03 09  1245    53438   45900      0    1.18e+00    0    8.27e-01
2005 03 09  1250    53438   46200      0    1.18e+00    0    8.30e-01
2005 03 09  1255    53438   46500      0    1.18e+00    0    8.25e-01
2005 03 09  1300    53438   46800      0    1.19e+00    0    8.33e-01
2005 03 09  1305    53438   47100      0    1.18e+00    0    8.31e-01
2005 03 09  1310    53438   47400      0    1.18e+00    0    8.27e-01
2005 03 09  1315    53438   47700      0    1.22e+00    0    8.58e-01
2005 03 09  1320    53438   48000      0    1.18e+00    0    8.19e-01
2005 03 09  1325    53438   48300      0    1.19e+00    0    8.32e-01
2005 03 09  1330    53438   48600      0    1.18e+00    0    8.19e-01
2005 03 09  1335    53438   48900      0    1.21e+00    0    8.50e-01
2005 03 09  1340    53438   49200      0    1.22e+00    0    8.56e-01
2005 03 09  1345    53438   49500      0    1.17e+00    0    8.18e-01
2005 03 09  1350    53438   49800      0    1.21e+00    0    8.54e-01
2005 03 09  1355    53438   50100      0    1.19e+00    0    8.26e-01
2005 03 09  1400    53438   50400      0    1.17e+00    0    8.21e-01
2005 03 09  1405    53438   50700      0    1.18e+00    0    8.36e-01
2005 03 09  1410    53438   51000      0    1.20e+00    0    8.30e-01
2005 03 09  1415    53438   51300      0    1.20e+00    0    8.40e-01
2005 03 09  1420    53438   51600      0    1.19e+00    0    8.36e-01
2005 03 09  1425    53438   51900      0    1.19e+00    0    8.29e-01
2005 03 09  1430    53438   52200      0    1.20e+00    0    8.40e-01
2005 03 09  1435    53438   52500      0    1.19e+00    0    8.30e-01
2005 03 09  1440    53438   52800      0    1.21e+00    0    8.48e-01
2005 03 09  1445    53438   53100      0    1.19e+00    0    8.31e-01
2005 03 09  1450    53438   53400      0    1.18e+00    0    8.34e-01
2005 03 09  1455    53438   53700      0    1.20e+00    0    8.41e-01
2005 03 09  1500    53438   54000      0    1.19e+00    0    8.29e-01
2005 03 09  1505    53438   54300      0    1.15e+00    0    8.03e-01
2005 03 09  1510    53438   54600      0    1.16e+00    0    8.20e-01
2005 03 09  1515    53438   54900      0    1.18e+00    0    8.28e-01
2005 03 09  1520    53438   55200      0    1.15e+00    0    8.19e-01
2005 03 09  1525    53438   55500      0    1.17e+00    0    8.27e-01
2005 03 09  1530    53438   55800      0    1.20e+00    0    8.36e-01
2005 03 09  1535    53438   56100      0    1.20e+00    0    8.30e-01
2005 03 09  1540    53438   56400      0    1.16e+00    0    8.16e-01
2005 03 09  1545    53438   56700      0    1.19e+00    0    8.39e-01
2005 03 09  1550    53438   57000      0    1.18e+00    0    8.29e-01
2005 03 09  1555    53438   57300      0    1.19e+00    0    8.31e-01
2005 03 09  1600    53438   57600      0    1.20e+00    0    8.38e-01
2005 03 09  1605    53438   57900      0    1.19e+00    0    8.38e-01
2005 03 09  1610    53438   58200      0    1.16e+00    0    8.13e-01
2005 03 09  1615    53438   58500      0    1.17e+00    0    8.14e-01
2005 03 09  1620    53438   58800      0    1.20e+00    0    8.29e-01
2005 03 09  1625    53438   59100      0    1.18e+00    0    8.14e-01
2005 03 09  1630    53438   59400      0    1.18e+00    0    8.30e-01
2005 03 09  1635    53438   59700      0    1.19e+00    0    8.36e-01
2005 03 09  1640    53438   60000      0    1.16e+00    0    8.15e-01
2005 03 09  1645    53438   60300      0    1.18e+00    0    8.28e-01
2005 03 09  1650    53438   60600      0    1.20e+00    0    8.47e-01
2005 03 09  1655    53438   60900      0    1.19e+00    0    8.33e-01
2005 03 09  1700    53438   61200      0    1.13e+00    0    7.96e-01
2005 03 09  1705    53438   61500      0    1.18e+00    0    8.31e-01
2005 03 09  1710    53438   61800      0    1.15e+00    0    8.08e-01
2005 03 09  1715    53438   62100      0    1.19e+00    0    8.41e-01
2005 03 09  1720    53438   62400      0    1.18e+00    0    8.20e-01
2005 03 09  1725    53438   62700      0    1.18e+00    0    8.27e-01
2005 03 09  1730    53438   63000      0    1.13e+00    0    7.94e-01
2005 03 09  1735    53438   63300      0    1.18e+00    0    8.31e-01
2005 03 09  1740    53438   63600      0    1.22e+00    0    8.63e-01
2005 03 09  1745    53438   63900      0    1.20e+00    0    8.41e-01
2005 03 09  1750    53438   64200      0    1.20e+00    0    8.39e-01
2005 03 09  1755    53438   64500      0    1.16e+00    0    8.11e-01
2005 03 09  1800    53438   64800      0    1.17e+00    0    8.04e-01
2005 03 09  1805    53438   65100      0    1.17e+00    0    8.21e-01
2005 03 09  1810    53438   65400      0    1.20e+00    0    8.43e-01
2005 03 09  1815    53438   65700      0    1.15e+00    0    8.03e-01
2005 03 09  1820    53438   66000      0    1.17e+00    0    8.11e-01
2005 03 09  1825    53438   66300      0    1.19e+00    0    8.33e-01
2005 03 09  1830    53438   66600      0    1.18e+00    0    8.29e-01
2005 03 09  1835    53438   66900      0    1.17e+00    0    8.14e-01
2005 03 09  1840    53438   67200      0    1.19e+00    0    8.48e-01
2005 03 09  1845    53438   67500      0    1.21e+00    0    8.60e-01
2005 03 09  1850    53438   67800      0    1.19e+00    0    8.35e-01
2005 03 09  1855    53438   68100      0    1.17e+00    0    8.23e-01
2005 03 09  1900    53438   68400      0    1.19e+00    0    8.38e-01
2005 03 09  1905    53438   68700      0    1.16e+00    0    8.22e-01
2005 03 09  1910    53438   69000      0    1.16e+00    0    8.13e-01
2005 03 09  1915    53438   69300      0    1.19e+00    0    8.31e-01
2005 03 09  1920    53438   69600      0    1.16e+00    0    8.09e-01
2005 03 09  1925    53438   69900      0    1.17e+00    0    8.23e-01
2005 03 09  1930    53438   70200      0    1.18e+00    0    8.28e-01
2005 03 09  1935    53438   70500      0    1.17e+00    0    8.20e-01
2005 03 09  1940    53438   70800      0    1.19e+00    0    8.34e-01
2005 03 09  1945    53438   71100      0    1.16e+00    0    8.04e-01
2005 03 09  1950    53438   71400      0    1.19e+00    0    8.30e-01
2005 03 09  1955    53438   71700      0    1.18e+00    0    8.31e-01
2005 03 09  2000    53438   72000      0    1.17e+00    0    8.24e-01
2005 03 09  2005    53438   72300      0    1.17e+00    0    8.24e-01
2005 03 09  2010    53438   72600      0    1.20e+00    0    8.42e-01
2005 03 09  2015    53438   72900      0    1.18e+00    0    8.26e-01
2005 03 09  2020    53438   73200      0    1.15e+00    0    7.99e-01
2005 03 09  2025    53438   73500      0    1.19e+00    0    8.31e-01
2005 03 09  2030    53438   73800      0    1.18e+00    0    8.21e-01
2005 03 09  2035    53438   74100      0    1.18e+00    0    8.28e-01
2005 03 09  2040    53438   74400      0    1.21e+00    0    8.48e-01
2005 03 09  2045    53438   74700      0    1.18e+00    0    8.27e-01
2005 03 09  2050    53438   75000      0    1.16e+00    0    8.13e-01
2005 03 09  2055    53438   75300      0    1.16e+00    0    8.18e-01
2005 03 09  2100    53438   75600      0    1.19e+00    0    8.48e-01
2005 03 09  2105    53438   75900      0    1.18e+00    0    8.25e-01
2005 03 09  2110    53438   76200      0    1.17e+00    0    8.19e-01
2005 03 09  2115    53438   76500      0    1.19e+00    0    8.34e-01
2005 03 09  2120    53438   76800      0    1.19e+00    0    8.36e-01
2005 03 09  2125    53438   77100      0    1.19e+00    0    8.31e-01
2005 03 09  2130    53438   77400      0    1.18e+00    0    8.26e-01
2005 03 09  2135    53438   77700      0    1.18e+00    0    8.24e-01
2005 03 09  2140    53438   78000      0    1.16e+00    0    8.14e-01
2005 03 09  2145    53438   78300      0    1.20e+00    0    8.48e-01
2005 03 09  2150    53438   78600      0    1.20e+00    0    8.37e-01
2005 03 09  2155    53438   78900      0    1.18e+00    0    8.26e-01
2005 03 09  2200    53438   79200      0    1.20e+00    0    8.41e-01
2005 03 09  2205    53438   79500      0    1.17e+00    0    8.23e-01
2005 03 09  2210    53438   79800      0    1.11e+00    0    7.70e-01
2005 03 09  2215    53438   80100      0    1.18e+00    0    8.34e-01
2005 03 09  2220    53438   80400      0    1.17e+00    0    8.33e-01
2005 03 09  2225    53438   80700      0    1.16e+00    0    8.14e-01
2005 03 09  2230    53438   81000      0    1.18e+00    0    8.36e-01
2005 03 09  2235    53438   81300      0    1.17e+00    0    8.20e-01
2005 03 09  2240    53438   81600      0    1.17e+00    0    8.19e-01
2005 03 09  2245    53438   81900      0    1.18e+00    0    8.31e-01
2005 03 09  2250    53438   82200      0    1.16e+00    0    8.17e-01
2005 03 09  2255    53438   82500      0    1.19e+00    0    8.31e-01
2005 03 09  2300    53438   82800      0    1.17e+00    0    8.14e-01
2005 03 09  2305    53438   83100      0    1.20e+00    0    8.40e-01
2005 03 09  2310    53438   83400      0    1.17e+00    0    8.22e-01
2005 03 09  2315    53438   83700      0    1.15e+00    0    8.10e-01
2005 03 09  2320    53438   84000      0    1.20e+00    0    8.44e-01
2005 03 09  2325    53438   84300      0    1.18e+00    0    8.29e-01
2005 03 09  2330    53438   84600      0    1.17e+00    0    8.15e-01
2005 03 09  2335    53438   84900      0    1.16e+00    0    8.23e-01
2005 03 09  2340    53438   85200      0    1.19e+00    0    8.33e-01
2005 03 09  2345    53438   85500      0    1.18e+00    0    8.29e-01
2005 03 09  2350    53438   85800      0    1.17e+00    0    8.27e-01
2005 03 09  2355    53438   86100      0    1.19e+00    0    8.33e-01
