:Data_list: 20050918_ace_sis_5m.txt
:Created: 2005 Sep 19 0011 UT
# Prepared by the U.S. Dept. of Commerce, NOAA, Space Environment Center.
# Please send comments and suggestions to SEC.Webmaster@noaa.gov 
# 
# Units: proton flux p/cs2-sec-ster
# Status(S): 0 = nominal data, 1 to 8 = bad data record, 9 = no data
# Missing data values: -1.00e+05
# Source: ACE Satellite - Solar Isotope Spectrometer
#
# 5-minute averaged Real-time Integral Flux of High-energy Solar Protons
# 
#                 Modified Seconds
# UT Date   Time   Julian  of the      ---- Integral Proton Flux ----
# YR MO DA  HHMM     Day     Day       S    > 10 MeV    S    > 30 MeV
#--------------------------------------------------------------------
2005 09 18  0000    53631       0      0    4.61e+00    0    1.27e+00
2005 09 18  0005    53631     300      0    4.59e+00    0    1.28e+00
2005 09 18  0010    53631     600      0    4.52e+00    0    1.28e+00
2005 09 18  0015    53631     900      0    4.54e+00    0    1.25e+00
2005 09 18  0020    53631    1200      0    4.54e+00    0    1.24e+00
2005 09 18  0025    53631    1500      0    4.65e+00    0    1.29e+00
2005 09 18  0030    53631    1800      0    4.64e+00    0    1.28e+00
2005 09 18  0035    53631    2100      0    4.59e+00    0    1.27e+00
2005 09 18  0040    53631    2400      0    4.78e+00    0    1.32e+00
2005 09 18  0045    53631    2700      0    4.69e+00    0    1.28e+00
2005 09 18  0050    53631    3000      0    4.63e+00    0    1.28e+00
2005 09 18  0055    53631    3300      0    4.65e+00    0    1.29e+00
2005 09 18  0100    53631    3600      0    4.70e+00    0    1.30e+00
2005 09 18  0105    53631    3900      0    4.63e+00    0    1.26e+00
2005 09 18  0110    53631    4200      0    4.48e+00    0    1.25e+00
2005 09 18  0115    53631    4500      0    4.42e+00    0    1.24e+00
2005 09 18  0120    53631    4800      0    4.48e+00    0    1.25e+00
2005 09 18  0125    53631    5100      0    4.46e+00    0    1.27e+00
2005 09 18  0130    53631    5400      0    4.44e+00    0    1.26e+00
2005 09 18  0135    53631    5700      0    4.45e+00    0    1.31e+00
2005 09 18  0140    53631    6000      0    4.43e+00    0    1.28e+00
2005 09 18  0145    53631    6300      0    4.44e+00    0    1.26e+00
2005 09 18  0150    53631    6600      0    4.50e+00    0    1.28e+00
2005 09 18  0155    53631    6900      0    4.46e+00    0    1.26e+00
2005 09 18  0200    53631    7200      0    4.56e+00    0    1.25e+00
2005 09 18  0205    53631    7500      0    4.49e+00    0    1.27e+00
2005 09 18  0210    53631    7800      0    4.41e+00    0    1.24e+00
2005 09 18  0215    53631    8100      0    4.53e+00    0    1.27e+00
2005 09 18  0220    53631    8400      0    4.60e+00    0    1.27e+00
2005 09 18  0225    53631    8700      0    4.58e+00    0    1.27e+00
2005 09 18  0230    53631    9000      0    4.37e+00    0    1.20e+00
2005 09 18  0235    53631    9300      0    4.48e+00    0    1.24e+00
2005 09 18  0240    53631    9600      0    4.53e+00    0    1.28e+00
2005 09 18  0245    53631    9900      0    4.39e+00    0    1.24e+00
2005 09 18  0250    53631   10200      0    4.50e+00    0    1.27e+00
2005 09 18  0255    53631   10500      0    4.45e+00    0    1.25e+00
2005 09 18  0300    53631   10800      0    4.50e+00    0    1.25e+00
2005 09 18  0305    53631   11100      0    4.44e+00    0    1.22e+00
2005 09 18  0310    53631   11400      0    4.41e+00    0    1.22e+00
2005 09 18  0315    53631   11700      0    4.33e+00    0    1.21e+00
2005 09 18  0320    53631   12000      0    4.29e+00    0    1.20e+00
2005 09 18  0325    53631   12300      0    4.44e+00    0    1.28e+00
2005 09 18  0330    53631   12600      0    4.52e+00    0    1.28e+00
2005 09 18  0335    53631   12900      0    4.47e+00    0    1.28e+00
2005 09 18  0340    53631   13200      0    4.40e+00    0    1.26e+00
2005 09 18  0345    53631   13500      0    4.48e+00    0    1.27e+00
2005 09 18  0350    53631   13800      0    4.44e+00    0    1.22e+00
2005 09 18  0355    53631   14100      0    4.44e+00    0    1.22e+00
2005 09 18  0400    53631   14400      0    4.41e+00    0    1.25e+00
2005 09 18  0405    53631   14700      0    4.42e+00    0    1.24e+00
2005 09 18  0410    53631   15000      0    4.43e+00    0    1.24e+00
2005 09 18  0415    53631   15300      0    4.56e+00    0    1.29e+00
2005 09 18  0420    53631   15600      0    4.54e+00    0    1.26e+00
2005 09 18  0425    53631   15900      0    4.46e+00    0    1.27e+00
2005 09 18  0430    53631   16200      0    4.44e+00    0    1.27e+00
2005 09 18  0435    53631   16500      0    4.42e+00    0    1.27e+00
2005 09 18  0440    53631   16800      0    4.51e+00    0    1.26e+00
2005 09 18  0445    53631   17100      0    4.62e+00    0    1.31e+00
2005 09 18  0450    53631   17400      0    4.53e+00    0    1.30e+00
2005 09 18  0455    53631   17700      0    4.38e+00    0    1.24e+00
2005 09 18  0500    53631   18000      0    4.53e+00    0    1.26e+00
2005 09 18  0505    53631   18300      0    4.51e+00    0    1.29e+00
2005 09 18  0510    53631   18600      0    4.36e+00    0    1.20e+00
2005 09 18  0515    53631   18900      0    4.37e+00    0    1.23e+00
2005 09 18  0520    53631   19200      0    4.30e+00    0    1.23e+00
2005 09 18  0525    53631   19500      0    4.24e+00    0    1.22e+00
2005 09 18  0530    53631   19800      0    4.33e+00    0    1.26e+00
2005 09 18  0535    53631   20100      0    4.24e+00    0    1.21e+00
2005 09 18  0540    53631   20400      0    4.19e+00    0    1.24e+00
2005 09 18  0545    53631   20700      0    4.23e+00    0    1.20e+00
2005 09 18  0550    53631   21000      0    4.32e+00    0    1.24e+00
2005 09 18  0555    53631   21300      0    4.22e+00    0    1.24e+00
2005 09 18  0600    53631   21600      0    4.27e+00    0    1.20e+00
2005 09 18  0605    53631   21900      0    4.18e+00    0    1.23e+00
2005 09 18  0610    53631   22200      0    4.24e+00    0    1.26e+00
2005 09 18  0615    53631   22500      0    4.40e+00    0    1.26e+00
2005 09 18  0620    53631   22800      0    4.26e+00    0    1.23e+00
2005 09 18  0625    53631   23100      0    4.16e+00    0    1.17e+00
2005 09 18  0630    53631   23400      0    4.32e+00    0    1.25e+00
2005 09 18  0635    53631   23700      0    4.54e+00    0    1.30e+00
2005 09 18  0640    53631   24000      0    4.21e+00    0    1.18e+00
2005 09 18  0645    53631   24300      0    4.40e+00    0    1.26e+00
2005 09 18  0650    53631   24600      0    4.23e+00    0    1.19e+00
2005 09 18  0655    53631   24900      0    4.23e+00    0    1.25e+00
2005 09 18  0700    53631   25200      0    4.05e+00    0    1.17e+00
2005 09 18  0705    53631   25500      0    4.22e+00    0    1.20e+00
2005 09 18  0710    53631   25800      0    4.32e+00    0    1.24e+00
2005 09 18  0715    53631   26100      0    4.18e+00    0    1.24e+00
2005 09 18  0720    53631   26400      0    4.18e+00    0    1.21e+00
2005 09 18  0725    53631   26700      0    4.14e+00    0    1.23e+00
2005 09 18  0730    53631   27000      0    4.31e+00    0    1.24e+00
2005 09 18  0735    53631   27300      0    4.54e+00    0    1.25e+00
2005 09 18  0740    53631   27600      0    4.47e+00    0    1.22e+00
2005 09 18  0745    53631   27900      0    4.35e+00    0    1.23e+00
2005 09 18  0750    53631   28200      0    4.33e+00    0    1.22e+00
2005 09 18  0755    53631   28500      0    4.27e+00    0    1.22e+00
2005 09 18  0800    53631   28800      0    4.27e+00    0    1.22e+00
2005 09 18  0805    53631   29100      0    4.17e+00    0    1.20e+00
2005 09 18  0810    53631   29400      0    4.18e+00    0    1.18e+00
2005 09 18  0815    53631   29700      0    4.24e+00    0    1.21e+00
2005 09 18  0820    53631   30000      0    4.42e+00    0    1.23e+00
2005 09 18  0825    53631   30300      0    4.41e+00    0    1.25e+00
2005 09 18  0830    53631   30600      0    4.31e+00    0    1.23e+00
2005 09 18  0835    53631   30900      0    4.37e+00    0    1.25e+00
2005 09 18  0840    53631   31200      0    4.44e+00    0    1.25e+00
2005 09 18  0845    53631   31500      0    4.41e+00    0    1.25e+00
2005 09 18  0850    53631   31800      0    4.35e+00    0    1.28e+00
2005 09 18  0855    53631   32100      0    4.16e+00    0    1.23e+00
2005 09 18  0900    53631   32400      0    4.17e+00    0    1.20e+00
2005 09 18  0905    53631   32700      0    4.15e+00    0    1.20e+00
2005 09 18  0910    53631   33000      0    4.16e+00    0    1.17e+00
2005 09 18  0915    53631   33300      0    4.19e+00    0    1.26e+00
2005 09 18  0920    53631   33600      0    4.12e+00    0    1.21e+00
2005 09 18  0925    53631   33900      0    4.16e+00    0    1.24e+00
2005 09 18  0930    53631   34200      0    4.11e+00    0    1.18e+00
2005 09 18  0935    53631   34500      0    4.13e+00    0    1.20e+00
2005 09 18  0940    53631   34800      0    4.13e+00    0    1.23e+00
2005 09 18  0945    53631   35100      0    4.14e+00    0    1.21e+00
2005 09 18  0950    53631   35400      0    4.08e+00    0    1.22e+00
2005 09 18  0955    53631   35700      0    4.10e+00    0    1.18e+00
2005 09 18  1000    53631   36000      0    4.10e+00    0    1.19e+00
2005 09 18  1005    53631   36300      0    4.25e+00    0    1.22e+00
2005 09 18  1010    53631   36600      0    4.05e+00    0    1.19e+00
2005 09 18  1015    53631   36900      0    4.01e+00    0    1.16e+00
2005 09 18  1020    53631   37200      0    3.93e+00    0    1.18e+00
2005 09 18  1025    53631   37500      0    3.98e+00    0    1.20e+00
2005 09 18  1030    53631   37800      0    4.00e+00    0    1.19e+00
2005 09 18  1035    53631   38100      0    4.00e+00    0    1.18e+00
2005 09 18  1040    53631   38400      0    4.03e+00    0    1.16e+00
2005 09 18  1045    53631   38700      0    4.06e+00    0    1.18e+00
2005 09 18  1050    53631   39000      0    4.04e+00    0    1.18e+00
2005 09 18  1055    53631   39300      0    4.01e+00    0    1.19e+00
2005 09 18  1100    53631   39600      0    3.94e+00    0    1.17e+00
2005 09 18  1105    53631   39900      0    4.05e+00    0    1.21e+00
2005 09 18  1110    53631   40200      0    3.99e+00    0    1.15e+00
2005 09 18  1115    53631   40500      0    3.91e+00    0    1.16e+00
2005 09 18  1120    53631   40800      0    3.88e+00    0    1.17e+00
2005 09 18  1125    53631   41100      0    3.98e+00    0    1.21e+00
2005 09 18  1130    53631   41400      0    3.93e+00    0    1.20e+00
2005 09 18  1135    53631   41700      0    3.87e+00    0    1.17e+00
2005 09 18  1140    53631   42000      0    3.87e+00    0    1.17e+00
2005 09 18  1145    53631   42300      0    3.92e+00    0    1.19e+00
2005 09 18  1150    53631   42600      0    3.88e+00    0    1.18e+00
2005 09 18  1155    53631   42900      0    3.89e+00    0    1.14e+00
2005 09 18  1200    53631   43200      0    3.92e+00    0    1.19e+00
2005 09 18  1205    53631   43500      0    3.94e+00    0    1.16e+00
2005 09 18  1210    53631   43800      0    3.95e+00    0    1.18e+00
2005 09 18  1215    53631   44100      0    4.01e+00    0    1.22e+00
2005 09 18  1220    53631   44400      0    3.96e+00    0    1.18e+00
2005 09 18  1225    53631   44700      0    3.96e+00    0    1.19e+00
2005 09 18  1230    53631   45000      0    3.97e+00    0    1.19e+00
2005 09 18  1235    53631   45300      0    3.96e+00    0    1.12e+00
2005 09 18  1240    53631   45600      0    3.97e+00    0    1.15e+00
2005 09 18  1245    53631   45900      0    4.04e+00    0    1.19e+00
2005 09 18  1250    53631   46200      0    4.03e+00    0    1.18e+00
2005 09 18  1255    53631   46500      0    3.86e+00    0    1.16e+00
2005 09 18  1300    53631   46800      0    3.84e+00    0    1.16e+00
2005 09 18  1305    53631   47100      0    3.85e+00    0    1.14e+00
2005 09 18  1310    53631   47400      0    3.82e+00    0    1.14e+00
2005 09 18  1315    53631   47700      0    3.86e+00    0    1.17e+00
2005 09 18  1320    53631   48000      0    3.94e+00    0    1.19e+00
2005 09 18  1325    53631   48300      0    3.98e+00    0    1.18e+00
2005 09 18  1330    53631   48600      0    3.97e+00    0    1.19e+00
2005 09 18  1335    53631   48900      0    4.02e+00    0    1.20e+00
2005 09 18  1340    53631   49200      0    3.84e+00    0    1.17e+00
2005 09 18  1345    53631   49500      0    3.81e+00    0    1.16e+00
2005 09 18  1350    53631   49800      0    3.81e+00    0    1.16e+00
2005 09 18  1355    53631   50100      0    3.90e+00    0    1.19e+00
2005 09 18  1400    53631   50400      0    3.87e+00    0    1.13e+00
2005 09 18  1405    53631   50700      0    3.86e+00    0    1.19e+00
2005 09 18  1410    53631   51000      0    3.77e+00    0    1.13e+00
2005 09 18  1415    53631   51300      0    3.80e+00    0    1.13e+00
2005 09 18  1420    53631   51600      0    3.84e+00    0    1.11e+00
2005 09 18  1425    53631   51900      0    3.75e+00    0    1.12e+00
2005 09 18  1430    53631   52200      0    3.78e+00    0    1.13e+00
2005 09 18  1435    53631   52500      0    3.78e+00    0    1.10e+00
2005 09 18  1440    53631   52800      0    3.76e+00    0    1.13e+00
2005 09 18  1445    53631   53100      0    3.66e+00    0    1.12e+00
2005 09 18  1450    53631   53400      0    3.57e+00    0    1.10e+00
2005 09 18  1455    53631   53700      0    3.88e+00    0    1.19e+00
2005 09 18  1500    53631   54000      0    3.81e+00    0    1.13e+00
2005 09 18  1505    53631   54300      0    3.80e+00    0    1.15e+00
2005 09 18  1510    53631   54600      0    3.76e+00    0    1.12e+00
2005 09 18  1515    53631   54900      0    3.84e+00    0    1.14e+00
2005 09 18  1520    53631   55200      0    3.87e+00    0    1.15e+00
2005 09 18  1525    53631   55500      0    3.73e+00    0    1.09e+00
2005 09 18  1530    53631   55800      0    3.72e+00    0    1.10e+00
2005 09 18  1535    53631   56100      0    3.87e+00    0    1.16e+00
2005 09 18  1540    53631   56400      0    3.76e+00    0    1.14e+00
2005 09 18  1545    53631   56700      0    3.75e+00    0    1.12e+00
2005 09 18  1550    53631   57000      0    3.73e+00    0    1.13e+00
2005 09 18  1555    53631   57300      0    3.69e+00    0    1.10e+00
2005 09 18  1600    53631   57600      0    3.73e+00    0    1.15e+00
2005 09 18  1605    53631   57900      0    3.60e+00    0    1.13e+00
2005 09 18  1610    53631   58200      0    3.53e+00    0    1.10e+00
2005 09 18  1615    53631   58500      0    3.56e+00    0    1.10e+00
2005 09 18  1620    53631   58800      0    3.64e+00    0    1.10e+00
2005 09 18  1625    53631   59100      0    3.62e+00    0    1.09e+00
2005 09 18  1630    53631   59400      0    3.81e+00    0    1.14e+00
2005 09 18  1635    53631   59700      0    3.79e+00    0    1.10e+00
2005 09 18  1640    53631   60000      0    3.73e+00    0    1.14e+00
2005 09 18  1645    53631   60300      0    3.78e+00    0    1.15e+00
2005 09 18  1650    53631   60600      0    3.85e+00    0    1.16e+00
2005 09 18  1655    53631   60900      0    3.87e+00    0    1.16e+00
2005 09 18  1700    53631   61200      0    3.88e+00    0    1.15e+00
2005 09 18  1705    53631   61500      0    3.82e+00    0    1.14e+00
2005 09 18  1710    53631   61800      0    3.77e+00    0    1.09e+00
2005 09 18  1715    53631   62100      0    3.79e+00    0    1.14e+00
2005 09 18  1720    53631   62400      0    3.74e+00    0    1.15e+00
2005 09 18  1725    53631   62700      0    3.62e+00    0    1.10e+00
2005 09 18  1730    53631   63000      0    3.80e+00    0    1.15e+00
2005 09 18  1735    53631   63300      0    3.77e+00    0    1.16e+00
2005 09 18  1740    53631   63600      0    3.64e+00    0    1.12e+00
2005 09 18  1745    53631   63900      0    3.65e+00    0    1.14e+00
2005 09 18  1750    53631   64200      0    3.64e+00    0    1.13e+00
2005 09 18  1755    53631   64500      0    3.63e+00    0    1.10e+00
2005 09 18  1800    53631   64800      0    3.49e+00    0    1.05e+00
2005 09 18  1805    53631   65100      0    3.62e+00    0    1.08e+00
2005 09 18  1810    53631   65400      0    3.62e+00    0    1.10e+00
2005 09 18  1815    53631   65700      0    3.53e+00    0    1.10e+00
2005 09 18  1820    53631   66000      0    3.61e+00    0    1.17e+00
2005 09 18  1825    53631   66300      0    3.51e+00    0    1.06e+00
2005 09 18  1830    53631   66600      0    3.54e+00    0    1.14e+00
2005 09 18  1835    53631   66900      0    3.56e+00    0    1.13e+00
2005 09 18  1840    53631   67200      0    3.55e+00    0    1.13e+00
2005 09 18  1845    53631   67500      0    3.63e+00    0    1.13e+00
2005 09 18  1850    53631   67800      0    3.61e+00    0    1.15e+00
2005 09 18  1855    53631   68100      0    3.59e+00    0    1.12e+00
2005 09 18  1900    53631   68400      0    3.56e+00    0    1.09e+00
2005 09 18  1905    53631   68700      0    3.63e+00    0    1.15e+00
2005 09 18  1910    53631   69000      0    3.74e+00    0    1.15e+00
2005 09 18  1915    53631   69300      0    3.68e+00    0    1.15e+00
2005 09 18  1920    53631   69600      0    3.68e+00    0    1.10e+00
2005 09 18  1925    53631   69900      0    3.68e+00    0    1.14e+00
2005 09 18  1930    53631   70200      0    3.75e+00    0    1.16e+00
2005 09 18  1935    53631   70500      0    3.54e+00    0    1.09e+00
2005 09 18  1940    53631   70800      0    3.56e+00    0    1.11e+00
2005 09 18  1945    53631   71100      0    3.47e+00    0    1.10e+00
2005 09 18  1950    53631   71400      0    3.60e+00    0    1.14e+00
2005 09 18  1955    53631   71700      0    3.56e+00    0    1.13e+00
2005 09 18  2000    53631   72000      0    3.56e+00    0    1.12e+00
2005 09 18  2005    53631   72300      0    3.46e+00    0    1.08e+00
2005 09 18  2010    53631   72600      0    3.51e+00    0    1.13e+00
2005 09 18  2015    53631   72900      0    3.60e+00    0    1.13e+00
2005 09 18  2020    53631   73200      0    3.45e+00    0    1.12e+00
2005 09 18  2025    53631   73500      0    3.44e+00    0    1.13e+00
2005 09 18  2030    53631   73800      0    3.54e+00    0    1.13e+00
2005 09 18  2035    53631   74100      0    3.45e+00    0    1.13e+00
2005 09 18  2040    53631   74400      0    3.42e+00    0    1.10e+00
2005 09 18  2045    53631   74700      0    3.41e+00    0    1.08e+00
2005 09 18  2050    53631   75000      0    3.43e+00    0    1.13e+00
2005 09 18  2055    53631   75300      0    3.44e+00    0    1.10e+00
2005 09 18  2100    53631   75600      0    3.47e+00    0    1.15e+00
2005 09 18  2105    53631   75900      0    3.40e+00    0    1.07e+00
2005 09 18  2110    53631   76200      0    3.44e+00    0    1.13e+00
2005 09 18  2115    53631   76500      0    3.48e+00    0    1.14e+00
2005 09 18  2120    53631   76800      0    3.47e+00    0    1.13e+00
2005 09 18  2125    53631   77100      0    3.40e+00    0    1.12e+00
2005 09 18  2130    53631   77400      0    3.45e+00    0    1.12e+00
2005 09 18  2135    53631   77700      0    3.40e+00    0    1.08e+00
2005 09 18  2140    53631   78000      0    3.47e+00    0    1.09e+00
2005 09 18  2145    53631   78300      0    3.53e+00    0    1.12e+00
2005 09 18  2150    53631   78600      0    3.57e+00    0    1.10e+00
2005 09 18  2155    53631   78900      0    3.55e+00    0    1.10e+00
2005 09 18  2200    53631   79200      0    3.43e+00    0    1.12e+00
2005 09 18  2205    53631   79500      0    3.49e+00    0    1.12e+00
2005 09 18  2210    53631   79800      0    3.38e+00    0    1.09e+00
2005 09 18  2215    53631   80100      0    3.42e+00    0    1.09e+00
2005 09 18  2220    53631   80400      0    3.37e+00    0    1.10e+00
2005 09 18  2225    53631   80700      0    3.43e+00    0    1.13e+00
2005 09 18  2230    53631   81000      0    3.42e+00    0    1.13e+00
2005 09 18  2235    53631   81300      0    3.42e+00    0    1.14e+00
2005 09 18  2240    53631   81600      0    3.38e+00    0    1.09e+00
2005 09 18  2245    53631   81900      0    3.35e+00    0    1.09e+00
2005 09 18  2250    53631   82200      0    3.28e+00    0    1.07e+00
2005 09 18  2255    53631   82500      0    3.31e+00    0    1.07e+00
2005 09 18  2300    53631   82800      0    3.13e+00    0    1.03e+00
2005 09 18  2305    53631   83100      0    3.27e+00    0    1.05e+00
2005 09 18  2310    53631   83400      0    3.24e+00    0    1.04e+00
2005 09 18  2315    53631   83700      0    3.42e+00    0    1.08e+00
2005 09 18  2320    53631   84000      0    3.34e+00    0    1.10e+00
2005 09 18  2325    53631   84300      0    3.48e+00    0    1.11e+00
2005 09 18  2330    53631   84600      0    3.47e+00    0    1.11e+00
2005 09 18  2335    53631   84900      0    3.28e+00    0    1.09e+00
2005 09 18  2340    53631   85200      0    3.36e+00    0    1.08e+00
2005 09 18  2345    53631   85500      0    3.38e+00    0    1.08e+00
2005 09 18  2350    53631   85800      0    3.46e+00    0    1.10e+00
2005 09 18  2355    53631   86100      0    3.39e+00    0    1.09e+00
