:Data_list: 20050908_ace_sis_5m.txt
:Created: 2005 Sep 09 0011 UT
# Prepared by the U.S. Dept. of Commerce, NOAA, Space Environment Center.
# Please send comments and suggestions to SEC.Webmaster@noaa.gov 
# 
# Units: proton flux p/cs2-sec-ster
# Status(S): 0 = nominal data, 1 to 8 = bad data record, 9 = no data
# Missing data values: -1.00e+05
# Source: ACE Satellite - Solar Isotope Spectrometer
#
# 5-minute averaged Real-time Integral Flux of High-energy Solar Protons
# 
#                 Modified Seconds
# UT Date   Time   Julian  of the      ---- Integral Proton Flux ----
# YR MO DA  HHMM     Day     Day       S    > 10 MeV    S    > 30 MeV
#--------------------------------------------------------------------
2005 09 08  0000    53621       0      0    8.14e+00    0    3.87e+00
2005 09 08  0005    53621     300      0    8.38e+00    0    3.88e+00
2005 09 08  0010    53621     600      0    8.72e+00    0    4.00e+00
2005 09 08  0015    53621     900      0    9.18e+00    0    4.17e+00
2005 09 08  0020    53621    1200      0    9.49e+00    0    4.38e+00
2005 09 08  0025    53621    1500      0    1.04e+01    0    4.79e+00
2005 09 08  0030    53621    1800      0    1.19e+01    0    5.26e+00
2005 09 08  0035    53621    2100      0    1.49e+01    0    5.89e+00
2005 09 08  0040    53621    2400      0    1.95e+01    0    6.70e+00
2005 09 08  0045    53621    2700      0    2.43e+01    0    7.58e+00
2005 09 08  0050    53621    3000      0    2.79e+01    0    8.08e+00
2005 09 08  0055    53621    3300      0    2.71e+01    0    7.68e+00
2005 09 08  0100    53621    3600      0    2.52e+01    0    7.77e+00
2005 09 08  0105    53621    3900      0    2.25e+01    0    7.50e+00
2005 09 08  0110    53621    4200      0    2.08e+01    0    7.33e+00
2005 09 08  0115    53621    4500      0    2.09e+01    0    7.40e+00
2005 09 08  0120    53621    4800      0    2.08e+01    0    7.50e+00
2005 09 08  0125    53621    5100      0    2.10e+01    0    7.71e+00
2005 09 08  0130    53621    5400      0    2.25e+01    0    7.90e+00
2005 09 08  0135    53621    5700      0    2.37e+01    0    7.97e+00
2005 09 08  0140    53621    6000      0    2.49e+01    0    8.26e+00
2005 09 08  0145    53621    6300      0    2.54e+01    0    8.43e+00
2005 09 08  0150    53621    6600      0    2.81e+01    0    9.33e+00
2005 09 08  0155    53621    6900      0    3.10e+01    0    9.67e+00
2005 09 08  0200    53621    7200      0    3.21e+01    0    9.70e+00
2005 09 08  0205    53621    7500      0    3.40e+01    0    9.81e+00
2005 09 08  0210    53621    7800      0    3.66e+01    0    1.03e+01
2005 09 08  0215    53621    8100      0    3.75e+01    0    1.03e+01
2005 09 08  0220    53621    8400      0    3.96e+01    0    1.09e+01
2005 09 08  0225    53621    8700      0    4.12e+01    0    1.13e+01
2005 09 08  0230    53621    9000      0    4.17e+01    0    1.12e+01
2005 09 08  0235    53621    9300      0    4.30e+01    0    1.14e+01
2005 09 08  0240    53621    9600      0    4.40e+01    0    1.19e+01
2005 09 08  0245    53621    9900      0    4.43e+01    0    1.21e+01
2005 09 08  0250    53621   10200      0    4.48e+01    0    1.22e+01
2005 09 08  0255    53621   10500      0    4.60e+01    0    1.26e+01
2005 09 08  0300    53621   10800      0    4.80e+01    0    1.32e+01
2005 09 08  0305    53621   11100      0    4.92e+01    0    1.31e+01
2005 09 08  0310    53621   11400      0    4.94e+01    0    1.32e+01
2005 09 08  0315    53621   11700      0    5.13e+01    0    1.40e+01
2005 09 08  0320    53621   12000      0    5.18e+01    0    1.41e+01
2005 09 08  0325    53621   12300      0    4.94e+01    0    1.40e+01
2005 09 08  0330    53621   12600      0    4.71e+01    0    1.44e+01
2005 09 08  0335    53621   12900      0    4.63e+01    0    1.38e+01
2005 09 08  0340    53621   13200      0    4.69e+01    0    1.43e+01
2005 09 08  0345    53621   13500      0    4.66e+01    0    1.43e+01
2005 09 08  0350    53621   13800      0    4.70e+01    0    1.39e+01
2005 09 08  0355    53621   14100      0    4.72e+01    0    1.47e+01
2005 09 08  0400    53621   14400      0    4.87e+01    0    1.48e+01
2005 09 08  0405    53621   14700      0    5.01e+01    0    1.50e+01
2005 09 08  0410    53621   15000      0    4.97e+01    0    1.52e+01
2005 09 08  0415    53621   15300      0    4.99e+01    0    1.56e+01
2005 09 08  0420    53621   15600      0    5.11e+01    0    1.57e+01
2005 09 08  0425    53621   15900      0    5.09e+01    0    1.60e+01
2005 09 08  0430    53621   16200      0    5.08e+01    0    1.60e+01
2005 09 08  0435    53621   16500      0    4.93e+01    0    1.60e+01
2005 09 08  0440    53621   16800      0    4.82e+01    0    1.59e+01
2005 09 08  0445    53621   17100      0    4.78e+01    0    1.64e+01
2005 09 08  0450    53621   17400      0    4.91e+01    0    1.68e+01
2005 09 08  0455    53621   17700      0    5.17e+01    0    1.71e+01
2005 09 08  0500    53621   18000      0    5.50e+01    0    1.81e+01
2005 09 08  0505    53621   18300      0    5.48e+01    0    1.78e+01
2005 09 08  0510    53621   18600      0    5.35e+01    0    1.78e+01
2005 09 08  0515    53621   18900      0    5.24e+01    0    1.75e+01
2005 09 08  0520    53621   19200      0    5.22e+01    0    1.77e+01
2005 09 08  0525    53621   19500      0    5.15e+01    0    1.79e+01
2005 09 08  0530    53621   19800      0    5.01e+01    0    1.77e+01
2005 09 08  0535    53621   20100      0    5.07e+01    0    1.80e+01
2005 09 08  0540    53621   20400      0    5.24e+01    0    1.83e+01
2005 09 08  0545    53621   20700      0    5.07e+01    0    1.82e+01
2005 09 08  0550    53621   21000      0    4.80e+01    0    1.81e+01
2005 09 08  0555    53621   21300      0    4.73e+01    0    1.81e+01
2005 09 08  0600    53621   21600      0    4.57e+01    0    1.76e+01
2005 09 08  0605    53621   21900      0    4.66e+01    0    1.82e+01
2005 09 08  0610    53621   22200      0    4.69e+01    0    1.80e+01
2005 09 08  0615    53621   22500      0    4.89e+01    0    1.85e+01
2005 09 08  0620    53621   22800      0    5.11e+01    0    1.86e+01
2005 09 08  0625    53621   23100      0    5.45e+01    0    1.92e+01
2005 09 08  0630    53621   23400      0    5.88e+01    0    1.98e+01
2005 09 08  0635    53621   23700      0    5.87e+01    0    2.04e+01
2005 09 08  0640    53621   24000      0    6.14e+01    0    2.11e+01
2005 09 08  0645    53621   24300      0    5.99e+01    0    2.05e+01
2005 09 08  0650    53621   24600      0    5.76e+01    0    2.09e+01
2005 09 08  0655    53621   24900      0    5.53e+01    0    2.10e+01
2005 09 08  0700    53621   25200      0    5.03e+01    0    2.05e+01
2005 09 08  0705    53621   25500      0    5.09e+01    0    2.06e+01
2005 09 08  0710    53621   25800      0    5.21e+01    0    2.09e+01
2005 09 08  0715    53621   26100      0    5.46e+01    0    2.15e+01
2005 09 08  0720    53621   26400      0    5.66e+01    0    2.16e+01
2005 09 08  0725    53621   26700      0    5.79e+01    0    2.20e+01
2005 09 08  0730    53621   27000      0    6.06e+01    0    2.32e+01
2005 09 08  0735    53621   27300      0    6.66e+01    0    2.42e+01
2005 09 08  0740    53621   27600      0    6.98e+01    0    2.46e+01
2005 09 08  0745    53621   27900      0    6.83e+01    0    2.46e+01
2005 09 08  0750    53621   28200      0    6.87e+01    0    2.48e+01
2005 09 08  0755    53621   28500      0    6.98e+01    0    2.44e+01
2005 09 08  0800    53621   28800      0    6.99e+01    0    2.49e+01
2005 09 08  0805    53621   29100      0    7.12e+01    0    2.49e+01
2005 09 08  0810    53621   29400      0    7.33e+01    0    2.58e+01
2005 09 08  0815    53621   29700      0    7.30e+01    0    2.52e+01
2005 09 08  0820    53621   30000      0    7.44e+01    0    2.61e+01
2005 09 08  0825    53621   30300      0    7.47e+01    0    2.62e+01
2005 09 08  0830    53621   30600      0    7.41e+01    0    2.64e+01
2005 09 08  0835    53621   30900      0    7.47e+01    0    2.67e+01
2005 09 08  0840    53621   31200      0    7.45e+01    0    2.68e+01
2005 09 08  0845    53621   31500      0    7.66e+01    0    2.73e+01
2005 09 08  0850    53621   31800      0    7.55e+01    0    2.66e+01
2005 09 08  0855    53621   32100      0    7.56e+01    0    2.71e+01
2005 09 08  0900    53621   32400      0    7.54e+01    0    2.69e+01
2005 09 08  0905    53621   32700      0    7.62e+01    0    2.73e+01
2005 09 08  0910    53621   33000      0    7.68e+01    0    2.77e+01
2005 09 08  0915    53621   33300      0    7.64e+01    0    2.72e+01
2005 09 08  0920    53621   33600      0    7.80e+01    0    2.83e+01
2005 09 08  0925    53621   33900      0    7.81e+01    0    2.79e+01
2005 09 08  0930    53621   34200      0    7.76e+01    0    2.76e+01
2005 09 08  0935    53621   34500      0    7.71e+01    0    2.76e+01
2005 09 08  0940    53621   34800      0    7.81e+01    0    2.83e+01
2005 09 08  0945    53621   35100      0    7.97e+01    0    2.94e+01
2005 09 08  0950    53621   35400      0    8.10e+01    0    2.97e+01
2005 09 08  0955    53621   35700      0    8.18e+01    0    3.02e+01
2005 09 08  1000    53621   36000      0    8.22e+01    0    3.02e+01
2005 09 08  1005    53621   36300      0    8.19e+01    0    2.92e+01
2005 09 08  1010    53621   36600      0    8.39e+01    0    3.15e+01
2005 09 08  1015    53621   36900      0    8.20e+01    0    3.00e+01
2005 09 08  1020    53621   37200      0    8.33e+01    0    3.04e+01
2005 09 08  1025    53621   37500      0    8.33e+01    0    3.13e+01
2005 09 08  1030    53621   37800      0    8.37e+01    0    3.13e+01
2005 09 08  1035    53621   38100      0    8.31e+01    0    3.15e+01
2005 09 08  1040    53621   38400      0    8.36e+01    0    3.17e+01
2005 09 08  1045    53621   38700      0    8.54e+01    0    3.21e+01
2005 09 08  1050    53621   39000      0    8.40e+01    0    3.20e+01
2005 09 08  1055    53621   39300      0    8.41e+01    0    3.20e+01
2005 09 08  1100    53621   39600      0    8.47e+01    0    3.23e+01
2005 09 08  1105    53621   39900      0    8.41e+01    0    3.18e+01
2005 09 08  1110    53621   40200      0    8.44e+01    0    3.37e+01
2005 09 08  1115    53621   40500      0    8.12e+01    0    3.19e+01
2005 09 08  1120    53621   40800      0    8.09e+01    0    3.24e+01
2005 09 08  1125    53621   41100      0    8.10e+01    0    3.28e+01
2005 09 08  1130    53621   41400      0    8.10e+01    0    3.25e+01
2005 09 08  1135    53621   41700      0    7.99e+01    0    3.22e+01
2005 09 08  1140    53621   42000      0    7.94e+01    0    3.22e+01
2005 09 08  1145    53621   42300      0    8.02e+01    0    3.28e+01
2005 09 08  1150    53621   42600      0    7.75e+01    0    3.14e+01
2005 09 08  1155    53621   42900      0    7.88e+01    0    3.15e+01
2005 09 08  1200    53621   43200      0    8.00e+01    0    3.20e+01
2005 09 08  1205    53621   43500      0    8.08e+01    0    3.18e+01
2005 09 08  1210    53621   43800      0    8.40e+01    0    3.23e+01
2005 09 08  1215    53621   44100      0    8.50e+01    0    3.28e+01
2005 09 08  1220    53621   44400      0    8.64e+01    0    3.29e+01
2005 09 08  1225    53621   44700      0    8.76e+01    0    3.40e+01
2005 09 08  1230    53621   45000      0    8.64e+01    0    3.41e+01
2005 09 08  1235    53621   45300      0    8.67e+01    0    3.43e+01
2005 09 08  1240    53621   45600      0    8.64e+01    0    3.43e+01
2005 09 08  1245    53621   45900      0    8.47e+01    0    3.37e+01
2005 09 08  1250    53621   46200      0    8.57e+01    0    3.49e+01
2005 09 08  1255    53621   46500      0    8.65e+01    0    3.46e+01
2005 09 08  1300    53621   46800      0    8.68e+01    0    3.47e+01
2005 09 08  1305    53621   47100      0    8.65e+01    0    3.46e+01
2005 09 08  1310    53621   47400      0    8.81e+01    0    3.46e+01
2005 09 08  1315    53621   47700      0    8.91e+01    0    3.49e+01
2005 09 08  1320    53621   48000      0    8.60e+01    0    3.51e+01
2005 09 08  1325    53621   48300      0    8.58e+01    0    3.57e+01
2005 09 08  1330    53621   48600      0    9.14e+01    0    3.78e+01
2005 09 08  1335    53621   48900      0    9.56e+01    0    3.82e+01
2005 09 08  1340    53621   49200      0    1.00e+02    0    3.85e+01
2005 09 08  1345    53621   49500      0    1.04e+02    0    3.96e+01
2005 09 08  1350    53621   49800      0    1.05e+02    0    3.96e+01
2005 09 08  1355    53621   50100      0    1.00e+02    0    3.91e+01
2005 09 08  1400    53621   50400      0    9.66e+01    0    3.85e+01
2005 09 08  1405    53621   50700      0    9.45e+01    0    3.88e+01
2005 09 08  1410    53621   51000      0    9.58e+01    0    3.81e+01
2005 09 08  1415    53621   51300      0    9.58e+01    0    3.78e+01
2005 09 08  1420    53621   51600      0    9.14e+01    0    3.68e+01
2005 09 08  1425    53621   51900      0    8.59e+01    0    3.64e+01
2005 09 08  1430    53621   52200      0    8.14e+01    0    3.49e+01
2005 09 08  1435    53621   52500      0    7.92e+01    0    3.45e+01
2005 09 08  1440    53621   52800      0    8.21e+01    0    3.64e+01
2005 09 08  1445    53621   53100      0    8.81e+01    0    3.74e+01
2005 09 08  1450    53621   53400      0    9.39e+01    0    3.72e+01
2005 09 08  1455    53621   53700      0    9.42e+01    0    3.82e+01
2005 09 08  1500    53621   54000      0    9.35e+01    0    3.86e+01
2005 09 08  1505    53621   54300      0    9.83e+01    0    3.83e+01
2005 09 08  1510    53621   54600      0    9.61e+01    0    3.72e+01
2005 09 08  1515    53621   54900      0    8.72e+01    0    3.54e+01
2005 09 08  1520    53621   55200      0    8.58e+01    0    3.42e+01
2005 09 08  1525    53621   55500      0    8.52e+01    0    3.42e+01
2005 09 08  1530    53621   55800      0    8.32e+01    0    3.58e+01
2005 09 08  1535    53621   56100      0    8.59e+01    0    3.89e+01
2005 09 08  1540    53621   56400      0    9.36e+01    0    4.30e+01
2005 09 08  1545    53621   56700      0    1.16e+02    0    5.16e+01
2005 09 08  1550    53621   57000      0    1.26e+02    0    5.56e+01
2005 09 08  1555    53621   57300      0    1.29e+02    0    5.61e+01
2005 09 08  1600    53621   57600      0    1.24e+02    0    5.54e+01
2005 09 08  1605    53621   57900      0    1.22e+02    0    5.64e+01
2005 09 08  1610    53621   58200      0    1.23e+02    0    5.70e+01
2005 09 08  1615    53621   58500      0    1.26e+02    0    5.72e+01
2005 09 08  1620    53621   58800      0    1.28e+02    0    5.81e+01
2005 09 08  1625    53621   59100      0    1.28e+02    0    5.97e+01
2005 09 08  1630    53621   59400      0    1.27e+02    0    5.97e+01
2005 09 08  1635    53621   59700      0    1.27e+02    0    6.00e+01
2005 09 08  1640    53621   60000      0    1.42e+02    0    6.63e+01
2005 09 08  1645    53621   60300      0    1.53e+02    0    7.22e+01
2005 09 08  1650    53621   60600      0    1.53e+02    0    7.44e+01
2005 09 08  1655    53621   60900      0    1.51e+02    0    7.82e+01
2005 09 08  1700    53621   61200      0    1.59e+02    0    7.66e+01
2005 09 08  1705    53621   61500      0    1.75e+02    0    8.38e+01
2005 09 08  1710    53621   61800      0    1.65e+02    0    8.10e+01
2005 09 08  1715    53621   62100      0    1.61e+02    0    7.89e+01
2005 09 08  1720    53621   62400      0    1.64e+02    0    7.96e+01
2005 09 08  1725    53621   62700      0    1.65e+02    0    8.03e+01
2005 09 08  1730    53621   63000      0    1.69e+02    0    8.09e+01
2005 09 08  1735    53621   63300      0    1.73e+02    0    8.00e+01
2005 09 08  1740    53621   63600      0    1.74e+02    0    8.22e+01
2005 09 08  1745    53621   63900      0    1.68e+02    0    7.96e+01
2005 09 08  1750    53621   64200      0    1.61e+02    0    7.84e+01
2005 09 08  1755    53621   64500      0    1.52e+02    0    7.38e+01
2005 09 08  1800    53621   64800      0    1.48e+02    0    7.01e+01
2005 09 08  1805    53621   65100      0    1.50e+02    0    7.11e+01
2005 09 08  1810    53621   65400      9   -1.00e+05    9   -1.00e+05
2005 09 08  1815    53621   65700      9   -1.00e+05    9   -1.00e+05
2005 09 08  1820    53621   66000      9   -1.00e+05    9   -1.00e+05
2005 09 08  1825    53621   66300      0    1.21e+02    0    5.01e+01
2005 09 08  1830    53621   66600      0    1.62e+02    0    7.56e+01
2005 09 08  1835    53621   66900      0    1.72e+02    0    8.19e+01
2005 09 08  1840    53621   67200      0    1.76e+02    0    8.58e+01
2005 09 08  1845    53621   67500      0    1.73e+02    0    8.53e+01
2005 09 08  1850    53621   67800      0    1.57e+02    0    7.62e+01
2005 09 08  1855    53621   68100      0    1.57e+02    0    7.41e+01
2005 09 08  1900    53621   68400      0    1.50e+02    0    7.01e+01
2005 09 08  1905    53621   68700      0    1.42e+02    0    6.36e+01
2005 09 08  1910    53621   69000      0    1.46e+02    0    6.45e+01
2005 09 08  1915    53621   69300      0    1.61e+02    0    6.80e+01
2005 09 08  1920    53621   69600      0    1.54e+02    0    6.95e+01
2005 09 08  1925    53621   69900      0    1.43e+02    0    6.76e+01
2005 09 08  1930    53621   70200      0    1.44e+02    0    6.68e+01
2005 09 08  1935    53621   70500      0    1.49e+02    0    6.75e+01
2005 09 08  1940    53621   70800      0    1.46e+02    0    6.59e+01
2005 09 08  1945    53621   71100      0    1.41e+02    0    6.48e+01
2005 09 08  1950    53621   71400      0    1.47e+02    0    7.14e+01
2005 09 08  1955    53621   71700      0    1.71e+02    0    8.16e+01
2005 09 08  2000    53621   72000      0    2.13e+02    0    9.56e+01
2005 09 08  2005    53621   72300      0    2.83e+02    0    1.06e+02
2005 09 08  2010    53621   72600      0    3.41e+02    0    1.17e+02
2005 09 08  2015    53621   72900      0    3.35e+02    0    1.16e+02
2005 09 08  2020    53621   73200      0    3.35e+02    0    1.09e+02
2005 09 08  2025    53621   73500      0    3.40e+02    0    1.02e+02
2005 09 08  2030    53621   73800      0    3.11e+02    0    1.01e+02
2005 09 08  2035    53621   74100      0    2.34e+02    0    8.98e+01
2005 09 08  2040    53621   74400      0    2.17e+02    0    8.87e+01
2005 09 08  2045    53621   74700      0    2.26e+02    0    9.08e+01
2005 09 08  2050    53621   75000      0    2.93e+02    0    9.55e+01
2005 09 08  2055    53621   75300      0    3.35e+02    0    1.06e+02
2005 09 08  2100    53621   75600      0    3.16e+02    0    1.13e+02
2005 09 08  2105    53621   75900      0    2.51e+02    0    1.01e+02
2005 09 08  2110    53621   76200      0    2.22e+02    0    1.00e+02
2005 09 08  2115    53621   76500      0    2.84e+02    0    1.14e+02
2005 09 08  2120    53621   76800      0    3.26e+02    0    1.31e+02
2005 09 08  2125    53621   77100      0    2.86e+02    0    1.23e+02
2005 09 08  2130    53621   77400      0    2.49e+02    0    1.12e+02
2005 09 08  2135    53621   77700      0    2.47e+02    0    1.11e+02
2005 09 08  2140    53621   78000      0    2.46e+02    0    1.12e+02
2005 09 08  2145    53621   78300      0    2.58e+02    0    1.14e+02
2005 09 08  2150    53621   78600      0    2.63e+02    0    1.13e+02
2005 09 08  2155    53621   78900      0    2.44e+02    0    1.08e+02
2005 09 08  2200    53621   79200      0    2.28e+02    0    1.01e+02
2005 09 08  2205    53621   79500      0    2.01e+02    0    9.60e+01
2005 09 08  2210    53621   79800      0    1.76e+02    0    8.89e+01
2005 09 08  2215    53621   80100      9   -1.00e+05    9   -1.00e+05
2005 09 08  2220    53621   80400      9   -1.00e+05    9   -1.00e+05
2005 09 08  2225    53621   80700      0    1.61e+02    0    8.05e+01
2005 09 08  2230    53621   81000      0    1.63e+02    0    7.94e+01
2005 09 08  2235    53621   81300      0    1.93e+02    0    8.99e+01
2005 09 08  2240    53621   81600      0    2.31e+02    0    1.02e+02
2005 09 08  2245    53621   81900      0    2.41e+02    0    1.07e+02
2005 09 08  2250    53621   82200      0    2.24e+02    0    1.06e+02
2005 09 08  2255    53621   82500      0    2.00e+02    0    9.82e+01
2005 09 08  2300    53621   82800      0    1.80e+02    0    9.18e+01
2005 09 08  2305    53621   83100      0    1.62e+02    0    8.73e+01
2005 09 08  2310    53621   83400      0    1.50e+02    0    8.30e+01
2005 09 08  2315    53621   83700      0    1.45e+02    0    7.83e+01
2005 09 08  2320    53621   84000      0    1.39e+02    0    7.56e+01
2005 09 08  2325    53621   84300      0    1.31e+02    0    7.22e+01
2005 09 08  2330    53621   84600      0    1.26e+02    0    6.88e+01
2005 09 08  2335    53621   84900      0    1.24e+02    0    6.64e+01
2005 09 08  2340    53621   85200      0    1.26e+02    0    6.66e+01
2005 09 08  2345    53621   85500      0    1.28e+02    0    6.70e+01
2005 09 08  2350    53621   85800      0    1.27e+02    0    6.56e+01
2005 09 08  2355    53621   86100      0    1.32e+02    0    6.69e+01
