:Data_list: 20051214_ace_sis_5m.txt
:Created: 2005 Dec 15 0011 UT
# Prepared by the U.S. Dept. of Commerce, NOAA, Space Environment Center.
# Please send comments and suggestions to SEC.Webmaster@noaa.gov 
# 
# Units: proton flux p/cs2-sec-ster
# Status(S): 0 = nominal data, 1 to 8 = bad data record, 9 = no data
# Missing data values: -1.00e+05
# Source: ACE Satellite - Solar Isotope Spectrometer
#
# 5-minute averaged Real-time Integral Flux of High-energy Solar Protons
# 
#                 Modified Seconds
# UT Date   Time   Julian  of the      ---- Integral Proton Flux ----
# YR MO DA  HHMM     Day     Day       S    > 10 MeV    S    > 30 MeV
#--------------------------------------------------------------------
2005 12 14  0000    53718       0      0    1.36e+00    0    9.49e-01
2005 12 14  0005    53718     300      0    1.36e+00    0    9.58e-01
2005 12 14  0010    53718     600      0    1.39e+00    0    9.87e-01
2005 12 14  0015    53718     900      0    1.37e+00    0    9.57e-01
2005 12 14  0020    53718    1200      0    1.39e+00    0    9.79e-01
2005 12 14  0025    53718    1500      0    1.40e+00    0    9.87e-01
2005 12 14  0030    53718    1800      0    1.38e+00    0    9.76e-01
2005 12 14  0035    53718    2100      0    1.38e+00    0    9.70e-01
2005 12 14  0040    53718    2400      0    1.39e+00    0    9.74e-01
2005 12 14  0045    53718    2700      0    1.35e+00    0    9.52e-01
2005 12 14  0050    53718    3000      0    1.37e+00    0    9.69e-01
2005 12 14  0055    53718    3300      0    1.36e+00    0    9.56e-01
2005 12 14  0100    53718    3600      0    1.37e+00    0    9.63e-01
2005 12 14  0105    53718    3900      0    1.39e+00    0    9.72e-01
2005 12 14  0110    53718    4200      0    1.38e+00    0    9.83e-01
2005 12 14  0115    53718    4500      0    1.38e+00    0    9.65e-01
2005 12 14  0120    53718    4800      0    1.38e+00    0    9.66e-01
2005 12 14  0125    53718    5100      0    1.38e+00    0    9.63e-01
2005 12 14  0130    53718    5400      0    1.36e+00    0    9.52e-01
2005 12 14  0135    53718    5700      0    1.36e+00    0    9.54e-01
2005 12 14  0140    53718    6000      0    1.41e+00    0    9.94e-01
2005 12 14  0145    53718    6300      0    1.37e+00    0    9.72e-01
2005 12 14  0150    53718    6600      0    1.39e+00    0    9.77e-01
2005 12 14  0155    53718    6900      0    1.42e+00    0    9.95e-01
2005 12 14  0200    53718    7200      0    1.35e+00    0    9.47e-01
2005 12 14  0205    53718    7500      0    1.41e+00    0    9.93e-01
2005 12 14  0210    53718    7800      0    1.37e+00    0    9.77e-01
2005 12 14  0215    53718    8100      0    1.38e+00    0    9.78e-01
2005 12 14  0220    53718    8400      0    1.35e+00    0    9.42e-01
2005 12 14  0225    53718    8700      0    1.42e+00    0    9.94e-01
2005 12 14  0230    53718    9000      0    1.37e+00    0    9.57e-01
2005 12 14  0235    53718    9300      0    1.36e+00    0    9.57e-01
2005 12 14  0240    53718    9600      0    1.39e+00    0    9.57e-01
2005 12 14  0245    53718    9900      0    1.37e+00    0    9.72e-01
2005 12 14  0250    53718   10200      0    1.40e+00    0    9.80e-01
2005 12 14  0255    53718   10500      0    1.39e+00    0    9.81e-01
2005 12 14  0300    53718   10800      0    1.38e+00    0    9.73e-01
2005 12 14  0305    53718   11100      0    1.40e+00    0    9.84e-01
2005 12 14  0310    53718   11400      0    1.36e+00    0    9.60e-01
2005 12 14  0315    53718   11700      0    1.37e+00    0    9.55e-01
2005 12 14  0320    53718   12000      0    1.37e+00    0    9.42e-01
2005 12 14  0325    53718   12300      0    1.36e+00    0    9.59e-01
2005 12 14  0330    53718   12600      0    1.39e+00    0    9.75e-01
2005 12 14  0335    53718   12900      0    1.39e+00    0    9.68e-01
2005 12 14  0340    53718   13200      0    1.38e+00    0    9.68e-01
2005 12 14  0345    53718   13500      0    1.39e+00    0    9.74e-01
2005 12 14  0350    53718   13800      0    1.34e+00    0    9.31e-01
2005 12 14  0355    53718   14100      0    1.42e+00    0    9.99e-01
2005 12 14  0400    53718   14400      0    1.39e+00    0    9.86e-01
2005 12 14  0405    53718   14700      0    1.40e+00    0    9.83e-01
2005 12 14  0410    53718   15000      0    1.36e+00    0    9.58e-01
2005 12 14  0415    53718   15300      0    1.40e+00    0    9.86e-01
2005 12 14  0420    53718   15600      0    1.40e+00    0    9.73e-01
2005 12 14  0425    53718   15900      0    1.42e+00    0    9.94e-01
2005 12 14  0430    53718   16200      0    1.36e+00    0    9.53e-01
2005 12 14  0435    53718   16500      0    1.39e+00    0    9.72e-01
2005 12 14  0440    53718   16800      0    1.37e+00    0    9.69e-01
2005 12 14  0445    53718   17100      0    1.38e+00    0    9.67e-01
2005 12 14  0450    53718   17400      0    1.38e+00    0    9.68e-01
2005 12 14  0455    53718   17700      0    1.41e+00    0    9.91e-01
2005 12 14  0500    53718   18000      0    1.39e+00    0    9.77e-01
2005 12 14  0505    53718   18300      0    1.38e+00    0    9.61e-01
2005 12 14  0510    53718   18600      0    1.40e+00    0    9.90e-01
2005 12 14  0515    53718   18900      0    1.39e+00    0    9.80e-01
2005 12 14  0520    53718   19200      0    1.39e+00    0    9.76e-01
2005 12 14  0525    53718   19500      0    1.37e+00    0    9.43e-01
2005 12 14  0530    53718   19800      0    1.38e+00    0    9.71e-01
2005 12 14  0535    53718   20100      0    1.41e+00    0    9.86e-01
2005 12 14  0540    53718   20400      0    1.40e+00    0    9.87e-01
2005 12 14  0545    53718   20700      0    1.40e+00    0    9.91e-01
2005 12 14  0550    53718   21000      0    1.39e+00    0    9.80e-01
2005 12 14  0555    53718   21300      0    1.40e+00    0    9.84e-01
2005 12 14  0600    53718   21600      0    1.37e+00    0    9.60e-01
2005 12 14  0605    53718   21900      0    1.39e+00    0    9.71e-01
2005 12 14  0610    53718   22200      0    1.36e+00    0    9.64e-01
2005 12 14  0615    53718   22500      0    1.42e+00    0    1.00e+00
2005 12 14  0620    53718   22800      0    1.39e+00    0    9.83e-01
2005 12 14  0625    53718   23100      0    1.39e+00    0    9.70e-01
2005 12 14  0630    53718   23400      0    1.40e+00    0    9.89e-01
2005 12 14  0635    53718   23700      0    1.38e+00    0    9.56e-01
2005 12 14  0640    53718   24000      0    1.36e+00    0    9.56e-01
2005 12 14  0645    53718   24300      0    1.39e+00    0    9.79e-01
2005 12 14  0650    53718   24600      0    1.37e+00    0    9.52e-01
2005 12 14  0655    53718   24900      0    1.43e+00    0    1.02e+00
2005 12 14  0700    53718   25200      0    1.45e+00    0    1.03e+00
2005 12 14  0705    53718   25500      0    1.38e+00    0    9.67e-01
2005 12 14  0710    53718   25800      0    1.41e+00    0    9.92e-01
2005 12 14  0715    53718   26100      0    1.38e+00    0    9.71e-01
2005 12 14  0720    53718   26400      0    1.37e+00    0    9.60e-01
2005 12 14  0725    53718   26700      0    1.38e+00    0    9.68e-01
2005 12 14  0730    53718   27000      0    1.38e+00    0    9.56e-01
2005 12 14  0735    53718   27300      0    1.38e+00    0    9.72e-01
2005 12 14  0740    53718   27600      0    1.40e+00    0    9.91e-01
2005 12 14  0745    53718   27900      0    1.42e+00    0    1.01e+00
2005 12 14  0750    53718   28200      0    1.41e+00    0    9.90e-01
2005 12 14  0755    53718   28500      0    1.41e+00    0    9.88e-01
2005 12 14  0800    53718   28800      0    1.41e+00    0    9.91e-01
2005 12 14  0805    53718   29100      0    1.40e+00    0    9.89e-01
2005 12 14  0810    53718   29400      0    1.38e+00    0    9.70e-01
2005 12 14  0815    53718   29700      0    1.36e+00    0    9.62e-01
2005 12 14  0820    53718   30000      0    1.40e+00    0    9.81e-01
2005 12 14  0825    53718   30300      0    1.40e+00    0    9.92e-01
2005 12 14  0830    53718   30600      0    1.38e+00    0    9.73e-01
2005 12 14  0835    53718   30900      0    1.40e+00    0    9.92e-01
2005 12 14  0840    53718   31200      0    1.41e+00    0    9.90e-01
2005 12 14  0845    53718   31500      0    1.40e+00    0    9.80e-01
2005 12 14  0850    53718   31800      0    1.40e+00    0    9.73e-01
2005 12 14  0855    53718   32100      0    1.37e+00    0    9.66e-01
2005 12 14  0900    53718   32400      0    1.39e+00    0    9.91e-01
2005 12 14  0905    53718   32700      0    1.36e+00    0    9.60e-01
2005 12 14  0910    53718   33000      0    1.38e+00    0    9.71e-01
2005 12 14  0915    53718   33300      0    1.38e+00    0    9.70e-01
2005 12 14  0920    53718   33600      0    1.38e+00    0    9.80e-01
2005 12 14  0925    53718   33900      0    1.42e+00    0    1.01e+00
2005 12 14  0930    53718   34200      0    1.37e+00    0    9.68e-01
2005 12 14  0935    53718   34500      0    1.38e+00    0    9.71e-01
2005 12 14  0940    53718   34800      0    1.40e+00    0    9.83e-01
2005 12 14  0945    53718   35100      0    1.40e+00    0    9.93e-01
2005 12 14  0950    53718   35400      0    1.37e+00    0    9.64e-01
2005 12 14  0955    53718   35700      0    1.43e+00    0    1.01e+00
2005 12 14  1000    53718   36000      0    1.39e+00    0    9.77e-01
2005 12 14  1005    53718   36300      0    1.35e+00    0    9.48e-01
2005 12 14  1010    53718   36600      0    1.41e+00    0    9.97e-01
2005 12 14  1015    53718   36900      0    1.38e+00    0    9.60e-01
2005 12 14  1020    53718   37200      0    1.37e+00    0    9.55e-01
2005 12 14  1025    53718   37500      0    1.40e+00    0    9.91e-01
2005 12 14  1030    53718   37800      0    1.38e+00    0    9.73e-01
2005 12 14  1035    53718   38100      0    1.43e+00    0    1.00e+00
2005 12 14  1040    53718   38400      0    1.36e+00    0    9.50e-01
2005 12 14  1045    53718   38700      0    1.40e+00    0    9.83e-01
2005 12 14  1050    53718   39000      0    1.37e+00    0    9.64e-01
2005 12 14  1055    53718   39300      0    1.42e+00    0    1.00e+00
2005 12 14  1100    53718   39600      0    1.36e+00    0    9.47e-01
2005 12 14  1105    53718   39900      0    1.38e+00    0    9.68e-01
2005 12 14  1110    53718   40200      0    1.38e+00    0    9.68e-01
2005 12 14  1115    53718   40500      0    1.39e+00    0    9.79e-01
2005 12 14  1120    53718   40800      0    1.37e+00    0    9.64e-01
2005 12 14  1125    53718   41100      0    1.42e+00    0    9.89e-01
2005 12 14  1130    53718   41400      0    1.39e+00    0    9.86e-01
2005 12 14  1135    53718   41700      0    1.41e+00    0    9.89e-01
2005 12 14  1140    53718   42000      0    1.38e+00    0    9.68e-01
2005 12 14  1145    53718   42300      0    1.38e+00    0    9.68e-01
2005 12 14  1150    53718   42600      0    1.37e+00    0    9.66e-01
2005 12 14  1155    53718   42900      0    1.42e+00    0    9.99e-01
2005 12 14  1200    53718   43200      0    1.41e+00    0    9.86e-01
2005 12 14  1205    53718   43500      0    1.36e+00    0    9.50e-01
2005 12 14  1210    53718   43800      0    1.38e+00    0    9.86e-01
2005 12 14  1215    53718   44100      0    1.40e+00    0    9.83e-01
2005 12 14  1220    53718   44400      0    1.39e+00    0    9.74e-01
2005 12 14  1225    53718   44700      0    1.39e+00    0    9.83e-01
2005 12 14  1230    53718   45000      0    1.41e+00    0    9.96e-01
2005 12 14  1235    53718   45300      0    1.41e+00    0    9.83e-01
2005 12 14  1240    53718   45600      0    1.38e+00    0    9.73e-01
2005 12 14  1245    53718   45900      0    1.41e+00    0    9.97e-01
2005 12 14  1250    53718   46200      0    1.40e+00    0    9.94e-01
2005 12 14  1255    53718   46500      0    1.39e+00    0    9.80e-01
2005 12 14  1300    53718   46800      0    1.39e+00    0    9.68e-01
2005 12 14  1305    53718   47100      0    1.39e+00    0    9.69e-01
2005 12 14  1310    53718   47400      0    1.37e+00    0    9.57e-01
2005 12 14  1315    53718   47700      0    1.39e+00    0    9.75e-01
2005 12 14  1320    53718   48000      0    1.38e+00    0    9.69e-01
2005 12 14  1325    53718   48300      0    1.41e+00    0    9.93e-01
2005 12 14  1330    53718   48600      0    1.41e+00    0    1.00e+00
2005 12 14  1335    53718   48900      0    1.39e+00    0    9.83e-01
2005 12 14  1340    53718   49200      0    1.39e+00    0    9.74e-01
2005 12 14  1345    53718   49500      0    1.37e+00    0    9.67e-01
2005 12 14  1350    53718   49800      0    1.42e+00    0    1.01e+00
2005 12 14  1355    53718   50100      0    1.40e+00    0    9.93e-01
2005 12 14  1400    53718   50400      0    1.41e+00    0    9.89e-01
2005 12 14  1405    53718   50700      0    1.38e+00    0    9.80e-01
2005 12 14  1410    53718   51000      0    1.40e+00    0    9.86e-01
2005 12 14  1415    53718   51300      0    1.39e+00    0    9.77e-01
2005 12 14  1420    53718   51600      0    1.42e+00    0    9.94e-01
2005 12 14  1425    53718   51900      0    1.41e+00    0    9.93e-01
2005 12 14  1430    53718   52200      0    1.40e+00    0    9.83e-01
2005 12 14  1435    53718   52500      0    1.38e+00    0    9.68e-01
2005 12 14  1440    53718   52800      0    1.42e+00    0    1.01e+00
2005 12 14  1445    53718   53100      0    1.40e+00    0    1.00e+00
2005 12 14  1450    53718   53400      0    1.37e+00    0    9.55e-01
2005 12 14  1455    53718   53700      0    1.39e+00    0    9.72e-01
2005 12 14  1500    53718   54000      0    1.39e+00    0    9.74e-01
2005 12 14  1505    53718   54300      0    1.41e+00    0    9.99e-01
2005 12 14  1510    53718   54600      0    1.38e+00    0    9.64e-01
2005 12 14  1515    53718   54900      0    1.35e+00    0    9.50e-01
2005 12 14  1520    53718   55200      0    1.31e+00    0    6.04e+00
2005 12 14  1525    53718   55500      0    3.40e+03    0    5.14e+01
2005 12 14  1530    53718   55800      0    5.70e+01    0    3.29e+01
2005 12 14  1535    53718   56100      0    5.38e+02    0    5.38e+02
2005 12 14  1540    53718   56400      0    4.10e+01    0    9.43e+00
2005 12 14  1545    53718   56700      0    8.05e+01    0    2.11e+01
2005 12 14  1550    53718   57000      0    2.46e+01    0    1.80e+01
2005 12 14  1555    53718   57300      0    6.10e+01    0    1.91e+01
2005 12 14  1600    53718   57600      0    3.42e+00    0    1.40e+01
2005 12 14  1605    53718   57900      0    4.08e+01    0    9.57e+00
2005 12 14  1610    53718   58200      0    1.65e+02    0    2.10e+01
2005 12 14  1615    53718   58500      0    3.30e+01    0    8.07e+00
2005 12 14  1620    53718   58800      0    4.08e+01    0    1.99e+01
2005 12 14  1625    53718   59100      0    4.96e+00    0    1.86e+01
2005 12 14  1630    53718   59400      0    1.68e+03    0    1.74e+01
2005 12 14  1635    53718   59700      0    5.36e+00    0    1.60e+01
2005 12 14  1640    53718   60000      0    5.47e+01    0    1.86e+01
2005 12 14  1645    53718   60300      0    2.95e+01    0    1.69e+01
2005 12 14  1650    53718   60600      0    2.45e+01    0    2.12e+01
2005 12 14  1655    53718   60900      0    4.08e+01    0    9.37e+00
2005 12 14  1700    53718   61200      0    6.14e+03    0    1.87e+01
2005 12 14  1705    53718   61500      0    2.94e+01    0    9.37e+00
2005 12 14  1710    53718   61800      0    6.13e+03    0    2.78e+01
2005 12 14  1715    53718   62100      0    5.85e+01    0    2.04e+01
2005 12 14  1720    53718   62400      0    6.16e+03    0    1.40e+01
2005 12 14  1725    53718   62700      0    1.45e+03    0    2.78e+01
2005 12 14  1730    53718   63000      0    3.10e+03    0    9.36e+00
2005 12 14  1735    53718   63300      0    5.21e+03    0    2.78e+01
2005 12 14  1740    53718   63600      0    1.67e+03    0    1.39e+01
2005 12 14  1745    53718   63900      0    2.94e+01    0    1.67e+01
2005 12 14  1750    53718   64200      0    3.47e+00    0    1.40e+01
2005 12 14  1755    53718   64500      0    2.34e+01    0    7.05e+00
2005 12 14  1800    53718   64800      0    4.96e+00    0    1.86e+01
2005 12 14  1805    53718   65100      0    2.08e+01    0    6.10e+00
2005 12 14  1810    53718   65400      0    1.38e+00    0    9.76e-01
2005 12 14  1815    53718   65700      0    1.34e+00    0    9.50e-01
2005 12 14  1820    53718   66000      9   -1.00e+05    9   -1.00e+05
2005 12 14  1825    53718   66300      0    1.39e+00    0    9.80e-01
2005 12 14  1830    53718   66600      0    1.39e+00    0    9.83e-01
2005 12 14  1835    53718   66900      0    1.37e+00    0    9.63e-01
2005 12 14  1840    53718   67200      0    1.40e+00    0    9.86e-01
2005 12 14  1845    53718   67500      0    1.42e+00    0    1.00e+00
2005 12 14  1850    53718   67800      0    1.37e+00    0    9.61e-01
2005 12 14  1855    53718   68100      0    1.34e+00    0    9.57e-01
2005 12 14  1900    53718   68400      0    1.42e+00    0    1.00e+00
2005 12 14  1905    53718   68700      0    1.39e+00    0    9.89e-01
2005 12 14  1910    53718   69000      0    1.40e+00    0    9.90e-01
2005 12 14  1915    53718   69300      0    1.44e+00    0    1.01e+00
2005 12 14  1920    53718   69600      0    1.40e+00    0    9.77e-01
2005 12 14  1925    53718   69900      0    1.35e+00    0    9.51e-01
2005 12 14  1930    53718   70200      0    1.34e+00    0    9.29e-01
2005 12 14  1935    53718   70500      0    1.36e+00    0    9.48e-01
2005 12 14  1940    53718   70800      0    1.37e+00    0    9.58e-01
2005 12 14  1945    53718   71100      0    1.41e+00    0    9.96e-01
2005 12 14  1950    53718   71400      0    1.37e+00    0    9.62e-01
2005 12 14  1955    53718   71700      0    1.35e+00    0    9.51e-01
2005 12 14  2000    53718   72000      0    1.37e+00    0    9.56e-01
2005 12 14  2005    53718   72300      0    1.39e+00    0    9.60e-01
2005 12 14  2010    53718   72600      0    1.39e+00    0    9.82e-01
2005 12 14  2015    53718   72900      0    1.39e+00    0    9.87e-01
2005 12 14  2020    53718   73200      0    1.36e+00    0    9.56e-01
2005 12 14  2025    53718   73500      0    1.40e+00    0    9.77e-01
2005 12 14  2030    53718   73800      0    1.40e+00    0    9.63e-01
2005 12 14  2035    53718   74100      0    1.42e+00    0    9.89e-01
2005 12 14  2040    53718   74400      0    1.38e+00    0    9.69e-01
2005 12 14  2045    53718   74700      0    1.38e+00    0    9.71e-01
2005 12 14  2050    53718   75000      0    1.40e+00    0    9.74e-01
2005 12 14  2055    53718   75300      0    1.38e+00    0    9.76e-01
2005 12 14  2100    53718   75600      0    1.35e+00    0    9.47e-01
2005 12 14  2105    53718   75900      0    1.35e+00    0    9.44e-01
2005 12 14  2110    53718   76200      0    1.39e+00    0    9.80e-01
2005 12 14  2115    53718   76500      0    1.39e+00    0    9.76e-01
2005 12 14  2120    53718   76800      0    1.42e+00    0    1.00e+00
2005 12 14  2125    53718   77100      0    1.38e+00    0    9.60e-01
2005 12 14  2130    53718   77400      0    1.39e+00    0    9.79e-01
2005 12 14  2135    53718   77700      0    1.35e+00    0    9.47e-01
2005 12 14  2140    53718   78000      0    1.38e+00    0    9.58e-01
2005 12 14  2145    53718   78300      0    1.39e+00    0    9.73e-01
2005 12 14  2150    53718   78600      0    1.36e+00    0    9.58e-01
2005 12 14  2155    53718   78900      0    1.32e+00    0    9.30e-01
2005 12 14  2200    53718   79200      0    1.35e+00    0    9.41e-01
2005 12 14  2205    53718   79500      0    1.36e+00    0    9.57e-01
2005 12 14  2210    53718   79800      0    1.40e+00    0    9.87e-01
2005 12 14  2215    53718   80100      0    1.40e+00    0    9.70e-01
2005 12 14  2220    53718   80400      0    1.37e+00    0    9.68e-01
2005 12 14  2225    53718   80700      0    1.38e+00    0    9.62e-01
2005 12 14  2230    53718   81000      0    1.40e+00    0    9.89e-01
2005 12 14  2235    53718   81300      0    1.39e+00    0    9.80e-01
2005 12 14  2240    53718   81600      0    1.39e+00    0    9.74e-01
2005 12 14  2245    53718   81900      0    1.37e+00    0    9.57e-01
2005 12 14  2250    53718   82200      0    1.36e+00    0    9.64e-01
2005 12 14  2255    53718   82500      0    1.36e+00    0    9.56e-01
2005 12 14  2300    53718   82800      0    1.37e+00    0    9.61e-01
2005 12 14  2305    53718   83100      0    1.38e+00    0    9.73e-01
2005 12 14  2310    53718   83400      0    1.35e+00    0    9.47e-01
2005 12 14  2315    53718   83700      0    1.38e+00    0    9.69e-01
2005 12 14  2320    53718   84000      0    1.34e+00    0    9.38e-01
2005 12 14  2325    53718   84300      0    1.42e+00    0    1.00e+00
2005 12 14  2330    53718   84600      0    1.40e+00    0    9.79e-01
2005 12 14  2335    53718   84900      0    1.39e+00    0    9.84e-01
2005 12 14  2340    53718   85200      0    1.40e+00    0    9.88e-01
2005 12 14  2345    53718   85500      0    1.41e+00    0    9.93e-01
2005 12 14  2350    53718   85800      0    1.38e+00    0    9.64e-01
2005 12 14  2355    53718   86100      0    1.41e+00    0    9.89e-01
