:Data_list: 20050928_ace_sis_5m.txt
:Created: 2005 Sep 29 0011 UT
# Prepared by the U.S. Dept. of Commerce, NOAA, Space Environment Center.
# Please send comments and suggestions to SEC.Webmaster@noaa.gov 
# 
# Units: proton flux p/cs2-sec-ster
# Status(S): 0 = nominal data, 1 to 8 = bad data record, 9 = no data
# Missing data values: -1.00e+05
# Source: ACE Satellite - Solar Isotope Spectrometer
#
# 5-minute averaged Real-time Integral Flux of High-energy Solar Protons
# 
#                 Modified Seconds
# UT Date   Time   Julian  of the      ---- Integral Proton Flux ----
# YR MO DA  HHMM     Day     Day       S    > 10 MeV    S    > 30 MeV
#--------------------------------------------------------------------
2005 09 28  0000    53641       0      0    1.26e+00    0    8.42e-01
2005 09 28  0005    53641     300      0    1.24e+00    0    8.26e-01
2005 09 28  0010    53641     600      0    1.25e+00    0    8.48e-01
2005 09 28  0015    53641     900      0    1.24e+00    0    8.29e-01
2005 09 28  0020    53641    1200      0    1.27e+00    0    8.46e-01
2005 09 28  0025    53641    1500      0    1.24e+00    0    8.29e-01
2005 09 28  0030    53641    1800      0    1.21e+00    0    8.18e-01
2005 09 28  0035    53641    2100      0    1.26e+00    0    8.45e-01
2005 09 28  0040    53641    2400      0    1.24e+00    0    8.29e-01
2005 09 28  0045    53641    2700      0    1.22e+00    0    8.14e-01
2005 09 28  0050    53641    3000      0    1.25e+00    0    8.27e-01
2005 09 28  0055    53641    3300      0    1.23e+00    0    8.19e-01
2005 09 28  0100    53641    3600      0    1.24e+00    0    8.36e-01
2005 09 28  0105    53641    3900      0    1.25e+00    0    8.30e-01
2005 09 28  0110    53641    4200      0    1.24e+00    0    8.33e-01
2005 09 28  0115    53641    4500      0    1.26e+00    0    8.45e-01
2005 09 28  0120    53641    4800      0    1.25e+00    0    8.22e-01
2005 09 28  0125    53641    5100      0    1.25e+00    0    8.42e-01
2005 09 28  0130    53641    5400      0    1.22e+00    0    8.19e-01
2005 09 28  0135    53641    5700      0    1.22e+00    0    8.11e-01
2005 09 28  0140    53641    6000      0    1.26e+00    0    8.43e-01
2005 09 28  0145    53641    6300      0    1.26e+00    0    8.37e-01
2005 09 28  0150    53641    6600      0    1.24e+00    0    8.34e-01
2005 09 28  0155    53641    6900      0    1.24e+00    0    8.30e-01
2005 09 28  0200    53641    7200      0    1.24e+00    0    8.33e-01
2005 09 28  0205    53641    7500      0    1.23e+00    0    8.24e-01
2005 09 28  0210    53641    7800      0    1.21e+00    0    8.12e-01
2005 09 28  0215    53641    8100      0    1.25e+00    0    8.41e-01
2005 09 28  0220    53641    8400      0    1.23e+00    0    8.24e-01
2005 09 28  0225    53641    8700      0    1.27e+00    0    8.32e-01
2005 09 28  0230    53641    9000      0    1.25e+00    0    8.34e-01
2005 09 28  0235    53641    9300      0    1.29e+00    0    8.64e-01
2005 09 28  0240    53641    9600      0    1.20e+00    0    8.07e-01
2005 09 28  0245    53641    9900      0    1.27e+00    0    8.50e-01
2005 09 28  0250    53641   10200      0    1.28e+00    0    8.63e-01
2005 09 28  0255    53641   10500      0    1.26e+00    0    8.43e-01
2005 09 28  0300    53641   10800      0    1.25e+00    0    8.29e-01
2005 09 28  0305    53641   11100      0    1.25e+00    0    8.38e-01
2005 09 28  0310    53641   11400      0    1.26e+00    0    8.52e-01
2005 09 28  0315    53641   11700      0    1.23e+00    0    8.25e-01
2005 09 28  0320    53641   12000      0    1.26e+00    0    8.48e-01
2005 09 28  0325    53641   12300      0    1.26e+00    0    8.44e-01
2005 09 28  0330    53641   12600      0    1.23e+00    0    8.22e-01
2005 09 28  0335    53641   12900      0    1.24e+00    0    8.30e-01
2005 09 28  0340    53641   13200      0    1.22e+00    0    8.12e-01
2005 09 28  0345    53641   13500      0    1.27e+00    0    8.37e-01
2005 09 28  0350    53641   13800      0    1.24e+00    0    8.44e-01
2005 09 28  0355    53641   14100      0    1.24e+00    0    8.19e-01
2005 09 28  0400    53641   14400      0    1.26e+00    0    8.41e-01
2005 09 28  0405    53641   14700      0    1.22e+00    0    8.18e-01
2005 09 28  0410    53641   15000      0    1.26e+00    0    8.47e-01
2005 09 28  0415    53641   15300      0    1.21e+00    0    8.00e-01
2005 09 28  0420    53641   15600      0    1.26e+00    0    8.41e-01
2005 09 28  0425    53641   15900      0    1.23e+00    0    8.22e-01
2005 09 28  0430    53641   16200      0    1.22e+00    0    8.11e-01
2005 09 28  0435    53641   16500      0    1.25e+00    0    8.22e-01
2005 09 28  0440    53641   16800      0    1.24e+00    0    8.31e-01
2005 09 28  0445    53641   17100      0    1.27e+00    0    8.58e-01
2005 09 28  0450    53641   17400      0    1.27e+00    0    8.51e-01
2005 09 28  0455    53641   17700      0    1.28e+00    0    8.51e-01
2005 09 28  0500    53641   18000      0    1.24e+00    0    8.34e-01
2005 09 28  0505    53641   18300      0    1.25e+00    0    8.32e-01
2005 09 28  0510    53641   18600      0    1.24e+00    0    8.44e-01
2005 09 28  0515    53641   18900      0    1.25e+00    0    8.32e-01
2005 09 28  0520    53641   19200      0    1.28e+00    0    8.56e-01
2005 09 28  0525    53641   19500      0    1.25e+00    0    8.33e-01
2005 09 28  0530    53641   19800      0    1.24e+00    0    8.33e-01
2005 09 28  0535    53641   20100      0    1.22e+00    0    8.17e-01
2005 09 28  0540    53641   20400      0    1.23e+00    0    8.26e-01
2005 09 28  0545    53641   20700      0    1.24e+00    0    8.24e-01
2005 09 28  0550    53641   21000      0    1.22e+00    0    8.24e-01
2005 09 28  0555    53641   21300      0    1.25e+00    0    8.49e-01
2005 09 28  0600    53641   21600      0    1.24e+00    0    8.21e-01
2005 09 28  0605    53641   21900      0    1.22e+00    0    8.14e-01
2005 09 28  0610    53641   22200      0    1.26e+00    0    8.54e-01
2005 09 28  0615    53641   22500      0    1.25e+00    0    8.32e-01
2005 09 28  0620    53641   22800      0    1.26e+00    0    8.36e-01
2005 09 28  0625    53641   23100      0    1.22e+00    0    8.12e-01
2005 09 28  0630    53641   23400      0    1.22e+00    0    8.20e-01
2005 09 28  0635    53641   23700      0    1.25e+00    0    8.35e-01
2005 09 28  0640    53641   24000      0    1.24e+00    0    8.22e-01
2005 09 28  0645    53641   24300      0    1.26e+00    0    8.39e-01
2005 09 28  0650    53641   24600      0    1.24e+00    0    8.24e-01
2005 09 28  0655    53641   24900      0    1.23e+00    0    8.14e-01
2005 09 28  0700    53641   25200      0    1.26e+00    0    8.37e-01
2005 09 28  0705    53641   25500      0    1.23e+00    0    8.31e-01
2005 09 28  0710    53641   25800      0    1.26e+00    0    8.47e-01
2005 09 28  0715    53641   26100      0    1.22e+00    0    8.30e-01
2005 09 28  0720    53641   26400      0    1.24e+00    0    8.24e-01
2005 09 28  0725    53641   26700      0    1.24e+00    0    8.29e-01
2005 09 28  0730    53641   27000      0    1.26e+00    0    8.47e-01
2005 09 28  0735    53641   27300      0    1.26e+00    0    8.43e-01
2005 09 28  0740    53641   27600      0    1.25e+00    0    8.34e-01
2005 09 28  0745    53641   27900      0    1.31e+00    0    8.69e-01
2005 09 28  0750    53641   28200      0    1.27e+00    0    8.50e-01
2005 09 28  0755    53641   28500      0    1.25e+00    0    8.41e-01
2005 09 28  0800    53641   28800      0    1.25e+00    0    8.36e-01
2005 09 28  0805    53641   29100      0    1.24e+00    0    8.22e-01
2005 09 28  0810    53641   29400      0    1.24e+00    0    8.32e-01
2005 09 28  0815    53641   29700      0    1.26e+00    0    8.37e-01
2005 09 28  0820    53641   30000      0    1.27e+00    0    8.46e-01
2005 09 28  0825    53641   30300      0    1.25e+00    0    8.40e-01
2005 09 28  0830    53641   30600      0    1.23e+00    0    8.18e-01
2005 09 28  0835    53641   30900      0    1.22e+00    0    8.14e-01
2005 09 28  0840    53641   31200      0    1.21e+00    0    8.09e-01
2005 09 28  0845    53641   31500      0    1.22e+00    0    8.17e-01
2005 09 28  0850    53641   31800      0    1.22e+00    0    8.10e-01
2005 09 28  0855    53641   32100      0    1.26e+00    0    8.42e-01
2005 09 28  0900    53641   32400      0    1.25e+00    0    8.35e-01
2005 09 28  0905    53641   32700      0    1.24e+00    0    8.20e-01
2005 09 28  0910    53641   33000      0    1.27e+00    0    8.56e-01
2005 09 28  0915    53641   33300      0    1.25e+00    0    8.42e-01
2005 09 28  0920    53641   33600      0    1.24e+00    0    8.27e-01
2005 09 28  0925    53641   33900      0    1.22e+00    0    8.18e-01
2005 09 28  0930    53641   34200      0    1.25e+00    0    8.48e-01
2005 09 28  0935    53641   34500      0    1.26e+00    0    8.34e-01
2005 09 28  0940    53641   34800      0    1.23e+00    0    8.23e-01
2005 09 28  0945    53641   35100      0    1.24e+00    0    8.31e-01
2005 09 28  0950    53641   35400      0    1.26e+00    0    8.36e-01
2005 09 28  0955    53641   35700      0    1.25e+00    0    8.36e-01
2005 09 28  1000    53641   36000      0    1.27e+00    0    8.33e-01
2005 09 28  1005    53641   36300      0    1.24e+00    0    8.32e-01
2005 09 28  1010    53641   36600      0    1.24e+00    0    8.24e-01
2005 09 28  1015    53641   36900      0    1.25e+00    0    8.24e-01
2005 09 28  1020    53641   37200      0    1.23e+00    0    8.24e-01
2005 09 28  1025    53641   37500      0    1.27e+00    0    8.49e-01
2005 09 28  1030    53641   37800      0    1.26e+00    0    8.43e-01
2005 09 28  1035    53641   38100      0    1.24e+00    0    8.39e-01
2005 09 28  1040    53641   38400      0    1.24e+00    0    8.26e-01
2005 09 28  1045    53641   38700      0    1.25e+00    0    8.36e-01
2005 09 28  1050    53641   39000      0    1.26e+00    0    8.39e-01
2005 09 28  1055    53641   39300      0    1.21e+00    0    8.06e-01
2005 09 28  1100    53641   39600      0    1.24e+00    0    8.26e-01
2005 09 28  1105    53641   39900      0    1.25e+00    0    8.33e-01
2005 09 28  1110    53641   40200      0    1.24e+00    0    8.26e-01
2005 09 28  1115    53641   40500      0    1.25e+00    0    8.40e-01
2005 09 28  1120    53641   40800      0    1.24e+00    0    8.38e-01
2005 09 28  1125    53641   41100      0    1.19e+00    0    7.84e-01
2005 09 28  1130    53641   41400      0    1.24e+00    0    8.35e-01
2005 09 28  1135    53641   41700      0    1.25e+00    0    8.40e-01
2005 09 28  1140    53641   42000      0    1.27e+00    0    8.50e-01
2005 09 28  1145    53641   42300      0    1.24e+00    0    8.37e-01
2005 09 28  1150    53641   42600      0    1.26e+00    0    8.38e-01
2005 09 28  1155    53641   42900      0    1.23e+00    0    8.27e-01
2005 09 28  1200    53641   43200      0    1.25e+00    0    8.41e-01
2005 09 28  1205    53641   43500      0    1.25e+00    0    8.41e-01
2005 09 28  1210    53641   43800      0    1.27e+00    0    8.40e-01
2005 09 28  1215    53641   44100      0    1.25e+00    0    8.34e-01
2005 09 28  1220    53641   44400      0    1.24e+00    0    8.27e-01
2005 09 28  1225    53641   44700      0    1.25e+00    0    8.34e-01
2005 09 28  1230    53641   45000      0    1.27e+00    0    8.49e-01
2005 09 28  1235    53641   45300      0    1.25e+00    0    8.25e-01
2005 09 28  1240    53641   45600      0    1.24e+00    0    8.36e-01
2005 09 28  1245    53641   45900      0    1.23e+00    0    8.11e-01
2005 09 28  1250    53641   46200      0    1.23e+00    0    8.21e-01
2005 09 28  1255    53641   46500      0    1.23e+00    0    8.23e-01
2005 09 28  1300    53641   46800      0    1.25e+00    0    8.28e-01
2005 09 28  1305    53641   47100      0    1.27e+00    0    8.45e-01
2005 09 28  1310    53641   47400      0    1.27e+00    0    8.60e-01
2005 09 28  1315    53641   47700      0    1.24e+00    0    8.22e-01
2005 09 28  1320    53641   48000      0    1.24e+00    0    8.23e-01
2005 09 28  1325    53641   48300      0    1.26e+00    0    8.49e-01
2005 09 28  1330    53641   48600      0    1.25e+00    0    8.38e-01
2005 09 28  1335    53641   48900      0    1.21e+00    0    8.04e-01
2005 09 28  1340    53641   49200      0    1.26e+00    0    8.27e-01
2005 09 28  1345    53641   49500      0    1.22e+00    0    8.14e-01
2005 09 28  1350    53641   49800      0    1.23e+00    0    8.20e-01
2005 09 28  1355    53641   50100      0    1.22e+00    0    8.03e-01
2005 09 28  1400    53641   50400      0    1.24e+00    0    8.24e-01
2005 09 28  1405    53641   50700      0    1.23e+00    0    8.11e-01
2005 09 28  1410    53641   51000      0    1.28e+00    0    8.54e-01
2005 09 28  1415    53641   51300      0    1.26e+00    0    8.39e-01
2005 09 28  1420    53641   51600      0    1.26e+00    0    8.44e-01
2005 09 28  1425    53641   51900      0    1.25e+00    0    8.39e-01
2005 09 28  1430    53641   52200      0    1.23e+00    0    8.22e-01
2005 09 28  1435    53641   52500      0    1.25e+00    0    8.51e-01
2005 09 28  1440    53641   52800      0    1.26e+00    0    8.32e-01
2005 09 28  1445    53641   53100      0    1.24e+00    0    8.27e-01
2005 09 28  1450    53641   53400      0    1.25e+00    0    8.39e-01
2005 09 28  1455    53641   53700      0    1.26e+00    0    8.40e-01
2005 09 28  1500    53641   54000      0    1.25e+00    0    8.44e-01
2005 09 28  1505    53641   54300      0    1.24e+00    0    8.21e-01
2005 09 28  1510    53641   54600      0    1.26e+00    0    8.34e-01
2005 09 28  1515    53641   54900      0    1.27e+00    0    8.54e-01
2005 09 28  1520    53641   55200      0    1.24e+00    0    8.31e-01
2005 09 28  1525    53641   55500      0    1.26e+00    0    8.37e-01
2005 09 28  1530    53641   55800      0    1.21e+00    0    8.04e-01
2005 09 28  1535    53641   56100      0    1.25e+00    0    8.31e-01
2005 09 28  1540    53641   56400      0    1.22e+00    0    8.10e-01
2005 09 28  1545    53641   56700      0    1.22e+00    0    8.18e-01
2005 09 28  1550    53641   57000      0    1.24e+00    0    8.27e-01
2005 09 28  1555    53641   57300      0    1.23e+00    0    8.16e-01
2005 09 28  1600    53641   57600      0    1.23e+00    0    8.17e-01
2005 09 28  1605    53641   57900      0    1.23e+00    0    8.11e-01
2005 09 28  1610    53641   58200      0    1.25e+00    0    8.40e-01
2005 09 28  1615    53641   58500      0    1.24e+00    0    8.18e-01
2005 09 28  1620    53641   58800      0    1.25e+00    0    8.26e-01
2005 09 28  1625    53641   59100      0    1.24e+00    0    8.24e-01
2005 09 28  1630    53641   59400      0    1.24e+00    0    8.27e-01
2005 09 28  1635    53641   59700      0    1.25e+00    0    8.27e-01
2005 09 28  1640    53641   60000      0    1.23e+00    0    8.26e-01
2005 09 28  1645    53641   60300      0    1.25e+00    0    8.37e-01
2005 09 28  1650    53641   60600      0    1.28e+00    0    8.50e-01
2005 09 28  1655    53641   60900      0    1.24e+00    0    8.26e-01
2005 09 28  1700    53641   61200      0    1.25e+00    0    8.30e-01
2005 09 28  1705    53641   61500      0    1.25e+00    0    8.39e-01
2005 09 28  1710    53641   61800      0    1.28e+00    0    8.53e-01
2005 09 28  1715    53641   62100      0    1.23e+00    0    8.10e-01
2005 09 28  1720    53641   62400      0    1.23e+00    0    8.28e-01
2005 09 28  1725    53641   62700      0    1.26e+00    0    8.42e-01
2005 09 28  1730    53641   63000      0    1.24e+00    0    8.24e-01
2005 09 28  1735    53641   63300      0    1.23e+00    0    8.17e-01
2005 09 28  1740    53641   63600      0    1.25e+00    0    8.30e-01
2005 09 28  1745    53641   63900      0    1.24e+00    0    8.32e-01
2005 09 28  1750    53641   64200      0    1.24e+00    0    8.27e-01
2005 09 28  1755    53641   64500      0    1.25e+00    0    8.31e-01
2005 09 28  1800    53641   64800      0    1.25e+00    0    8.35e-01
2005 09 28  1805    53641   65100      0    1.25e+00    0    8.24e-01
2005 09 28  1810    53641   65400      0    1.27e+00    0    8.53e-01
2005 09 28  1815    53641   65700      0    1.23e+00    0    8.30e-01
2005 09 28  1820    53641   66000      0    1.27e+00    0    8.56e-01
2005 09 28  1825    53641   66300      0    1.27e+00    0    8.52e-01
2005 09 28  1830    53641   66600      0    1.25e+00    0    8.29e-01
2005 09 28  1835    53641   66900      0    1.23e+00    0    8.14e-01
2005 09 28  1840    53641   67200      0    1.25e+00    0    8.29e-01
2005 09 28  1845    53641   67500      0    1.24e+00    0    8.13e-01
2005 09 28  1850    53641   67800      0    1.30e+00    0    8.60e-01
2005 09 28  1855    53641   68100      0    1.24e+00    0    8.20e-01
2005 09 28  1900    53641   68400      0    1.26e+00    0    8.42e-01
2005 09 28  1905    53641   68700      0    1.28e+00    0    8.57e-01
2005 09 28  1910    53641   69000      0    1.27e+00    0    8.49e-01
2005 09 28  1915    53641   69300      0    1.25e+00    0    8.34e-01
2005 09 28  1920    53641   69600      0    1.29e+00    0    8.65e-01
2005 09 28  1925    53641   69900      0    1.29e+00    0    8.50e-01
2005 09 28  1930    53641   70200      0    1.28e+00    0    8.58e-01
2005 09 28  1935    53641   70500      0    1.23e+00    0    8.20e-01
2005 09 28  1940    53641   70800      0    1.26e+00    0    8.46e-01
2005 09 28  1945    53641   71100      0    1.27e+00    0    8.42e-01
2005 09 28  1950    53641   71400      0    1.23e+00    0    8.07e-01
2005 09 28  1955    53641   71700      0    1.25e+00    0    8.45e-01
2005 09 28  2000    53641   72000      0    1.25e+00    0    8.33e-01
2005 09 28  2005    53641   72300      0    1.25e+00    0    8.23e-01
2005 09 28  2010    53641   72600      0    1.27e+00    0    8.52e-01
2005 09 28  2015    53641   72900      0    1.26e+00    0    8.29e-01
2005 09 28  2020    53641   73200      0    1.25e+00    0    8.43e-01
2005 09 28  2025    53641   73500      0    1.25e+00    0    8.38e-01
2005 09 28  2030    53641   73800      0    1.27e+00    0    8.59e-01
2005 09 28  2035    53641   74100      0    1.25e+00    0    8.32e-01
2005 09 28  2040    53641   74400      0    1.27e+00    0    8.40e-01
2005 09 28  2045    53641   74700      0    1.25e+00    0    8.38e-01
2005 09 28  2050    53641   75000      0    1.23e+00    0    8.24e-01
2005 09 28  2055    53641   75300      0    1.27e+00    0    8.43e-01
2005 09 28  2100    53641   75600      0    1.26e+00    0    8.26e-01
2005 09 28  2105    53641   75900      0    1.25e+00    0    8.42e-01
2005 09 28  2110    53641   76200      0    1.25e+00    0    8.37e-01
2005 09 28  2115    53641   76500      0    1.28e+00    0    8.48e-01
2005 09 28  2120    53641   76800      0    1.29e+00    0    8.51e-01
2005 09 28  2125    53641   77100      0    1.33e+00    0    8.79e-01
2005 09 28  2130    53641   77400      0    1.27e+00    0    8.50e-01
2005 09 28  2135    53641   77700      0    1.28e+00    0    8.52e-01
2005 09 28  2140    53641   78000      0    1.25e+00    0    8.43e-01
2005 09 28  2145    53641   78300      0    1.25e+00    0    8.39e-01
2005 09 28  2150    53641   78600      0    1.26e+00    0    8.40e-01
2005 09 28  2155    53641   78900      0    1.23e+00    0    8.19e-01
2005 09 28  2200    53641   79200      0    1.26e+00    0    8.32e-01
2005 09 28  2205    53641   79500      0    1.23e+00    0    8.28e-01
2005 09 28  2210    53641   79800      0    1.24e+00    0    8.31e-01
2005 09 28  2215    53641   80100      0    1.25e+00    0    8.27e-01
2005 09 28  2220    53641   80400      0    1.27e+00    0    8.39e-01
2005 09 28  2225    53641   80700      0    1.25e+00    0    8.32e-01
2005 09 28  2230    53641   81000      0    1.26e+00    0    8.46e-01
2005 09 28  2235    53641   81300      0    1.27e+00    0    8.50e-01
2005 09 28  2240    53641   81600      0    1.24e+00    0    8.22e-01
2005 09 28  2245    53641   81900      0    1.24e+00    0    8.26e-01
2005 09 28  2250    53641   82200      0    1.26e+00    0    8.40e-01
2005 09 28  2255    53641   82500      0    1.28e+00    0    8.57e-01
2005 09 28  2300    53641   82800      0    1.25e+00    0    8.37e-01
2005 09 28  2305    53641   83100      0    1.27e+00    0    8.44e-01
2005 09 28  2310    53641   83400      0    1.25e+00    0    8.34e-01
2005 09 28  2315    53641   83700      0    1.27e+00    0    8.47e-01
2005 09 28  2320    53641   84000      0    1.27e+00    0    8.51e-01
2005 09 28  2325    53641   84300      0    1.25e+00    0    8.37e-01
2005 09 28  2330    53641   84600      0    1.24e+00    0    8.26e-01
2005 09 28  2335    53641   84900      0    1.26e+00    0    8.34e-01
2005 09 28  2340    53641   85200      0    1.30e+00    0    8.65e-01
2005 09 28  2345    53641   85500      0    1.28e+00    0    8.53e-01
2005 09 28  2350    53641   85800      0    1.24e+00    0    8.24e-01
2005 09 28  2355    53641   86100      0    1.26e+00    0    8.44e-01
