:Data_list: 20050926_ace_sis_5m.txt
:Created: 2005 Sep 27 0011 UT
# Prepared by the U.S. Dept. of Commerce, NOAA, Space Environment Center.
# Please send comments and suggestions to SEC.Webmaster@noaa.gov 
# 
# Units: proton flux p/cs2-sec-ster
# Status(S): 0 = nominal data, 1 to 8 = bad data record, 9 = no data
# Missing data values: -1.00e+05
# Source: ACE Satellite - Solar Isotope Spectrometer
#
# 5-minute averaged Real-time Integral Flux of High-energy Solar Protons
# 
#                 Modified Seconds
# UT Date   Time   Julian  of the      ---- Integral Proton Flux ----
# YR MO DA  HHMM     Day     Day       S    > 10 MeV    S    > 30 MeV
#--------------------------------------------------------------------
2005 09 26  0000    53639       0      0    1.29e+00    0    8.36e-01
2005 09 26  0005    53639     300      0    1.27e+00    0    8.32e-01
2005 09 26  0010    53639     600      0    1.27e+00    0    8.25e-01
2005 09 26  0015    53639     900      0    1.24e+00    0    8.09e-01
2005 09 26  0020    53639    1200      0    1.29e+00    0    8.38e-01
2005 09 26  0025    53639    1500      0    1.27e+00    0    8.26e-01
2005 09 26  0030    53639    1800      0    1.27e+00    0    8.16e-01
2005 09 26  0035    53639    2100      0    1.32e+00    0    8.64e-01
2005 09 26  0040    53639    2400      0    1.25e+00    0    8.10e-01
2005 09 26  0045    53639    2700      0    1.28e+00    0    8.33e-01
2005 09 26  0050    53639    3000      0    1.30e+00    0    8.59e-01
2005 09 26  0055    53639    3300      0    1.29e+00    0    8.51e-01
2005 09 26  0100    53639    3600      0    1.27e+00    0    8.18e-01
2005 09 26  0105    53639    3900      0    1.29e+00    0    8.42e-01
2005 09 26  0110    53639    4200      0    1.30e+00    0    8.40e-01
2005 09 26  0115    53639    4500      0    1.29e+00    0    8.33e-01
2005 09 26  0120    53639    4800      0    1.27e+00    0    8.30e-01
2005 09 26  0125    53639    5100      0    1.27e+00    0    8.29e-01
2005 09 26  0130    53639    5400      0    1.26e+00    0    8.21e-01
2005 09 26  0135    53639    5700      0    1.26e+00    0    8.26e-01
2005 09 26  0140    53639    6000      0    1.28e+00    0    8.40e-01
2005 09 26  0145    53639    6300      0    1.27e+00    0    8.19e-01
2005 09 26  0150    53639    6600      0    1.26e+00    0    8.27e-01
2005 09 26  0155    53639    6900      0    1.26e+00    0    8.11e-01
2005 09 26  0200    53639    7200      0    1.25e+00    0    8.15e-01
2005 09 26  0205    53639    7500      0    1.27e+00    0    8.22e-01
2005 09 26  0210    53639    7800      0    1.27e+00    0    8.35e-01
2005 09 26  0215    53639    8100      0    1.28e+00    0    8.46e-01
2005 09 26  0220    53639    8400      0    1.28e+00    0    8.41e-01
2005 09 26  0225    53639    8700      0    1.27e+00    0    8.32e-01
2005 09 26  0230    53639    9000      0    1.30e+00    0    8.50e-01
2005 09 26  0235    53639    9300      0    1.29e+00    0    8.38e-01
2005 09 26  0240    53639    9600      0    1.26e+00    0    8.19e-01
2005 09 26  0245    53639    9900      0    1.28e+00    0    8.36e-01
2005 09 26  0250    53639   10200      0    1.30e+00    0    8.49e-01
2005 09 26  0255    53639   10500      0    1.27e+00    0    8.27e-01
2005 09 26  0300    53639   10800      0    1.26e+00    0    8.18e-01
2005 09 26  0305    53639   11100      0    1.27e+00    0    8.21e-01
2005 09 26  0310    53639   11400      0    1.27e+00    0    8.22e-01
2005 09 26  0315    53639   11700      0    1.30e+00    0    8.49e-01
2005 09 26  0320    53639   12000      0    1.25e+00    0    8.17e-01
2005 09 26  0325    53639   12300      0    1.26e+00    0    8.32e-01
2005 09 26  0330    53639   12600      0    1.27e+00    0    8.21e-01
2005 09 26  0335    53639   12900      0    1.27e+00    0    8.22e-01
2005 09 26  0340    53639   13200      0    1.27e+00    0    8.33e-01
2005 09 26  0345    53639   13500      0    1.26e+00    0    8.18e-01
2005 09 26  0350    53639   13800      0    1.26e+00    0    8.34e-01
2005 09 26  0355    53639   14100      0    1.26e+00    0    8.33e-01
2005 09 26  0400    53639   14400      0    1.28e+00    0    8.40e-01
2005 09 26  0405    53639   14700      0    1.26e+00    0    8.22e-01
2005 09 26  0410    53639   15000      0    1.25e+00    0    8.17e-01
2005 09 26  0415    53639   15300      0    1.27e+00    0    8.37e-01
2005 09 26  0420    53639   15600      0    1.27e+00    0    8.36e-01
2005 09 26  0425    53639   15900      0    1.26e+00    0    8.22e-01
2005 09 26  0430    53639   16200      0    1.28e+00    0    8.32e-01
2005 09 26  0435    53639   16500      0    1.27e+00    0    8.32e-01
2005 09 26  0440    53639   16800      0    1.23e+00    0    8.04e-01
2005 09 26  0445    53639   17100      0    1.26e+00    0    8.16e-01
2005 09 26  0450    53639   17400      0    1.25e+00    0    8.18e-01
2005 09 26  0455    53639   17700      0    1.28e+00    0    8.40e-01
2005 09 26  0500    53639   18000      0    1.26e+00    0    8.21e-01
2005 09 26  0505    53639   18300      0    1.25e+00    0    8.18e-01
2005 09 26  0510    53639   18600      0    1.27e+00    0    8.17e-01
2005 09 26  0515    53639   18900      0    1.24e+00    0    8.11e-01
2005 09 26  0520    53639   19200      0    1.28e+00    0    8.35e-01
2005 09 26  0525    53639   19500      0    1.27e+00    0    8.20e-01
2005 09 26  0530    53639   19800      0    1.27e+00    0    8.28e-01
2005 09 26  0535    53639   20100      0    1.29e+00    0    8.34e-01
2005 09 26  0540    53639   20400      0    1.27e+00    0    8.13e-01
2005 09 26  0545    53639   20700      0    1.28e+00    0    8.37e-01
2005 09 26  0550    53639   21000      0    1.27e+00    0    8.28e-01
2005 09 26  0555    53639   21300      0    1.29e+00    0    8.33e-01
2005 09 26  0600    53639   21600      0    1.29e+00    0    8.44e-01
2005 09 26  0605    53639   21900      0    1.26e+00    0    8.21e-01
2005 09 26  0610    53639   22200      0    1.30e+00    0    8.52e-01
2005 09 26  0615    53639   22500      0    1.29e+00    0    8.50e-01
2005 09 26  0620    53639   22800      0    1.29e+00    0    8.42e-01
2005 09 26  0625    53639   23100      0    1.27e+00    0    8.36e-01
2005 09 26  0630    53639   23400      0    1.29e+00    0    8.41e-01
2005 09 26  0635    53639   23700      0    1.29e+00    0    8.37e-01
2005 09 26  0640    53639   24000      0    1.27e+00    0    8.17e-01
2005 09 26  0645    53639   24300      0    1.23e+00    0    7.98e-01
2005 09 26  0650    53639   24600      0    1.30e+00    0    8.51e-01
2005 09 26  0655    53639   24900      0    1.29e+00    0    8.48e-01
2005 09 26  0700    53639   25200      0    1.27e+00    0    8.26e-01
2005 09 26  0705    53639   25500      0    1.28e+00    0    8.31e-01
2005 09 26  0710    53639   25800      0    1.30e+00    0    8.63e-01
2005 09 26  0715    53639   26100      0    1.26e+00    0    8.30e-01
2005 09 26  0720    53639   26400      0    1.29e+00    0    8.37e-01
2005 09 26  0725    53639   26700      0    1.25e+00    0    8.09e-01
2005 09 26  0730    53639   27000      0    1.30e+00    0    8.54e-01
2005 09 26  0735    53639   27300      0    1.29e+00    0    8.50e-01
2005 09 26  0740    53639   27600      0    1.29e+00    0    8.33e-01
2005 09 26  0745    53639   27900      0    1.28e+00    0    8.33e-01
2005 09 26  0750    53639   28200      0    1.24e+00    0    8.01e-01
2005 09 26  0755    53639   28500      0    1.25e+00    0    8.16e-01
2005 09 26  0800    53639   28800      0    1.30e+00    0    8.56e-01
2005 09 26  0805    53639   29100      0    1.27e+00    0    8.27e-01
2005 09 26  0810    53639   29400      0    1.26e+00    0    8.11e-01
2005 09 26  0815    53639   29700      0    1.27e+00    0    8.26e-01
2005 09 26  0820    53639   30000      0    1.24e+00    0    7.98e-01
2005 09 26  0825    53639   30300      0    1.29e+00    0    8.37e-01
2005 09 26  0830    53639   30600      0    1.27e+00    0    8.41e-01
2005 09 26  0835    53639   30900      0    1.28e+00    0    8.40e-01
2005 09 26  0840    53639   31200      0    1.24e+00    0    8.09e-01
2005 09 26  0845    53639   31500      0    1.27e+00    0    8.38e-01
2005 09 26  0850    53639   31800      0    1.28e+00    0    8.49e-01
2005 09 26  0855    53639   32100      0    1.23e+00    0    8.06e-01
2005 09 26  0900    53639   32400      0    1.28e+00    0    8.47e-01
2005 09 26  0905    53639   32700      0    1.27e+00    0    8.27e-01
2005 09 26  0910    53639   33000      0    1.25e+00    0    8.27e-01
2005 09 26  0915    53639   33300      0    1.31e+00    0    8.53e-01
2005 09 26  0920    53639   33600      0    1.28e+00    0    8.31e-01
2005 09 26  0925    53639   33900      0    1.28e+00    0    8.34e-01
2005 09 26  0930    53639   34200      0    1.25e+00    0    8.22e-01
2005 09 26  0935    53639   34500      0    1.27e+00    0    8.12e-01
2005 09 26  0940    53639   34800      0    1.26e+00    0    8.22e-01
2005 09 26  0945    53639   35100      0    1.26e+00    0    8.24e-01
2005 09 26  0950    53639   35400      0    1.28e+00    0    8.34e-01
2005 09 26  0955    53639   35700      0    1.27e+00    0    8.30e-01
2005 09 26  1000    53639   36000      0    1.25e+00    0    8.17e-01
2005 09 26  1005    53639   36300      0    1.24e+00    0    8.02e-01
2005 09 26  1010    53639   36600      0    1.26e+00    0    8.18e-01
2005 09 26  1015    53639   36900      0    1.26e+00    0    8.32e-01
2005 09 26  1020    53639   37200      0    1.27e+00    0    8.29e-01
2005 09 26  1025    53639   37500      0    1.27e+00    0    8.26e-01
2005 09 26  1030    53639   37800      0    1.26e+00    0    8.07e-01
2005 09 26  1035    53639   38100      0    1.27e+00    0    8.30e-01
2005 09 26  1040    53639   38400      0    1.27e+00    0    8.34e-01
2005 09 26  1045    53639   38700      0    1.26e+00    0    8.22e-01
2005 09 26  1050    53639   39000      0    1.25e+00    0    8.20e-01
2005 09 26  1055    53639   39300      0    1.26e+00    0    8.20e-01
2005 09 26  1100    53639   39600      0    1.27e+00    0    8.27e-01
2005 09 26  1105    53639   39900      0    1.23e+00    0    8.00e-01
2005 09 26  1110    53639   40200      0    1.26e+00    0    8.13e-01
2005 09 26  1115    53639   40500      0    1.25e+00    0    8.12e-01
2005 09 26  1120    53639   40800      0    1.29e+00    0    8.46e-01
2005 09 26  1125    53639   41100      0    1.29e+00    0    8.46e-01
2005 09 26  1130    53639   41400      0    1.25e+00    0    8.28e-01
2005 09 26  1135    53639   41700      0    1.27e+00    0    8.40e-01
2005 09 26  1140    53639   42000      0    1.28e+00    0    8.52e-01
2005 09 26  1145    53639   42300      0    1.25e+00    0    8.33e-01
2005 09 26  1150    53639   42600      0    1.27e+00    0    8.41e-01
2005 09 26  1155    53639   42900      0    1.25e+00    0    8.34e-01
2005 09 26  1200    53639   43200      0    1.25e+00    0    8.21e-01
2005 09 26  1205    53639   43500      0    1.26e+00    0    8.27e-01
2005 09 26  1210    53639   43800      0    1.25e+00    0    8.18e-01
2005 09 26  1215    53639   44100      0    1.24e+00    0    8.04e-01
2005 09 26  1220    53639   44400      0    1.26e+00    0    8.26e-01
2005 09 26  1225    53639   44700      0    1.26e+00    0    8.32e-01
2005 09 26  1230    53639   45000      0    1.26e+00    0    8.34e-01
2005 09 26  1235    53639   45300      0    1.25e+00    0    8.20e-01
2005 09 26  1240    53639   45600      0    1.26e+00    0    8.29e-01
2005 09 26  1245    53639   45900      0    1.24e+00    0    8.21e-01
2005 09 26  1250    53639   46200      0    1.24e+00    0    8.08e-01
2005 09 26  1255    53639   46500      0    1.24e+00    0    8.06e-01
2005 09 26  1300    53639   46800      0    1.26e+00    0    8.22e-01
2005 09 26  1305    53639   47100      0    1.25e+00    0    8.17e-01
2005 09 26  1310    53639   47400      0    1.26e+00    0    8.29e-01
2005 09 26  1315    53639   47700      0    1.28e+00    0    8.41e-01
2005 09 26  1320    53639   48000      0    1.27e+00    0    8.32e-01
2005 09 26  1325    53639   48300      0    1.23e+00    0    8.21e-01
2005 09 26  1330    53639   48600      0    1.23e+00    0    8.05e-01
2005 09 26  1335    53639   48900      0    1.22e+00    0    8.07e-01
2005 09 26  1340    53639   49200      0    1.26e+00    0    8.37e-01
2005 09 26  1345    53639   49500      0    1.25e+00    0    8.27e-01
2005 09 26  1350    53639   49800      0    1.27e+00    0    8.30e-01
2005 09 26  1355    53639   50100      0    1.27e+00    0    8.30e-01
2005 09 26  1400    53639   50400      0    1.24e+00    0    8.13e-01
2005 09 26  1405    53639   50700      0    1.27e+00    0    8.31e-01
2005 09 26  1410    53639   51000      0    1.28e+00    0    8.37e-01
2005 09 26  1415    53639   51300      0    1.25e+00    0    8.29e-01
2005 09 26  1420    53639   51600      0    1.26e+00    0    8.26e-01
2005 09 26  1425    53639   51900      0    1.25e+00    0    8.15e-01
2005 09 26  1430    53639   52200      0    1.25e+00    0    8.22e-01
2005 09 26  1435    53639   52500      0    1.28e+00    0    8.47e-01
2005 09 26  1440    53639   52800      0    1.27e+00    0    8.34e-01
2005 09 26  1445    53639   53100      0    1.26e+00    0    8.32e-01
2005 09 26  1450    53639   53400      0    1.27e+00    0    8.47e-01
2005 09 26  1455    53639   53700      0    1.27e+00    0    8.43e-01
2005 09 26  1500    53639   54000      0    1.27e+00    0    8.39e-01
2005 09 26  1505    53639   54300      0    1.26e+00    0    8.18e-01
2005 09 26  1510    53639   54600      0    1.26e+00    0    8.30e-01
2005 09 26  1515    53639   54900      0    1.27e+00    0    8.39e-01
2005 09 26  1520    53639   55200      0    1.28e+00    0    8.43e-01
2005 09 26  1525    53639   55500      0    1.27e+00    0    8.31e-01
2005 09 26  1530    53639   55800      0    1.28e+00    0    8.30e-01
2005 09 26  1535    53639   56100      0    1.23e+00    0    8.10e-01
2005 09 26  1540    53639   56400      0    1.27e+00    0    8.26e-01
2005 09 26  1545    53639   56700      0    1.31e+00    0    8.77e-01
2005 09 26  1550    53639   57000      0    1.26e+00    0    8.32e-01
2005 09 26  1555    53639   57300      0    1.27e+00    0    8.40e-01
2005 09 26  1600    53639   57600      0    1.23e+00    0    8.09e-01
2005 09 26  1605    53639   57900      0    1.26e+00    0    8.21e-01
2005 09 26  1610    53639   58200      0    1.27e+00    0    8.34e-01
2005 09 26  1615    53639   58500      0    1.27e+00    0    8.38e-01
2005 09 26  1620    53639   58800      0    1.23e+00    0    8.09e-01
2005 09 26  1625    53639   59100      0    1.26e+00    0    8.29e-01
2005 09 26  1630    53639   59400      0    1.26e+00    0    8.30e-01
2005 09 26  1635    53639   59700      0    1.25e+00    0    8.19e-01
2005 09 26  1640    53639   60000      0    1.26e+00    0    8.37e-01
2005 09 26  1645    53639   60300      0    1.22e+00    0    8.06e-01
2005 09 26  1650    53639   60600      0    1.26e+00    0    8.27e-01
2005 09 26  1655    53639   60900      0    1.28e+00    0    8.54e-01
2005 09 26  1700    53639   61200      0    1.25e+00    0    8.19e-01
2005 09 26  1705    53639   61500      9   -1.00e+05    9   -1.00e+05
2005 09 26  1710    53639   61800      9   -1.00e+05    9   -1.00e+05
2005 09 26  1715    53639   62100      9   -1.00e+05    9   -1.00e+05
2005 09 26  1720    53639   62400      0    1.18e+00    0    6.77e-01
2005 09 26  1725    53639   62700      0    1.26e+00    0    8.18e-01
2005 09 26  1730    53639   63000      0    1.24e+00    0    8.17e-01
2005 09 26  1735    53639   63300      0    1.24e+00    0    8.11e-01
2005 09 26  1740    53639   63600      0    1.26e+00    0    8.22e-01
2005 09 26  1745    53639   63900      0    1.25e+00    0    8.24e-01
2005 09 26  1750    53639   64200      0    1.24e+00    0    8.09e-01
2005 09 26  1755    53639   64500      0    1.24e+00    0    8.17e-01
2005 09 26  1800    53639   64800      0    1.24e+00    0    8.09e-01
2005 09 26  1805    53639   65100      0    1.26e+00    0    8.29e-01
2005 09 26  1810    53639   65400      0    1.26e+00    0    8.23e-01
2005 09 26  1815    53639   65700      0    1.26e+00    0    8.28e-01
2005 09 26  1820    53639   66000      0    1.27e+00    0    8.32e-01
2005 09 26  1825    53639   66300      0    1.29e+00    0    8.51e-01
2005 09 26  1830    53639   66600      0    1.25e+00    0    8.25e-01
2005 09 26  1835    53639   66900      0    1.25e+00    0    8.13e-01
2005 09 26  1840    53639   67200      0    1.27e+00    0    8.35e-01
2005 09 26  1845    53639   67500      0    1.25e+00    0    8.16e-01
2005 09 26  1850    53639   67800      0    1.26e+00    0    8.38e-01
2005 09 26  1855    53639   68100      0    1.25e+00    0    8.17e-01
2005 09 26  1900    53639   68400      0    1.27e+00    0    8.38e-01
2005 09 26  1905    53639   68700      0    1.28e+00    0    8.39e-01
2005 09 26  1910    53639   69000      0    1.26e+00    0    8.30e-01
2005 09 26  1915    53639   69300      9   -1.00e+05    9   -1.00e+05
2005 09 26  1920    53639   69600      9   -1.00e+05    9   -1.00e+05
2005 09 26  1925    53639   69900      0    1.28e+00    0    8.40e-01
2005 09 26  1930    53639   70200      0    1.28e+00    0    8.32e-01
2005 09 26  1935    53639   70500      0    1.27e+00    0    8.34e-01
2005 09 26  1940    53639   70800      0    1.26e+00    0    8.31e-01
2005 09 26  1945    53639   71100      0    1.27e+00    0    8.36e-01
2005 09 26  1950    53639   71400      0    1.28e+00    0    8.44e-01
2005 09 26  1955    53639   71700      0    1.27e+00    0    8.49e-01
2005 09 26  2000    53639   72000      0    1.23e+00    0    8.36e-01
2005 09 26  2005    53639   72300      0    1.27e+00    0    8.42e-01
2005 09 26  2010    53639   72600      0    1.25e+00    0    8.20e-01
2005 09 26  2015    53639   72900      0    1.26e+00    0    8.24e-01
2005 09 26  2020    53639   73200      0    1.26e+00    0    8.31e-01
2005 09 26  2025    53639   73500      0    1.25e+00    0    8.27e-01
2005 09 26  2030    53639   73800      0    1.23e+00    0    8.13e-01
2005 09 26  2035    53639   74100      0    1.25e+00    0    8.17e-01
2005 09 26  2040    53639   74400      0    1.24e+00    0    8.16e-01
2005 09 26  2045    53639   74700      0    1.25e+00    0    8.26e-01
2005 09 26  2050    53639   75000      0    1.24e+00    0    8.30e-01
2005 09 26  2055    53639   75300      0    1.23e+00    0    8.16e-01
2005 09 26  2100    53639   75600      0    1.23e+00    0    8.13e-01
2005 09 26  2105    53639   75900      0    1.22e+00    0    8.05e-01
2005 09 26  2110    53639   76200      0    1.25e+00    0    8.17e-01
2005 09 26  2115    53639   76500      0    1.24e+00    0    8.18e-01
2005 09 26  2120    53639   76800      0    1.28e+00    0    8.40e-01
2005 09 26  2125    53639   77100      0    1.24e+00    0    8.19e-01
2005 09 26  2130    53639   77400      0    1.26e+00    0    8.31e-01
2005 09 26  2135    53639   77700      0    1.25e+00    0    8.30e-01
2005 09 26  2140    53639   78000      0    1.26e+00    0    8.36e-01
2005 09 26  2145    53639   78300      0    1.28e+00    0    8.52e-01
2005 09 26  2150    53639   78600      0    1.26e+00    0    8.22e-01
2005 09 26  2155    53639   78900      0    1.24e+00    0    8.18e-01
2005 09 26  2200    53639   79200      0    1.25e+00    0    8.34e-01
2005 09 26  2205    53639   79500      0    1.23e+00    0    8.10e-01
2005 09 26  2210    53639   79800      0    1.26e+00    0    8.36e-01
2005 09 26  2215    53639   80100      0    1.24e+00    0    8.16e-01
2005 09 26  2220    53639   80400      0    1.27e+00    0    8.43e-01
2005 09 26  2225    53639   80700      0    1.25e+00    0    8.33e-01
2005 09 26  2230    53639   81000      0    1.27e+00    0    8.31e-01
2005 09 26  2235    53639   81300      0    1.23e+00    0    8.01e-01
2005 09 26  2240    53639   81600      0    1.27e+00    0    8.40e-01
2005 09 26  2245    53639   81900      0    1.27e+00    0    8.30e-01
2005 09 26  2250    53639   82200      0    1.24e+00    0    8.08e-01
2005 09 26  2255    53639   82500      0    1.22e+00    0    8.19e-01
2005 09 26  2300    53639   82800      0    1.25e+00    0    8.24e-01
2005 09 26  2305    53639   83100      0    1.23e+00    0    8.23e-01
2005 09 26  2310    53639   83400      0    1.22e+00    0    7.98e-01
2005 09 26  2315    53639   83700      0    1.25e+00    0    8.31e-01
2005 09 26  2320    53639   84000      0    1.25e+00    0    8.19e-01
2005 09 26  2325    53639   84300      0    1.24e+00    0    8.08e-01
2005 09 26  2330    53639   84600      0    1.29e+00    0    8.53e-01
2005 09 26  2335    53639   84900      0    1.24e+00    0    8.14e-01
2005 09 26  2340    53639   85200      0    1.25e+00    0    8.27e-01
2005 09 26  2345    53639   85500      0    1.25e+00    0    8.09e-01
2005 09 26  2350    53639   85800      0    1.27e+00    0    8.34e-01
2005 09 26  2355    53639   86100      0    1.25e+00    0    8.22e-01
