:Data_list: 20050920_ace_sis_5m.txt
:Created: 2005 Sep 21 0011 UT
# Prepared by the U.S. Dept. of Commerce, NOAA, Space Environment Center.
# Please send comments and suggestions to SEC.Webmaster@noaa.gov 
# 
# Units: proton flux p/cs2-sec-ster
# Status(S): 0 = nominal data, 1 to 8 = bad data record, 9 = no data
# Missing data values: -1.00e+05
# Source: ACE Satellite - Solar Isotope Spectrometer
#
# 5-minute averaged Real-time Integral Flux of High-energy Solar Protons
# 
#                 Modified Seconds
# UT Date   Time   Julian  of the      ---- Integral Proton Flux ----
# YR MO DA  HHMM     Day     Day       S    > 10 MeV    S    > 30 MeV
#--------------------------------------------------------------------
2005 09 20  0000    53633       0      0    2.24e+00    0    9.77e-01
2005 09 20  0005    53633     300      0    2.21e+00    0    9.42e-01
2005 09 20  0010    53633     600      0    2.19e+00    0    9.56e-01
2005 09 20  0015    53633     900      0    2.17e+00    0    9.39e-01
2005 09 20  0020    53633    1200      0    2.26e+00    0    9.70e-01
2005 09 20  0025    53633    1500      0    2.25e+00    0    9.72e-01
2005 09 20  0030    53633    1800      0    2.29e+00    0    9.64e-01
2005 09 20  0035    53633    2100      0    2.27e+00    0    9.77e-01
2005 09 20  0040    53633    2400      0    2.18e+00    0    9.36e-01
2005 09 20  0045    53633    2700      0    2.19e+00    0    9.73e-01
2005 09 20  0050    53633    3000      0    2.17e+00    0    9.67e-01
2005 09 20  0055    53633    3300      0    2.21e+00    0    9.74e-01
2005 09 20  0100    53633    3600      0    2.18e+00    0    9.32e-01
2005 09 20  0105    53633    3900      0    2.19e+00    0    9.49e-01
2005 09 20  0110    53633    4200      0    2.18e+00    0    9.69e-01
2005 09 20  0115    53633    4500      0    2.17e+00    0    9.37e-01
2005 09 20  0120    53633    4800      0    2.12e+00    0    9.28e-01
2005 09 20  0125    53633    5100      0    2.14e+00    0    9.33e-01
2005 09 20  0130    53633    5400      0    2.20e+00    0    9.77e-01
2005 09 20  0135    53633    5700      0    2.18e+00    0    9.60e-01
2005 09 20  0140    53633    6000      0    2.13e+00    0    9.27e-01
2005 09 20  0145    53633    6300      0    2.25e+00    0    9.67e-01
2005 09 20  0150    53633    6600      0    2.29e+00    0    1.02e+00
2005 09 20  0155    53633    6900      0    2.19e+00    0    9.73e-01
2005 09 20  0200    53633    7200      0    2.15e+00    0    9.54e-01
2005 09 20  0205    53633    7500      0    2.13e+00    0    9.53e-01
2005 09 20  0210    53633    7800      0    2.14e+00    0    9.52e-01
2005 09 20  0215    53633    8100      0    2.19e+00    0    9.74e-01
2005 09 20  0220    53633    8400      0    2.13e+00    0    9.39e-01
2005 09 20  0225    53633    8700      0    2.16e+00    0    9.52e-01
2005 09 20  0230    53633    9000      0    2.12e+00    0    9.36e-01
2005 09 20  0235    53633    9300      0    2.13e+00    0    9.43e-01
2005 09 20  0240    53633    9600      0    2.12e+00    0    9.49e-01
2005 09 20  0245    53633    9900      0    2.13e+00    0    9.48e-01
2005 09 20  0250    53633   10200      0    2.09e+00    0    9.17e-01
2005 09 20  0255    53633   10500      0    2.09e+00    0    9.16e-01
2005 09 20  0300    53633   10800      0    2.10e+00    0    9.46e-01
2005 09 20  0305    53633   11100      0    2.12e+00    0    9.51e-01
2005 09 20  0310    53633   11400      0    2.09e+00    0    9.33e-01
2005 09 20  0315    53633   11700      0    2.09e+00    0    9.29e-01
2005 09 20  0320    53633   12000      0    2.07e+00    0    9.28e-01
2005 09 20  0325    53633   12300      0    2.09e+00    0    9.40e-01
2005 09 20  0330    53633   12600      0    2.08e+00    0    9.65e-01
2005 09 20  0335    53633   12900      0    2.07e+00    0    9.29e-01
2005 09 20  0340    53633   13200      0    2.08e+00    0    9.70e-01
2005 09 20  0345    53633   13500      0    2.03e+00    0    9.18e-01
2005 09 20  0350    53633   13800      0    2.07e+00    0    9.41e-01
2005 09 20  0355    53633   14100      0    2.06e+00    0    9.46e-01
2005 09 20  0400    53633   14400      0    2.08e+00    0    9.49e-01
2005 09 20  0405    53633   14700      0    2.14e+00    0    9.57e-01
2005 09 20  0410    53633   15000      0    2.14e+00    0    9.74e-01
2005 09 20  0415    53633   15300      0    2.13e+00    0    9.50e-01
2005 09 20  0420    53633   15600      0    2.10e+00    0    9.53e-01
2005 09 20  0425    53633   15900      0    2.01e+00    0    9.17e-01
2005 09 20  0430    53633   16200      0    2.04e+00    0    9.28e-01
2005 09 20  0435    53633   16500      0    2.06e+00    0    9.33e-01
2005 09 20  0440    53633   16800      0    2.05e+00    0    9.19e-01
2005 09 20  0445    53633   17100      0    2.03e+00    0    9.24e-01
2005 09 20  0450    53633   17400      0    2.04e+00    0    9.35e-01
2005 09 20  0455    53633   17700      0    2.02e+00    0    9.36e-01
2005 09 20  0500    53633   18000      0    2.06e+00    0    9.39e-01
2005 09 20  0505    53633   18300      0    2.03e+00    0    9.31e-01
2005 09 20  0510    53633   18600      0    2.07e+00    0    9.29e-01
2005 09 20  0515    53633   18900      0    2.11e+00    0    9.60e-01
2005 09 20  0520    53633   19200      0    1.80e+00    0    8.21e-01
2005 09 20  0525    53633   19500      0    1.99e+00    0    8.84e-01
2005 09 20  0530    53633   19800      0    2.04e+00    0    9.14e-01
2005 09 20  0535    53633   20100      0    2.05e+00    0    9.42e-01
2005 09 20  0540    53633   20400      0    2.05e+00    0    9.22e-01
2005 09 20  0545    53633   20700      0    2.08e+00    0    9.58e-01
2005 09 20  0550    53633   21000      0    2.03e+00    0    9.04e-01
2005 09 20  0555    53633   21300      0    2.12e+00    0    9.71e-01
2005 09 20  0600    53633   21600      0    2.05e+00    0    9.42e-01
2005 09 20  0605    53633   21900      0    2.03e+00    0    9.33e-01
2005 09 20  0610    53633   22200      0    2.05e+00    0    9.36e-01
2005 09 20  0615    53633   22500      0    2.07e+00    0    9.51e-01
2005 09 20  0620    53633   22800      0    2.10e+00    0    9.73e-01
2005 09 20  0625    53633   23100      0    2.05e+00    0    9.37e-01
2005 09 20  0630    53633   23400      0    2.05e+00    0    9.39e-01
2005 09 20  0635    53633   23700      0    2.03e+00    0    9.28e-01
2005 09 20  0640    53633   24000      0    2.03e+00    0    9.04e-01
2005 09 20  0645    53633   24300      0    2.08e+00    0    9.52e-01
2005 09 20  0650    53633   24600      0    1.99e+00    0    9.15e-01
2005 09 20  0655    53633   24900      0    2.05e+00    0    9.52e-01
2005 09 20  0700    53633   25200      0    2.04e+00    0    9.38e-01
2005 09 20  0705    53633   25500      0    2.08e+00    0    9.68e-01
2005 09 20  0710    53633   25800      0    2.00e+00    0    9.25e-01
2005 09 20  0715    53633   26100      0    2.03e+00    0    9.21e-01
2005 09 20  0720    53633   26400      0    2.06e+00    0    9.43e-01
2005 09 20  0725    53633   26700      0    2.05e+00    0    9.33e-01
2005 09 20  0730    53633   27000      0    2.04e+00    0    9.33e-01
2005 09 20  0735    53633   27300      0    2.01e+00    0    9.12e-01
2005 09 20  0740    53633   27600      0    2.00e+00    0    9.26e-01
2005 09 20  0745    53633   27900      0    2.02e+00    0    9.35e-01
2005 09 20  0750    53633   28200      0    2.01e+00    0    9.34e-01
2005 09 20  0755    53633   28500      0    2.01e+00    0    9.21e-01
2005 09 20  0800    53633   28800      0    1.99e+00    0    9.00e-01
2005 09 20  0805    53633   29100      0    2.04e+00    0    9.46e-01
2005 09 20  0810    53633   29400      0    2.06e+00    0    9.57e-01
2005 09 20  0815    53633   29700      0    2.02e+00    0    9.50e-01
2005 09 20  0820    53633   30000      0    2.03e+00    0    9.52e-01
2005 09 20  0825    53633   30300      0    1.98e+00    0    9.45e-01
2005 09 20  0830    53633   30600      0    2.00e+00    0    9.24e-01
2005 09 20  0835    53633   30900      0    2.00e+00    0    8.98e-01
2005 09 20  0840    53633   31200      0    2.04e+00    0    9.53e-01
2005 09 20  0845    53633   31500      0    2.02e+00    0    9.24e-01
2005 09 20  0850    53633   31800      0    2.06e+00    0    9.62e-01
2005 09 20  0855    53633   32100      0    2.05e+00    0    9.27e-01
2005 09 20  0900    53633   32400      0    2.06e+00    0    9.48e-01
2005 09 20  0905    53633   32700      0    2.05e+00    0    9.71e-01
2005 09 20  0910    53633   33000      0    2.04e+00    0    9.46e-01
2005 09 20  0915    53633   33300      0    2.00e+00    0    9.30e-01
2005 09 20  0920    53633   33600      0    2.03e+00    0    9.40e-01
2005 09 20  0925    53633   33900      0    1.99e+00    0    9.00e-01
2005 09 20  0930    53633   34200      0    2.02e+00    0    9.30e-01
2005 09 20  0935    53633   34500      0    1.98e+00    0    9.31e-01
2005 09 20  0940    53633   34800      0    2.03e+00    0    9.39e-01
2005 09 20  0945    53633   35100      0    2.02e+00    0    9.48e-01
2005 09 20  0950    53633   35400      0    1.98e+00    0    9.12e-01
2005 09 20  0955    53633   35700      0    1.95e+00    0    9.12e-01
2005 09 20  1000    53633   36000      0    1.99e+00    0    9.52e-01
2005 09 20  1005    53633   36300      0    1.99e+00    0    9.54e-01
2005 09 20  1010    53633   36600      0    1.98e+00    0    9.46e-01
2005 09 20  1015    53633   36900      0    2.00e+00    0    9.32e-01
2005 09 20  1020    53633   37200      0    2.00e+00    0    9.41e-01
2005 09 20  1025    53633   37500      0    1.97e+00    0    9.25e-01
2005 09 20  1030    53633   37800      0    1.96e+00    0    9.13e-01
2005 09 20  1035    53633   38100      0    1.97e+00    0    9.56e-01
2005 09 20  1040    53633   38400      0    1.95e+00    0    9.31e-01
2005 09 20  1045    53633   38700      0    1.92e+00    0    9.11e-01
2005 09 20  1050    53633   39000      0    1.97e+00    0    9.36e-01
2005 09 20  1055    53633   39300      0    2.01e+00    0    9.57e-01
2005 09 20  1100    53633   39600      0    1.95e+00    0    9.16e-01
2005 09 20  1105    53633   39900      0    1.95e+00    0    9.42e-01
2005 09 20  1110    53633   40200      0    1.94e+00    0    9.19e-01
2005 09 20  1115    53633   40500      0    1.97e+00    0    9.54e-01
2005 09 20  1120    53633   40800      0    1.95e+00    0    9.27e-01
2005 09 20  1125    53633   41100      0    1.93e+00    0    9.12e-01
2005 09 20  1130    53633   41400      0    1.92e+00    0    9.02e-01
2005 09 20  1135    53633   41700      0    1.96e+00    0    9.30e-01
2005 09 20  1140    53633   42000      0    1.94e+00    0    9.18e-01
2005 09 20  1145    53633   42300      0    1.89e+00    0    8.94e-01
2005 09 20  1150    53633   42600      0    1.95e+00    0    9.16e-01
2005 09 20  1155    53633   42900      0    1.93e+00    0    9.04e-01
2005 09 20  1200    53633   43200      0    1.93e+00    0    9.12e-01
2005 09 20  1205    53633   43500      0    1.93e+00    0    9.06e-01
2005 09 20  1210    53633   43800      0    1.94e+00    0    9.38e-01
2005 09 20  1215    53633   44100      0    1.94e+00    0    9.00e-01
2005 09 20  1220    53633   44400      0    1.92e+00    0    9.22e-01
2005 09 20  1225    53633   44700      0    1.91e+00    0    9.16e-01
2005 09 20  1230    53633   45000      0    1.90e+00    0    9.04e-01
2005 09 20  1235    53633   45300      0    1.96e+00    0    9.57e-01
2005 09 20  1240    53633   45600      0    1.89e+00    0    9.10e-01
2005 09 20  1245    53633   45900      0    1.92e+00    0    9.06e-01
2005 09 20  1250    53633   46200      0    1.89e+00    0    9.19e-01
2005 09 20  1255    53633   46500      0    1.91e+00    0    9.14e-01
2005 09 20  1300    53633   46800      0    1.94e+00    0    9.13e-01
2005 09 20  1305    53633   47100      0    1.92e+00    0    9.11e-01
2005 09 20  1310    53633   47400      0    2.00e+00    0    9.48e-01
2005 09 20  1315    53633   47700      0    1.93e+00    0    9.19e-01
2005 09 20  1320    53633   48000      0    1.93e+00    0    9.14e-01
2005 09 20  1325    53633   48300      0    1.94e+00    0    9.50e-01
2005 09 20  1330    53633   48600      0    1.94e+00    0    9.30e-01
2005 09 20  1335    53633   48900      0    1.91e+00    0    9.09e-01
2005 09 20  1340    53633   49200      0    1.95e+00    0    9.28e-01
2005 09 20  1345    53633   49500      0    1.93e+00    0    9.24e-01
2005 09 20  1350    53633   49800      0    1.90e+00    0    9.01e-01
2005 09 20  1355    53633   50100      0    1.88e+00    0    9.02e-01
2005 09 20  1400    53633   50400      0    1.93e+00    0    9.22e-01
2005 09 20  1405    53633   50700      0    1.91e+00    0    9.08e-01
2005 09 20  1410    53633   51000      0    1.95e+00    0    9.52e-01
2005 09 20  1415    53633   51300      0    1.93e+00    0    9.33e-01
2005 09 20  1420    53633   51600      0    1.89e+00    0    9.22e-01
2005 09 20  1425    53633   51900      0    1.91e+00    0    9.32e-01
2005 09 20  1430    53633   52200      0    1.98e+00    0    9.72e-01
2005 09 20  1435    53633   52500      0    1.84e+00    0    8.91e-01
2005 09 20  1440    53633   52800      0    1.91e+00    0    9.41e-01
2005 09 20  1445    53633   53100      0    1.86e+00    0    9.10e-01
2005 09 20  1450    53633   53400      0    1.82e+00    0    8.93e-01
2005 09 20  1455    53633   53700      0    1.90e+00    0    9.50e-01
2005 09 20  1500    53633   54000      0    1.86e+00    0    9.33e-01
2005 09 20  1505    53633   54300      0    1.88e+00    0    9.25e-01
2005 09 20  1510    53633   54600      0    1.85e+00    0    8.82e-01
2005 09 20  1515    53633   54900      0    1.85e+00    0    8.99e-01
2005 09 20  1520    53633   55200      0    1.79e+00    0    8.69e-01
2005 09 20  1525    53633   55500      0    1.95e+00    0    9.37e-01
2005 09 20  1530    53633   55800      0    1.94e+00    0    9.44e-01
2005 09 20  1535    53633   56100      0    1.86e+00    0    8.73e-01
2005 09 20  1540    53633   56400      0    1.86e+00    0    9.01e-01
2005 09 20  1545    53633   56700      0    1.90e+00    0    9.45e-01
2005 09 20  1550    53633   57000      0    1.98e+00    0    9.69e-01
2005 09 20  1555    53633   57300      0    1.91e+00    0    9.14e-01
2005 09 20  1600    53633   57600      0    1.90e+00    0    9.30e-01
2005 09 20  1605    53633   57900      0    1.90e+00    0    9.31e-01
2005 09 20  1610    53633   58200      0    1.86e+00    0    9.01e-01
2005 09 20  1615    53633   58500      0    1.92e+00    0    9.42e-01
2005 09 20  1620    53633   58800      0    1.89e+00    0    9.19e-01
2005 09 20  1625    53633   59100      0    1.87e+00    0    9.15e-01
2005 09 20  1630    53633   59400      0    1.86e+00    0    9.06e-01
2005 09 20  1635    53633   59700      0    1.85e+00    0    9.07e-01
2005 09 20  1640    53633   60000      0    1.90e+00    0    9.39e-01
2005 09 20  1645    53633   60300      0    1.87e+00    0    9.31e-01
2005 09 20  1650    53633   60600      0    1.86e+00    0    9.10e-01
2005 09 20  1655    53633   60900      0    1.85e+00    0    8.94e-01
2005 09 20  1700    53633   61200      0    1.90e+00    0    9.32e-01
2005 09 20  1705    53633   61500      0    1.89e+00    0    9.38e-01
2005 09 20  1710    53633   61800      0    1.86e+00    0    8.99e-01
2005 09 20  1715    53633   62100      0    1.88e+00    0    9.08e-01
2005 09 20  1720    53633   62400      0    1.84e+00    0    9.04e-01
2005 09 20  1725    53633   62700      0    1.91e+00    0    9.47e-01
2005 09 20  1730    53633   63000      0    1.87e+00    0    9.12e-01
2005 09 20  1735    53633   63300      0    1.90e+00    0    9.31e-01
2005 09 20  1740    53633   63600      0    1.91e+00    0    9.34e-01
2005 09 20  1745    53633   63900      0    1.92e+00    0    9.41e-01
2005 09 20  1750    53633   64200      0    1.82e+00    0    8.82e-01
2005 09 20  1755    53633   64500      0    1.87e+00    0    9.14e-01
2005 09 20  1800    53633   64800      0    1.86e+00    0    9.32e-01
2005 09 20  1805    53633   65100      0    1.90e+00    0    9.56e-01
2005 09 20  1810    53633   65400      0    1.91e+00    0    9.24e-01
2005 09 20  1815    53633   65700      0    1.89e+00    0    9.22e-01
2005 09 20  1820    53633   66000      0    1.91e+00    0    9.44e-01
2005 09 20  1825    53633   66300      0    1.85e+00    0    9.29e-01
2005 09 20  1830    53633   66600      0    1.83e+00    0    9.18e-01
2005 09 20  1835    53633   66900      0    1.80e+00    0    9.06e-01
2005 09 20  1840    53633   67200      0    1.81e+00    0    9.03e-01
2005 09 20  1845    53633   67500      0    1.81e+00    0    8.97e-01
2005 09 20  1850    53633   67800      0    1.86e+00    0    9.22e-01
2005 09 20  1855    53633   68100      0    1.84e+00    0    9.06e-01
2005 09 20  1900    53633   68400      0    1.84e+00    0    9.28e-01
2005 09 20  1905    53633   68700      0    1.86e+00    0    9.34e-01
2005 09 20  1910    53633   69000      0    1.82e+00    0    9.18e-01
2005 09 20  1915    53633   69300      0    1.84e+00    0    9.16e-01
2005 09 20  1920    53633   69600      0    1.85e+00    0    9.13e-01
2005 09 20  1925    53633   69900      0    1.85e+00    0    9.26e-01
2005 09 20  1930    53633   70200      0    1.84e+00    0    9.20e-01
2005 09 20  1935    53633   70500      0    1.87e+00    0    9.48e-01
2005 09 20  1940    53633   70800      0    1.85e+00    0    9.30e-01
2005 09 20  1945    53633   71100      0    1.77e+00    0    8.81e-01
2005 09 20  1950    53633   71400      0    1.84e+00    0    9.23e-01
2005 09 20  1955    53633   71700      0    1.84e+00    0    9.23e-01
2005 09 20  2000    53633   72000      0    1.82e+00    0    9.24e-01
2005 09 20  2005    53633   72300      0    1.80e+00    0    8.92e-01
2005 09 20  2010    53633   72600      0    1.78e+00    0    9.01e-01
2005 09 20  2015    53633   72900      0    1.83e+00    0    9.11e-01
2005 09 20  2020    53633   73200      0    1.84e+00    0    9.14e-01
2005 09 20  2025    53633   73500      0    1.90e+00    0    9.48e-01
2005 09 20  2030    53633   73800      0    1.82e+00    0    9.10e-01
2005 09 20  2035    53633   74100      0    1.92e+00    0    9.44e-01
2005 09 20  2040    53633   74400      0    1.84e+00    0    9.28e-01
2005 09 20  2045    53633   74700      0    1.83e+00    0    9.41e-01
2005 09 20  2050    53633   75000      0    1.85e+00    0    9.48e-01
2005 09 20  2055    53633   75300      0    1.82e+00    0    9.34e-01
2005 09 20  2100    53633   75600      0    1.86e+00    0    9.20e-01
2005 09 20  2105    53633   75900      0    1.95e+00    0    9.47e-01
2005 09 20  2110    53633   76200      0    2.00e+00    0    9.71e-01
2005 09 20  2115    53633   76500      0    2.01e+00    0    9.81e-01
2005 09 20  2120    53633   76800      0    1.99e+00    0    9.65e-01
2005 09 20  2125    53633   77100      0    1.95e+00    0    9.49e-01
2005 09 20  2130    53633   77400      0    1.99e+00    0    9.70e-01
2005 09 20  2135    53633   77700      0    2.00e+00    0    9.60e-01
2005 09 20  2140    53633   78000      0    1.93e+00    0    9.56e-01
2005 09 20  2145    53633   78300      0    1.88e+00    0    9.27e-01
2005 09 20  2150    53633   78600      0    1.91e+00    0    9.59e-01
2005 09 20  2155    53633   78900      0    1.90e+00    0    9.61e-01
2005 09 20  2200    53633   79200      0    1.91e+00    0    9.58e-01
2005 09 20  2205    53633   79500      0    1.90e+00    0    9.38e-01
2005 09 20  2210    53633   79800      0    1.92e+00    0    9.39e-01
2005 09 20  2215    53633   80100      0    1.98e+00    0    9.63e-01
2005 09 20  2220    53633   80400      0    1.96e+00    0    9.59e-01
2005 09 20  2225    53633   80700      0    1.94e+00    0    9.52e-01
2005 09 20  2230    53633   81000      0    1.92e+00    0    9.34e-01
2005 09 20  2235    53633   81300      0    1.93e+00    0    9.33e-01
2005 09 20  2240    53633   81600      0    1.94e+00    0    9.57e-01
2005 09 20  2245    53633   81900      0    1.92e+00    0    9.41e-01
2005 09 20  2250    53633   82200      0    1.95e+00    0    9.58e-01
2005 09 20  2255    53633   82500      0    1.91e+00    0    9.51e-01
2005 09 20  2300    53633   82800      0    1.91e+00    0    9.33e-01
2005 09 20  2305    53633   83100      0    1.95e+00    0    9.59e-01
2005 09 20  2310    53633   83400      0    1.92e+00    0    9.54e-01
2005 09 20  2315    53633   83700      0    1.94e+00    0    9.46e-01
2005 09 20  2320    53633   84000      0    1.94e+00    0    9.48e-01
2005 09 20  2325    53633   84300      0    1.90e+00    0    9.33e-01
2005 09 20  2330    53633   84600      0    1.92e+00    0    9.77e-01
2005 09 20  2335    53633   84900      0    1.91e+00    0    9.70e-01
2005 09 20  2340    53633   85200      0    1.92e+00    0    9.73e-01
2005 09 20  2345    53633   85500      0    1.94e+00    0    9.59e-01
2005 09 20  2350    53633   85800      0    1.93e+00    0    9.66e-01
2005 09 20  2355    53633   86100      0    1.90e+00    0    9.30e-01
