:Data_list: 20050314_ace_sis_5m.txt
:Created: 2005 Mar 15 0011 UT
# Prepared by the U.S. Dept. of Commerce, NOAA, Space Environment Center.
# Please send comments and suggestions to SEC.Webmaster@noaa.gov 
# 
# Units: proton flux p/cs2-sec-ster
# Status(S): 0 = nominal data, 1 to 8 = bad data record, 9 = no data
# Missing data values: -1.00e+05
# Source: ACE Satellite - Solar Isotope Spectrometer
#
# 5-minute averaged Real-time Integral Flux of High-energy Solar Protons
# 
#                 Modified Seconds
# UT Date   Time   Julian  of the      ---- Integral Proton Flux ----
# YR MO DA  HHMM     Day     Day       S    > 10 MeV    S    > 30 MeV
#--------------------------------------------------------------------
2005 03 14  0000    53443       0      0    1.18e+00    0    8.28e-01
2005 03 14  0005    53443     300      0    1.17e+00    0    8.20e-01
2005 03 14  0010    53443     600      0    1.19e+00    0    8.45e-01
2005 03 14  0015    53443     900      0    1.19e+00    0    8.24e-01
2005 03 14  0020    53443    1200      0    1.19e+00    0    8.32e-01
2005 03 14  0025    53443    1500      0    1.18e+00    0    8.29e-01
2005 03 14  0030    53443    1800      0    1.17e+00    0    8.21e-01
2005 03 14  0035    53443    2100      0    1.19e+00    0    8.41e-01
2005 03 14  0040    53443    2400      0    1.22e+00    0    8.54e-01
2005 03 14  0045    53443    2700      0    1.20e+00    0    8.53e-01
2005 03 14  0050    53443    3000      0    1.22e+00    0    8.49e-01
2005 03 14  0055    53443    3300      0    1.21e+00    0    8.44e-01
2005 03 14  0100    53443    3600      0    1.18e+00    0    8.27e-01
2005 03 14  0105    53443    3900      0    1.18e+00    0    8.27e-01
2005 03 14  0110    53443    4200      0    1.21e+00    0    8.40e-01
2005 03 14  0115    53443    4500      0    1.18e+00    0    8.25e-01
2005 03 14  0120    53443    4800      0    1.19e+00    0    8.40e-01
2005 03 14  0125    53443    5100      0    1.19e+00    0    8.30e-01
2005 03 14  0130    53443    5400      0    1.19e+00    0    8.36e-01
2005 03 14  0135    53443    5700      0    1.18e+00    0    8.28e-01
2005 03 14  0140    53443    6000      0    1.19e+00    0    8.23e-01
2005 03 14  0145    53443    6300      0    1.18e+00    0    8.31e-01
2005 03 14  0150    53443    6600      0    1.22e+00    0    8.53e-01
2005 03 14  0155    53443    6900      0    1.20e+00    0    8.39e-01
2005 03 14  0200    53443    7200      0    1.20e+00    0    8.43e-01
2005 03 14  0205    53443    7500      0    1.18e+00    0    8.26e-01
2005 03 14  0210    53443    7800      0    1.18e+00    0    8.31e-01
2005 03 14  0215    53443    8100      0    1.18e+00    0    8.31e-01
2005 03 14  0220    53443    8400      0    1.17e+00    0    8.23e-01
2005 03 14  0225    53443    8700      0    1.19e+00    0    8.38e-01
2005 03 14  0230    53443    9000      0    1.16e+00    0    8.07e-01
2005 03 14  0235    53443    9300      0    1.17e+00    0    8.27e-01
2005 03 14  0240    53443    9600      0    1.18e+00    0    8.47e-01
2005 03 14  0245    53443    9900      0    1.19e+00    0    8.36e-01
2005 03 14  0250    53443   10200      0    1.18e+00    0    8.37e-01
2005 03 14  0255    53443   10500      0    1.17e+00    0    8.27e-01
2005 03 14  0300    53443   10800      0    1.18e+00    0    8.24e-01
2005 03 14  0305    53443   11100      0    1.18e+00    0    8.24e-01
2005 03 14  0310    53443   11400      0    1.15e+00    0    8.13e-01
2005 03 14  0315    53443   11700      0    1.19e+00    0    8.38e-01
2005 03 14  0320    53443   12000      0    1.17e+00    0    8.30e-01
2005 03 14  0325    53443   12300      0    1.18e+00    0    8.24e-01
2005 03 14  0330    53443   12600      0    1.19e+00    0    8.40e-01
2005 03 14  0335    53443   12900      0    1.17e+00    0    8.12e-01
2005 03 14  0340    53443   13200      0    1.21e+00    0    8.53e-01
2005 03 14  0345    53443   13500      0    1.15e+00    0    8.04e-01
2005 03 14  0350    53443   13800      0    1.19e+00    0    8.33e-01
2005 03 14  0355    53443   14100      0    1.17e+00    0    8.16e-01
2005 03 14  0400    53443   14400      0    1.22e+00    0    8.59e-01
2005 03 14  0405    53443   14700      0    1.18e+00    0    8.34e-01
2005 03 14  0410    53443   15000      0    1.19e+00    0    8.30e-01
2005 03 14  0415    53443   15300      0    1.17e+00    0    8.31e-01
2005 03 14  0420    53443   15600      0    1.18e+00    0    8.18e-01
2005 03 14  0425    53443   15900      0    1.21e+00    0    8.44e-01
2005 03 14  0430    53443   16200      0    1.18e+00    0    8.24e-01
2005 03 14  0435    53443   16500      0    1.18e+00    0    8.27e-01
2005 03 14  0440    53443   16800      0    1.19e+00    0    8.34e-01
2005 03 14  0445    53443   17100      0    1.17e+00    0    8.27e-01
2005 03 14  0450    53443   17400      0    1.21e+00    0    8.57e-01
2005 03 14  0455    53443   17700      0    1.21e+00    0    8.62e-01
2005 03 14  0500    53443   18000      0    1.17e+00    0    8.22e-01
2005 03 14  0505    53443   18300      0    1.20e+00    0    8.36e-01
2005 03 14  0510    53443   18600      0    1.17e+00    0    8.21e-01
2005 03 14  0515    53443   18900      0    1.18e+00    0    8.23e-01
2005 03 14  0520    53443   19200      0    1.18e+00    0    8.22e-01
2005 03 14  0525    53443   19500      0    1.16e+00    0    8.10e-01
2005 03 14  0530    53443   19800      0    1.20e+00    0    8.46e-01
2005 03 14  0535    53443   20100      0    1.18e+00    0    8.32e-01
2005 03 14  0540    53443   20400      0    1.20e+00    0    8.40e-01
2005 03 14  0545    53443   20700      0    1.18e+00    0    8.26e-01
2005 03 14  0550    53443   21000      0    1.24e+00    0    8.73e-01
2005 03 14  0555    53443   21300      0    1.19e+00    0    8.35e-01
2005 03 14  0600    53443   21600      0    1.18e+00    0    8.31e-01
2005 03 14  0605    53443   21900      0    1.19e+00    0    8.42e-01
2005 03 14  0610    53443   22200      0    1.19e+00    0    8.36e-01
2005 03 14  0615    53443   22500      0    1.20e+00    0    8.48e-01
2005 03 14  0620    53443   22800      0    1.18e+00    0    8.23e-01
2005 03 14  0625    53443   23100      0    1.20e+00    0    8.40e-01
2005 03 14  0630    53443   23400      0    1.18e+00    0    8.39e-01
2005 03 14  0635    53443   23700      0    1.17e+00    0    8.23e-01
2005 03 14  0640    53443   24000      0    1.18e+00    0    8.27e-01
2005 03 14  0645    53443   24300      0    1.21e+00    0    8.58e-01
2005 03 14  0650    53443   24600      0    1.23e+00    0    8.70e-01
2005 03 14  0655    53443   24900      0    1.22e+00    0    8.53e-01
2005 03 14  0700    53443   25200      0    1.20e+00    0    8.51e-01
2005 03 14  0705    53443   25500      0    1.18e+00    0    8.31e-01
2005 03 14  0710    53443   25800      0    1.20e+00    0    8.32e-01
2005 03 14  0715    53443   26100      0    1.20e+00    0    8.45e-01
2005 03 14  0720    53443   26400      0    1.20e+00    0    8.50e-01
2005 03 14  0725    53443   26700      0    1.22e+00    0    8.56e-01
2005 03 14  0730    53443   27000      0    1.19e+00    0    8.38e-01
2005 03 14  0735    53443   27300      0    1.20e+00    0    8.51e-01
2005 03 14  0740    53443   27600      0    1.22e+00    0    8.57e-01
2005 03 14  0745    53443   27900      0    1.19e+00    0    8.35e-01
2005 03 14  0750    53443   28200      0    1.19e+00    0    8.39e-01
2005 03 14  0755    53443   28500      0    1.19e+00    0    8.37e-01
2005 03 14  0800    53443   28800      0    1.17e+00    0    8.24e-01
2005 03 14  0805    53443   29100      0    1.20e+00    0    8.43e-01
2005 03 14  0810    53443   29400      0    1.21e+00    0    8.41e-01
2005 03 14  0815    53443   29700      0    1.19e+00    0    8.36e-01
2005 03 14  0820    53443   30000      0    1.21e+00    0    8.49e-01
2005 03 14  0825    53443   30300      0    1.18e+00    0    8.23e-01
2005 03 14  0830    53443   30600      0    1.20e+00    0    8.41e-01
2005 03 14  0835    53443   30900      0    1.21e+00    0    8.42e-01
2005 03 14  0840    53443   31200      0    1.21e+00    0    8.54e-01
2005 03 14  0845    53443   31500      0    1.18e+00    0    8.28e-01
2005 03 14  0850    53443   31800      0    1.22e+00    0    8.64e-01
2005 03 14  0855    53443   32100      0    1.22e+00    0    8.66e-01
2005 03 14  0900    53443   32400      0    1.20e+00    0    8.45e-01
2005 03 14  0905    53443   32700      0    1.20e+00    0    8.38e-01
2005 03 14  0910    53443   33000      0    1.20e+00    0    8.36e-01
2005 03 14  0915    53443   33300      0    1.15e+00    0    8.25e-01
2005 03 14  0920    53443   33600      0    1.17e+00    0    8.28e-01
2005 03 14  0925    53443   33900      0    1.20e+00    0    8.40e-01
2005 03 14  0930    53443   34200      0    1.22e+00    0    8.55e-01
2005 03 14  0935    53443   34500      0    1.17e+00    0    8.22e-01
2005 03 14  0940    53443   34800      0    1.18e+00    0    8.26e-01
2005 03 14  0945    53443   35100      0    1.18e+00    0    8.30e-01
2005 03 14  0950    53443   35400      0    1.20e+00    0    8.54e-01
2005 03 14  0955    53443   35700      0    1.20e+00    0    8.42e-01
2005 03 14  1000    53443   36000      0    1.21e+00    0    8.60e-01
2005 03 14  1005    53443   36300      0    1.20e+00    0    8.51e-01
2005 03 14  1010    53443   36600      0    1.19e+00    0    8.43e-01
2005 03 14  1015    53443   36900      0    1.18e+00    0    8.29e-01
2005 03 14  1020    53443   37200      0    1.17e+00    0    8.10e-01
2005 03 14  1025    53443   37500      0    1.20e+00    0    8.42e-01
2005 03 14  1030    53443   37800      0    1.19e+00    0    8.37e-01
2005 03 14  1035    53443   38100      0    1.19e+00    0    8.42e-01
2005 03 14  1040    53443   38400      0    1.19e+00    0    8.29e-01
2005 03 14  1045    53443   38700      0    1.22e+00    0    8.59e-01
2005 03 14  1050    53443   39000      0    1.19e+00    0    8.47e-01
2005 03 14  1055    53443   39300      0    1.19e+00    0    8.33e-01
2005 03 14  1100    53443   39600      0    1.16e+00    0    8.15e-01
2005 03 14  1105    53443   39900      0    1.18e+00    0    8.17e-01
2005 03 14  1110    53443   40200      0    1.20e+00    0    8.47e-01
2005 03 14  1115    53443   40500      0    1.19e+00    0    8.34e-01
2005 03 14  1120    53443   40800      0    1.17e+00    0    8.21e-01
2005 03 14  1125    53443   41100      0    1.19e+00    0    8.34e-01
2005 03 14  1130    53443   41400      0    1.18e+00    0    8.37e-01
2005 03 14  1135    53443   41700      0    1.22e+00    0    8.59e-01
2005 03 14  1140    53443   42000      0    1.19e+00    0    8.37e-01
2005 03 14  1145    53443   42300      0    1.24e+00    0    8.71e-01
2005 03 14  1150    53443   42600      0    1.20e+00    0    8.39e-01
2005 03 14  1155    53443   42900      0    1.23e+00    0    8.55e-01
2005 03 14  1200    53443   43200      0    1.19e+00    0    8.31e-01
2005 03 14  1205    53443   43500      0    1.21e+00    0    8.38e-01
2005 03 14  1210    53443   43800      0    1.20e+00    0    8.35e-01
2005 03 14  1215    53443   44100      0    1.23e+00    0    8.56e-01
2005 03 14  1220    53443   44400      0    1.21e+00    0    8.46e-01
2005 03 14  1225    53443   44700      0    1.21e+00    0    8.47e-01
2005 03 14  1230    53443   45000      0    1.20e+00    0    8.36e-01
2005 03 14  1235    53443   45300      0    1.20e+00    0    8.34e-01
2005 03 14  1240    53443   45600      0    1.19e+00    0    8.40e-01
2005 03 14  1245    53443   45900      0    1.24e+00    0    8.61e-01
2005 03 14  1250    53443   46200      0    1.23e+00    0    8.45e-01
2005 03 14  1255    53443   46500      0    1.20e+00    0    8.32e-01
2005 03 14  1300    53443   46800      0    1.24e+00    0    8.49e-01
2005 03 14  1305    53443   47100      0    1.24e+00    0    8.54e-01
2005 03 14  1310    53443   47400      0    1.24e+00    0    8.44e-01
2005 03 14  1315    53443   47700      0    1.22e+00    0    8.38e-01
2005 03 14  1320    53443   48000      0    1.23e+00    0    8.46e-01
2005 03 14  1325    53443   48300      0    1.23e+00    0    8.51e-01
2005 03 14  1330    53443   48600      0    1.21e+00    0    8.30e-01
2005 03 14  1335    53443   48900      0    1.20e+00    0    8.24e-01
2005 03 14  1340    53443   49200      0    1.21e+00    0    8.36e-01
2005 03 14  1345    53443   49500      0    1.24e+00    0    8.55e-01
2005 03 14  1350    53443   49800      0    1.23e+00    0    8.49e-01
2005 03 14  1355    53443   50100      0    1.22e+00    0    8.47e-01
2005 03 14  1400    53443   50400      0    1.22e+00    0    8.38e-01
2005 03 14  1405    53443   50700      0    1.21e+00    0    8.34e-01
2005 03 14  1410    53443   51000      0    1.21e+00    0    8.33e-01
2005 03 14  1415    53443   51300      0    1.22e+00    0    8.53e-01
2005 03 14  1420    53443   51600      0    1.21e+00    0    8.39e-01
2005 03 14  1425    53443   51900      0    1.21e+00    0    8.28e-01
2005 03 14  1430    53443   52200      0    1.24e+00    0    8.62e-01
2005 03 14  1435    53443   52500      0    1.23e+00    0    8.56e-01
2005 03 14  1440    53443   52800      0    1.19e+00    0    8.27e-01
2005 03 14  1445    53443   53100      0    1.24e+00    0    8.61e-01
2005 03 14  1450    53443   53400      0    1.19e+00    0    8.29e-01
2005 03 14  1455    53443   53700      0    1.20e+00    0    8.39e-01
2005 03 14  1500    53443   54000      0    1.21e+00    0    8.45e-01
2005 03 14  1505    53443   54300      0    1.21e+00    0    8.43e-01
2005 03 14  1510    53443   54600      0    1.22e+00    0    8.50e-01
2005 03 14  1515    53443   54900      0    1.20e+00    0    8.35e-01
2005 03 14  1520    53443   55200      0    1.22e+00    0    8.52e-01
2005 03 14  1525    53443   55500      0    1.18e+00    0    8.22e-01
2005 03 14  1530    53443   55800      0    1.22e+00    0    8.37e-01
2005 03 14  1535    53443   56100      0    1.21e+00    0    8.39e-01
2005 03 14  1540    53443   56400      0    1.18e+00    0    8.14e-01
2005 03 14  1545    53443   56700      0    1.22e+00    0    8.40e-01
2005 03 14  1550    53443   57000      0    1.23e+00    0    8.54e-01
2005 03 14  1555    53443   57300      0    1.22e+00    0    8.48e-01
2005 03 14  1600    53443   57600      0    1.22e+00    0    8.57e-01
2005 03 14  1605    53443   57900      0    1.26e+00    0    8.74e-01
2005 03 14  1610    53443   58200      0    1.23e+00    0    8.54e-01
2005 03 14  1615    53443   58500      0    1.25e+00    0    8.61e-01
2005 03 14  1620    53443   58800      0    1.23e+00    0    8.53e-01
2005 03 14  1625    53443   59100      0    1.25e+00    0    8.66e-01
2005 03 14  1630    53443   59400      0    1.23e+00    0    8.49e-01
2005 03 14  1635    53443   59700      0    1.24e+00    0    8.68e-01
2005 03 14  1640    53443   60000      0    1.27e+00    0    8.97e-01
2005 03 14  1645    53443   60300      0    1.27e+00    0    8.87e-01
2005 03 14  1650    53443   60600      0    1.24e+00    0    8.60e-01
2005 03 14  1655    53443   60900      0    1.22e+00    0    8.52e-01
2005 03 14  1700    53443   61200      0    1.21e+00    0    8.38e-01
2005 03 14  1705    53443   61500      0    1.24e+00    0    8.69e-01
2005 03 14  1710    53443   61800      0    1.21e+00    0    8.40e-01
2005 03 14  1715    53443   62100      0    1.23e+00    0    8.49e-01
2005 03 14  1720    53443   62400      0    1.20e+00    0    8.39e-01
2005 03 14  1725    53443   62700      0    1.23e+00    0    8.63e-01
2005 03 14  1730    53443   63000      0    1.24e+00    0    8.63e-01
2005 03 14  1735    53443   63300      0    1.21e+00    0    8.52e-01
2005 03 14  1740    53443   63600      0    1.24e+00    0    8.56e-01
2005 03 14  1745    53443   63900      0    1.19e+00    0    8.20e-01
2005 03 14  1750    53443   64200      0    1.23e+00    0    8.58e-01
2005 03 14  1755    53443   64500      0    1.22e+00    0    8.52e-01
2005 03 14  1800    53443   64800      0    1.20e+00    0    8.41e-01
2005 03 14  1805    53443   65100      0    1.20e+00    0    8.38e-01
2005 03 14  1810    53443   65400      0    1.20e+00    0    8.37e-01
2005 03 14  1815    53443   65700      0    1.22e+00    0    8.44e-01
2005 03 14  1820    53443   66000      0    1.25e+00    0    8.69e-01
2005 03 14  1825    53443   66300      0    1.23e+00    0    8.59e-01
2005 03 14  1830    53443   66600      0    1.24e+00    0    8.73e-01
2005 03 14  1835    53443   66900      0    1.20e+00    0    8.28e-01
2005 03 14  1840    53443   67200      0    1.22e+00    0    8.57e-01
2005 03 14  1845    53443   67500      0    1.23e+00    0    8.67e-01
2005 03 14  1850    53443   67800      0    1.22e+00    0    8.59e-01
2005 03 14  1855    53443   68100      0    1.20e+00    0    8.33e-01
2005 03 14  1900    53443   68400      0    1.22e+00    0    8.50e-01
2005 03 14  1905    53443   68700      0    1.21e+00    0    8.32e-01
2005 03 14  1910    53443   69000      0    1.21e+00    0    8.50e-01
2005 03 14  1915    53443   69300      0    1.22e+00    0    8.51e-01
2005 03 14  1920    53443   69600      0    1.22e+00    0    8.54e-01
2005 03 14  1925    53443   69900      0    1.24e+00    0    8.66e-01
2005 03 14  1930    53443   70200      0    1.19e+00    0    8.30e-01
2005 03 14  1935    53443   70500      0    1.21e+00    0    8.39e-01
2005 03 14  1940    53443   70800      0    1.20e+00    0    8.36e-01
2005 03 14  1945    53443   71100      0    1.19e+00    0    8.29e-01
2005 03 14  1950    53443   71400      0    1.20e+00    0    8.36e-01
2005 03 14  1955    53443   71700      0    1.20e+00    0    8.33e-01
2005 03 14  2000    53443   72000      0    1.20e+00    0    8.36e-01
2005 03 14  2005    53443   72300      0    1.20e+00    0    8.36e-01
2005 03 14  2010    53443   72600      0    1.20e+00    0    8.36e-01
2005 03 14  2015    53443   72900      0    1.18e+00    0    8.31e-01
2005 03 14  2020    53443   73200      0    1.24e+00    0    8.71e-01
2005 03 14  2025    53443   73500      0    1.18e+00    0    8.21e-01
2005 03 14  2030    53443   73800      0    1.19e+00    0    8.36e-01
2005 03 14  2035    53443   74100      0    1.18e+00    0    8.27e-01
2005 03 14  2040    53443   74400      0    1.21e+00    0    8.46e-01
2005 03 14  2045    53443   74700      0    1.24e+00    0    8.61e-01
2005 03 14  2050    53443   75000      0    1.19e+00    0    8.33e-01
2005 03 14  2055    53443   75300      0    1.21e+00    0    8.57e-01
2005 03 14  2100    53443   75600      0    1.20e+00    0    8.48e-01
2005 03 14  2105    53443   75900      0    1.22e+00    0    8.48e-01
2005 03 14  2110    53443   76200      0    1.21e+00    0    8.44e-01
2005 03 14  2115    53443   76500      0    1.21e+00    0    8.43e-01
2005 03 14  2120    53443   76800      0    1.19e+00    0    8.27e-01
2005 03 14  2125    53443   77100      0    1.22e+00    0    8.57e-01
2005 03 14  2130    53443   77400      0    1.21e+00    0    8.56e-01
2005 03 14  2135    53443   77700      0    1.19e+00    0    8.30e-01
2005 03 14  2140    53443   78000      0    1.24e+00    0    8.70e-01
2005 03 14  2145    53443   78300      0    1.21e+00    0    8.50e-01
2005 03 14  2150    53443   78600      0    1.20e+00    0    8.44e-01
2005 03 14  2155    53443   78900      0    1.20e+00    0    8.38e-01
2005 03 14  2200    53443   79200      0    1.20e+00    0    8.34e-01
2005 03 14  2205    53443   79500      0    1.21e+00    0    8.42e-01
2005 03 14  2210    53443   79800      0    1.22e+00    0    8.48e-01
2005 03 14  2215    53443   80100      0    1.21e+00    0    8.50e-01
2005 03 14  2220    53443   80400      0    1.16e+00    0    8.08e-01
2005 03 14  2225    53443   80700      0    1.18e+00    0    8.31e-01
2005 03 14  2230    53443   81000      0    1.19e+00    0    8.39e-01
2005 03 14  2235    53443   81300      0    1.22e+00    0    8.42e-01
2005 03 14  2240    53443   81600      0    1.18e+00    0    8.27e-01
2005 03 14  2245    53443   81900      0    1.17e+00    0    8.17e-01
2005 03 14  2250    53443   82200      0    1.18e+00    0    8.27e-01
2005 03 14  2255    53443   82500      0    1.20e+00    0    8.42e-01
2005 03 14  2300    53443   82800      0    1.21e+00    0    8.39e-01
2005 03 14  2305    53443   83100      0    1.21e+00    0    8.42e-01
2005 03 14  2310    53443   83400      0    1.20e+00    0    8.43e-01
2005 03 14  2315    53443   83700      0    1.21e+00    0    8.37e-01
2005 03 14  2320    53443   84000      0    1.21e+00    0    8.52e-01
2005 03 14  2325    53443   84300      0    1.22e+00    0    8.60e-01
2005 03 14  2330    53443   84600      0    1.23e+00    0    8.62e-01
2005 03 14  2335    53443   84900      0    1.19e+00    0    8.39e-01
2005 03 14  2340    53443   85200      0    1.21e+00    0    8.57e-01
2005 03 14  2345    53443   85500      0    1.20e+00    0    8.49e-01
2005 03 14  2350    53443   85800      0    1.20e+00    0    8.39e-01
2005 03 14  2355    53443   86100      0    1.19e+00    0    8.38e-01
