:Data_list: 20050909_ace_sis_5m.txt
:Created: 2005 Sep 10 0011 UT
# Prepared by the U.S. Dept. of Commerce, NOAA, Space Environment Center.
# Please send comments and suggestions to SEC.Webmaster@noaa.gov 
# 
# Units: proton flux p/cs2-sec-ster
# Status(S): 0 = nominal data, 1 to 8 = bad data record, 9 = no data
# Missing data values: -1.00e+05
# Source: ACE Satellite - Solar Isotope Spectrometer
#
# 5-minute averaged Real-time Integral Flux of High-energy Solar Protons
# 
#                 Modified Seconds
# UT Date   Time   Julian  of the      ---- Integral Proton Flux ----
# YR MO DA  HHMM     Day     Day       S    > 10 MeV    S    > 30 MeV
#--------------------------------------------------------------------
2005 09 09  0000    53622       0      0    1.35e+02    0    6.91e+01
2005 09 09  0005    53622     300      0    1.37e+02    0    6.92e+01
2005 09 09  0010    53622     600      0    1.37e+02    0    6.93e+01
2005 09 09  0015    53622     900      0    1.37e+02    0    6.88e+01
2005 09 09  0020    53622    1200      0    1.38e+02    0    6.69e+01
2005 09 09  0025    53622    1500      0    1.32e+02    0    6.52e+01
2005 09 09  0030    53622    1800      0    1.27e+02    0    6.51e+01
2005 09 09  0035    53622    2100      0    1.37e+02    0    6.63e+01
2005 09 09  0040    53622    2400      0    1.46e+02    0    6.88e+01
2005 09 09  0045    53622    2700      0    1.86e+02    0    7.68e+01
2005 09 09  0050    53622    3000      0    2.26e+02    0    8.92e+01
2005 09 09  0055    53622    3300      0    2.40e+02    0    9.78e+01
2005 09 09  0100    53622    3600      0    2.46e+02    0    1.05e+02
2005 09 09  0105    53622    3900      0    2.56e+02    0    1.09e+02
2005 09 09  0110    53622    4200      0    2.87e+02    0    1.16e+02
2005 09 09  0115    53622    4500      0    2.72e+02    0    1.13e+02
2005 09 09  0120    53622    4800      0    2.44e+02    0    1.06e+02
2005 09 09  0125    53622    5100      0    2.56e+02    0    1.09e+02
2005 09 09  0130    53622    5400      0    3.18e+02    0    1.20e+02
2005 09 09  0135    53622    5700      0    3.43e+02    0    1.22e+02
2005 09 09  0140    53622    6000      0    3.63e+02    0    1.30e+02
2005 09 09  0145    53622    6300      0    3.82e+02    0    1.41e+02
2005 09 09  0150    53622    6600      0    4.03e+02    0    1.52e+02
2005 09 09  0155    53622    6900      0    3.96e+02    0    1.50e+02
2005 09 09  0200    53622    7200      0    3.98e+02    0    1.56e+02
2005 09 09  0205    53622    7500      0    4.13e+02    0    1.58e+02
2005 09 09  0210    53622    7800      0    4.00e+02    0    1.52e+02
2005 09 09  0215    53622    8100      0    3.99e+02    0    1.52e+02
2005 09 09  0220    53622    8400      0    3.95e+02    0    1.49e+02
2005 09 09  0225    53622    8700      0    4.05e+02    0    1.58e+02
2005 09 09  0230    53622    9000      0    3.72e+02    0    1.52e+02
2005 09 09  0235    53622    9300      0    3.56e+02    0    1.45e+02
2005 09 09  0240    53622    9600      0    3.33e+02    0    1.38e+02
2005 09 09  0245    53622    9900      0    3.34e+02    0    1.40e+02
2005 09 09  0250    53622   10200      0    3.22e+02    0    1.32e+02
2005 09 09  0255    53622   10500      0    3.11e+02    0    1.34e+02
2005 09 09  0300    53622   10800      0    3.18e+02    0    1.37e+02
2005 09 09  0305    53622   11100      0    3.16e+02    0    1.36e+02
2005 09 09  0310    53622   11400      0    3.17e+02    0    1.37e+02
2005 09 09  0315    53622   11700      0    3.19e+02    0    1.35e+02
2005 09 09  0320    53622   12000      0    3.27e+02    0    1.37e+02
2005 09 09  0325    53622   12300      0    3.28e+02    0    1.40e+02
2005 09 09  0330    53622   12600      0    3.25e+02    0    1.37e+02
2005 09 09  0335    53622   12900      0    3.22e+02    0    1.38e+02
2005 09 09  0340    53622   13200      0    3.27e+02    0    1.40e+02
2005 09 09  0345    53622   13500      0    3.33e+02    0    1.41e+02
2005 09 09  0350    53622   13800      0    3.43e+02    0    1.43e+02
2005 09 09  0355    53622   14100      0    3.44e+02    0    1.44e+02
2005 09 09  0400    53622   14400      0    3.45e+02    0    1.45e+02
2005 09 09  0405    53622   14700      0    3.50e+02    0    1.46e+02
2005 09 09  0410    53622   15000      0    3.36e+02    0    1.41e+02
2005 09 09  0415    53622   15300      0    3.18e+02    0    1.34e+02
2005 09 09  0420    53622   15600      0    3.07e+02    0    1.32e+02
2005 09 09  0425    53622   15900      0    2.87e+02    0    1.20e+02
2005 09 09  0430    53622   16200      0    2.78e+02    0    1.14e+02
2005 09 09  0435    53622   16500      0    2.68e+02    0    1.09e+02
2005 09 09  0440    53622   16800      0    2.60e+02    0    1.02e+02
2005 09 09  0445    53622   17100      0    2.55e+02    0    1.01e+02
2005 09 09  0450    53622   17400      0    2.50e+02    0    9.87e+01
2005 09 09  0455    53622   17700      0    2.49e+02    0    9.95e+01
2005 09 09  0500    53622   18000      0    2.48e+02    0    1.00e+02
2005 09 09  0505    53622   18300      0    2.48e+02    0    1.00e+02
2005 09 09  0510    53622   18600      0    2.49e+02    0    1.03e+02
2005 09 09  0515    53622   18900      0    2.48e+02    0    1.01e+02
2005 09 09  0520    53622   19200      0    2.48e+02    0    1.00e+02
2005 09 09  0525    53622   19500      0    2.49e+02    0    1.02e+02
2005 09 09  0530    53622   19800      0    2.49e+02    0    9.92e+01
2005 09 09  0535    53622   20100      0    2.49e+02    0    1.00e+02
2005 09 09  0540    53622   20400      0    2.57e+02    0    1.03e+02
2005 09 09  0545    53622   20700      0    2.61e+02    0    1.05e+02
2005 09 09  0550    53622   21000      0    2.62e+02    0    1.04e+02
2005 09 09  0555    53622   21300      0    2.59e+02    0    1.03e+02
2005 09 09  0600    53622   21600      0    2.62e+02    0    1.05e+02
2005 09 09  0605    53622   21900      0    2.68e+02    0    1.06e+02
2005 09 09  0610    53622   22200      0    2.68e+02    0    1.05e+02
2005 09 09  0615    53622   22500      0    2.83e+02    0    1.11e+02
2005 09 09  0620    53622   22800      0    2.84e+02    0    1.08e+02
2005 09 09  0625    53622   23100      0    2.84e+02    0    1.10e+02
2005 09 09  0630    53622   23400      0    2.93e+02    0    1.11e+02
2005 09 09  0635    53622   23700      0    2.96e+02    0    1.09e+02
2005 09 09  0640    53622   24000      0    3.00e+02    0    1.09e+02
2005 09 09  0645    53622   24300      0    2.99e+02    0    1.10e+02
2005 09 09  0650    53622   24600      0    3.01e+02    0    1.10e+02
2005 09 09  0655    53622   24900      0    2.92e+02    0    1.07e+02
2005 09 09  0700    53622   25200      0    2.95e+02    0    1.10e+02
2005 09 09  0705    53622   25500      0    3.02e+02    0    1.11e+02
2005 09 09  0710    53622   25800      0    2.95e+02    0    1.09e+02
2005 09 09  0715    53622   26100      0    2.92e+02    0    1.09e+02
2005 09 09  0720    53622   26400      0    2.84e+02    0    1.05e+02
2005 09 09  0725    53622   26700      0    2.92e+02    0    1.10e+02
2005 09 09  0730    53622   27000      0    2.86e+02    0    1.09e+02
2005 09 09  0735    53622   27300      0    2.85e+02    0    1.07e+02
2005 09 09  0740    53622   27600      0    2.84e+02    0    1.08e+02
2005 09 09  0745    53622   27900      0    2.83e+02    0    1.09e+02
2005 09 09  0750    53622   28200      0    2.83e+02    0    1.10e+02
2005 09 09  0755    53622   28500      0    2.70e+02    0    1.04e+02
2005 09 09  0800    53622   28800      0    2.56e+02    0    1.00e+02
2005 09 09  0805    53622   29100      0    2.44e+02    0    9.80e+01
2005 09 09  0810    53622   29400      0    2.37e+02    0    9.55e+01
2005 09 09  0815    53622   29700      0    2.27e+02    0    9.58e+01
2005 09 09  0820    53622   30000      0    2.25e+02    0    9.07e+01
2005 09 09  0825    53622   30300      0    2.29e+02    0    9.38e+01
2005 09 09  0830    53622   30600      0    2.30e+02    0    9.32e+01
2005 09 09  0835    53622   30900      0    2.27e+02    0    8.98e+01
2005 09 09  0840    53622   31200      0    2.26e+02    0    9.04e+01
2005 09 09  0845    53622   31500      0    2.23e+02    0    8.76e+01
2005 09 09  0850    53622   31800      0    2.25e+02    0    8.96e+01
2005 09 09  0855    53622   32100      0    2.25e+02    0    8.61e+01
2005 09 09  0900    53622   32400      0    2.30e+02    0    8.83e+01
2005 09 09  0905    53622   32700      0    2.25e+02    0    8.60e+01
2005 09 09  0910    53622   33000      0    2.28e+02    0    8.57e+01
2005 09 09  0915    53622   33300      0    2.22e+02    0    8.54e+01
2005 09 09  0920    53622   33600      0    2.17e+02    0    8.42e+01
2005 09 09  0925    53622   33900      0    2.18e+02    0    8.76e+01
2005 09 09  0930    53622   34200      0    2.18e+02    0    8.51e+01
2005 09 09  0935    53622   34500      0    2.11e+02    0    8.37e+01
2005 09 09  0940    53622   34800      0    2.15e+02    0    8.34e+01
2005 09 09  0945    53622   35100      0    2.28e+02    0    8.73e+01
2005 09 09  0950    53622   35400      0    2.41e+02    0    8.98e+01
2005 09 09  0955    53622   35700      0    2.53e+02    0    9.17e+01
2005 09 09  1000    53622   36000      0    2.52e+02    0    9.47e+01
2005 09 09  1005    53622   36300      0    2.46e+02    0    9.18e+01
2005 09 09  1010    53622   36600      0    2.53e+02    0    9.59e+01
2005 09 09  1015    53622   36900      0    2.67e+02    0    9.68e+01
2005 09 09  1020    53622   37200      0    2.74e+02    0    9.99e+01
2005 09 09  1025    53622   37500      0    2.66e+02    0    9.64e+01
2005 09 09  1030    53622   37800      0    2.66e+02    0    9.53e+01
2005 09 09  1035    53622   38100      0    2.67e+02    0    9.77e+01
2005 09 09  1040    53622   38400      0    2.45e+02    0    9.03e+01
2005 09 09  1045    53622   38700      0    2.28e+02    0    8.63e+01
2005 09 09  1050    53622   39000      0    2.23e+02    0    8.52e+01
2005 09 09  1055    53622   39300      0    2.16e+02    0    8.13e+01
2005 09 09  1100    53622   39600      0    2.14e+02    0    8.40e+01
2005 09 09  1105    53622   39900      0    2.13e+02    0    7.90e+01
2005 09 09  1110    53622   40200      0    2.08e+02    0    7.96e+01
2005 09 09  1115    53622   40500      0    2.05e+02    0    7.72e+01
2005 09 09  1120    53622   40800      0    2.12e+02    0    8.07e+01
2005 09 09  1125    53622   41100      0    2.12e+02    0    8.04e+01
2005 09 09  1130    53622   41400      0    2.13e+02    0    7.83e+01
2005 09 09  1135    53622   41700      0    2.16e+02    0    7.73e+01
2005 09 09  1140    53622   42000      0    2.25e+02    0    8.01e+01
2005 09 09  1145    53622   42300      0    2.28e+02    0    8.18e+01
2005 09 09  1150    53622   42600      0    2.26e+02    0    8.30e+01
2005 09 09  1155    53622   42900      0    2.17e+02    0    8.24e+01
2005 09 09  1200    53622   43200      0    2.20e+02    0    8.46e+01
2005 09 09  1205    53622   43500      0    2.36e+02    0    9.08e+01
2005 09 09  1210    53622   43800      0    2.38e+02    0    9.04e+01
2005 09 09  1215    53622   44100      0    2.58e+02    0    9.71e+01
2005 09 09  1220    53622   44400      0    2.55e+02    0    9.40e+01
2005 09 09  1225    53622   44700      0    2.60e+02    0    9.60e+01
2005 09 09  1230    53622   45000      0    2.61e+02    0    9.57e+01
2005 09 09  1235    53622   45300      0    2.64e+02    0    9.88e+01
2005 09 09  1240    53622   45600      0    2.58e+02    0    9.75e+01
2005 09 09  1245    53622   45900      0    2.48e+02    0    9.08e+01
2005 09 09  1250    53622   46200      0    2.59e+02    0    9.52e+01
2005 09 09  1255    53622   46500      0    2.61e+02    0    1.00e+02
2005 09 09  1300    53622   46800      0    2.55e+02    0    9.49e+01
2005 09 09  1305    53622   47100      0    2.58e+02    0    9.64e+01
2005 09 09  1310    53622   47400      0    2.57e+02    0    9.70e+01
2005 09 09  1315    53622   47700      0    2.71e+02    0    1.03e+02
2005 09 09  1320    53622   48000      0    3.09e+02    0    1.15e+02
2005 09 09  1325    53622   48300      0    3.05e+02    0    1.13e+02
2005 09 09  1330    53622   48600      0    2.96e+02    0    1.08e+02
2005 09 09  1335    53622   48900      0    3.11e+02    0    1.15e+02
2005 09 09  1340    53622   49200      0    3.35e+02    0    1.26e+02
2005 09 09  1345    53622   49500      0    3.92e+02    0    1.39e+02
2005 09 09  1350    53622   49800      0    3.87e+02    0    1.36e+02
2005 09 09  1355    53622   50100      0    3.84e+02    0    1.34e+02
2005 09 09  1400    53622   50400      0    3.80e+02    0    1.35e+02
2005 09 09  1405    53622   50700      0    3.93e+02    0    1.43e+02
2005 09 09  1410    53622   51000      0    4.00e+02    0    1.45e+02
2005 09 09  1415    53622   51300      0    4.04e+02    0    1.45e+02
2005 09 09  1420    53622   51600      0    4.32e+02    0    1.60e+02
2005 09 09  1425    53622   51900      0    4.61e+02    0    1.68e+02
2005 09 09  1430    53622   52200      0    4.79e+02    0    1.70e+02
2005 09 09  1435    53622   52500      0    4.81e+02    0    1.77e+02
2005 09 09  1440    53622   52800      0    4.95e+02    0    1.78e+02
2005 09 09  1445    53622   53100      0    4.91e+02    0    1.71e+02
2005 09 09  1450    53622   53400      0    4.98e+02    0    1.81e+02
2005 09 09  1455    53622   53700      0    5.10e+02    0    1.82e+02
2005 09 09  1500    53622   54000      0    5.15e+02    0    1.86e+02
2005 09 09  1505    53622   54300      0    5.17e+02    0    1.86e+02
2005 09 09  1510    53622   54600      0    5.04e+02    0    1.83e+02
2005 09 09  1515    53622   54900      0    5.02e+02    0    1.81e+02
2005 09 09  1520    53622   55200      0    5.32e+02    0    1.94e+02
2005 09 09  1525    53622   55500      0    5.48e+02    0    1.94e+02
2005 09 09  1530    53622   55800      0    5.21e+02    0    1.84e+02
2005 09 09  1535    53622   56100      0    5.27e+02    0    1.90e+02
2005 09 09  1540    53622   56400      0    5.19e+02    0    1.92e+02
2005 09 09  1545    53622   56700      0    5.20e+02    0    1.89e+02
2005 09 09  1550    53622   57000      0    5.35e+02    0    1.95e+02
2005 09 09  1555    53622   57300      0    5.73e+02    0    2.13e+02
2005 09 09  1600    53622   57600      0    5.95e+02    0    2.23e+02
2005 09 09  1605    53622   57900      0    5.74e+02    0    2.13e+02
2005 09 09  1610    53622   58200      0    5.75e+02    0    2.08e+02
2005 09 09  1615    53622   58500      0    5.76e+02    0    2.12e+02
2005 09 09  1620    53622   58800      0    5.85e+02    0    2.18e+02
2005 09 09  1625    53622   59100      0    6.15e+02    0    2.27e+02
2005 09 09  1630    53622   59400      0    6.23e+02    0    2.33e+02
2005 09 09  1635    53622   59700      0    6.22e+02    0    2.32e+02
2005 09 09  1640    53622   60000      0    6.41e+02    0    2.40e+02
2005 09 09  1645    53622   60300      0    6.31e+02    0    2.33e+02
2005 09 09  1650    53622   60600      0    6.02e+02    0    2.18e+02
2005 09 09  1655    53622   60900      9   -1.00e+05    9   -1.00e+05
2005 09 09  1700    53622   61200      9   -1.00e+05    9   -1.00e+05
2005 09 09  1705    53622   61500      9   -1.00e+05    9   -1.00e+05
2005 09 09  1710    53622   61800      0    5.45e+02    0    1.95e+02
2005 09 09  1715    53622   62100      0    5.41e+02    0    1.91e+02
2005 09 09  1720    53622   62400      0    5.34e+02    0    1.92e+02
2005 09 09  1725    53622   62700      0    5.27e+02    0    1.87e+02
2005 09 09  1730    53622   63000      0    5.23e+02    0    1.89e+02
2005 09 09  1735    53622   63300      0    5.59e+02    0    2.06e+02
2005 09 09  1740    53622   63600      0    6.00e+02    0    2.26e+02
2005 09 09  1745    53622   63900      0    6.18e+02    0    2.25e+02
2005 09 09  1750    53622   64200      0    6.37e+02    0    2.35e+02
2005 09 09  1755    53622   64500      0    6.47e+02    0    2.26e+02
2005 09 09  1800    53622   64800      0    6.90e+02    0    2.45e+02
2005 09 09  1805    53622   65100      0    7.11e+02    0    2.47e+02
2005 09 09  1810    53622   65400      0    7.57e+02    0    2.68e+02
2005 09 09  1815    53622   65700      0    7.59e+02    0    2.68e+02
2005 09 09  1820    53622   66000      0    7.77e+02    0    2.72e+02
2005 09 09  1825    53622   66300      0    8.41e+02    0    2.88e+02
2005 09 09  1830    53622   66600      0    8.37e+02    0    2.92e+02
2005 09 09  1835    53622   66900      0    8.35e+02    0    2.88e+02
2005 09 09  1840    53622   67200      0    9.11e+02    0    2.98e+02
2005 09 09  1845    53622   67500      0    9.09e+02    0    3.01e+02
2005 09 09  1850    53622   67800      0    9.07e+02    0    3.04e+02
2005 09 09  1855    53622   68100      0    9.46e+02    0    3.15e+02
2005 09 09  1900    53622   68400      0    9.37e+02    0    3.14e+02
2005 09 09  1905    53622   68700      0    9.34e+02    0    3.10e+02
2005 09 09  1910    53622   69000      0    9.30e+02    0    3.00e+02
2005 09 09  1915    53622   69300      0    9.11e+02    0    3.04e+02
2005 09 09  1920    53622   69600      0    9.15e+02    0    2.92e+02
2005 09 09  1925    53622   69900      0    9.26e+02    0    3.03e+02
2005 09 09  1930    53622   70200      0    9.11e+02    0    3.00e+02
2005 09 09  1935    53622   70500      0    9.08e+02    0    3.03e+02
2005 09 09  1940    53622   70800      0    8.98e+02    0    2.96e+02
2005 09 09  1945    53622   71100      0    8.89e+02    0    2.93e+02
2005 09 09  1950    53622   71400      0    9.16e+02    0    3.02e+02
2005 09 09  1955    53622   71700      0    9.20e+02    0    2.97e+02
2005 09 09  2000    53622   72000      0    9.09e+02    0    2.91e+02
2005 09 09  2005    53622   72300      0    8.92e+02    0    2.87e+02
2005 09 09  2010    53622   72600      0    8.86e+02    0    2.88e+02
2005 09 09  2015    53622   72900      0    8.89e+02    0    2.88e+02
2005 09 09  2020    53622   73200      0    8.97e+02    0    2.88e+02
2005 09 09  2025    53622   73500      0    9.04e+02    0    2.95e+02
2005 09 09  2030    53622   73800      0    8.79e+02    0    3.05e+02
2005 09 09  2035    53622   74100      9   -1.00e+05    9   -1.00e+05
2005 09 09  2040    53622   74400      0    9.27e+02    0    2.97e+02
2005 09 09  2045    53622   74700      0    9.38e+02    0    3.06e+02
2005 09 09  2050    53622   75000      0    9.33e+02    0    3.06e+02
2005 09 09  2055    53622   75300      0    9.53e+02    0    3.05e+02
2005 09 09  2100    53622   75600      0    1.01e+03    0    3.18e+02
2005 09 09  2105    53622   75900      0    1.02e+03    0    3.18e+02
2005 09 09  2110    53622   76200      0    1.00e+03    0    3.26e+02
2005 09 09  2115    53622   76500      0    9.79e+02    0    3.17e+02
2005 09 09  2120    53622   76800      9   -1.00e+05    9   -1.00e+05
2005 09 09  2125    53622   77100      9   -1.00e+05    9   -1.00e+05
2005 09 09  2130    53622   77400      9   -1.00e+05    9   -1.00e+05
2005 09 09  2135    53622   77700      0    1.05e+03    0    3.37e+02
2005 09 09  2140    53622   78000      0    1.13e+03    0    3.61e+02
2005 09 09  2145    53622   78300      0    1.22e+03    0    3.71e+02
2005 09 09  2150    53622   78600      0    1.22e+03    0    3.83e+02
2005 09 09  2155    53622   78900      0    1.23e+03    0    3.64e+02
2005 09 09  2200    53622   79200      0    1.23e+03    0    3.88e+02
2005 09 09  2205    53622   79500      0    1.21e+03    0    3.70e+02
2005 09 09  2210    53622   79800      0    1.21e+03    0    3.77e+02
2005 09 09  2215    53622   80100      0    1.17e+03    0    3.60e+02
2005 09 09  2220    53622   80400      0    1.16e+03    0    3.53e+02
2005 09 09  2225    53622   80700      0    1.17e+03    0    3.66e+02
2005 09 09  2230    53622   81000      0    1.19e+03    0    3.60e+02
2005 09 09  2235    53622   81300      0    1.23e+03    0    3.81e+02
2005 09 09  2240    53622   81600      0    1.21e+03    0    3.72e+02
2005 09 09  2245    53622   81900      0    1.15e+03    0    3.44e+02
2005 09 09  2250    53622   82200      0    1.17e+03    0    3.53e+02
2005 09 09  2255    53622   82500      0    1.19e+03    0    3.57e+02
2005 09 09  2300    53622   82800      0    1.20e+03    0    3.62e+02
2005 09 09  2305    53622   83100      0    1.18e+03    0    3.62e+02
2005 09 09  2310    53622   83400      0    1.17e+03    0    3.50e+02
2005 09 09  2315    53622   83700      0    1.14e+03    0    3.37e+02
2005 09 09  2320    53622   84000      0    1.17e+03    0    3.40e+02
2005 09 09  2325    53622   84300      0    1.17e+03    0    3.50e+02
2005 09 09  2330    53622   84600      0    1.21e+03    0    3.50e+02
2005 09 09  2335    53622   84900      0    1.32e+03    0    3.86e+02
2005 09 09  2340    53622   85200      0    1.37e+03    0    4.04e+02
2005 09 09  2345    53622   85500      0    1.41e+03    0    3.85e+02
2005 09 09  2350    53622   85800      0    1.38e+03    0    3.91e+02
2005 09 09  2355    53622   86100      0    1.40e+03    0    4.10e+02
