:Data_list: 20050829_ace_sis_5m.txt
:Created: 2005 Aug 30 0011 UT
# Prepared by the U.S. Dept. of Commerce, NOAA, Space Environment Center.
# Please send comments and suggestions to SEC.Webmaster@noaa.gov 
# 
# Units: proton flux p/cs2-sec-ster
# Status(S): 0 = nominal data, 1 to 8 = bad data record, 9 = no data
# Missing data values: -1.00e+05
# Source: ACE Satellite - Solar Isotope Spectrometer
#
# 5-minute averaged Real-time Integral Flux of High-energy Solar Protons
# 
#                 Modified Seconds
# UT Date   Time   Julian  of the      ---- Integral Proton Flux ----
# YR MO DA  HHMM     Day     Day       S    > 10 MeV    S    > 30 MeV
#--------------------------------------------------------------------
2005 08 29  0000    53611       0      0    1.29e+00    0    8.68e-01
2005 08 29  0005    53611     300      0    1.29e+00    0    8.71e-01
2005 08 29  0010    53611     600      0    1.27e+00    0    8.52e-01
2005 08 29  0015    53611     900      0    1.30e+00    0    8.77e-01
2005 08 29  0020    53611    1200      0    1.27e+00    0    8.54e-01
2005 08 29  0025    53611    1500      0    1.31e+00    0    8.83e-01
2005 08 29  0030    53611    1800      0    1.28e+00    0    8.53e-01
2005 08 29  0035    53611    2100      0    1.29e+00    0    8.66e-01
2005 08 29  0040    53611    2400      0    1.28e+00    0    8.64e-01
2005 08 29  0045    53611    2700      0    1.29e+00    0    8.61e-01
2005 08 29  0050    53611    3000      0    1.27e+00    0    8.55e-01
2005 08 29  0055    53611    3300      0    1.28e+00    0    8.58e-01
2005 08 29  0100    53611    3600      0    1.30e+00    0    8.78e-01
2005 08 29  0105    53611    3900      0    1.31e+00    0    8.89e-01
2005 08 29  0110    53611    4200      0    1.32e+00    0    8.94e-01
2005 08 29  0115    53611    4500      0    1.31e+00    0    8.83e-01
2005 08 29  0120    53611    4800      0    1.31e+00    0    8.86e-01
2005 08 29  0125    53611    5100      0    1.29e+00    0    8.68e-01
2005 08 29  0130    53611    5400      0    1.26e+00    0    8.29e-01
2005 08 29  0135    53611    5700      0    1.29e+00    0    8.71e-01
2005 08 29  0140    53611    6000      0    1.26e+00    0    8.46e-01
2005 08 29  0145    53611    6300      0    1.26e+00    0    8.41e-01
2005 08 29  0150    53611    6600      0    1.27e+00    0    8.47e-01
2005 08 29  0155    53611    6900      0    1.26e+00    0    8.49e-01
2005 08 29  0200    53611    7200      0    1.28e+00    0    8.63e-01
2005 08 29  0205    53611    7500      0    1.26e+00    0    8.37e-01
2005 08 29  0210    53611    7800      0    1.27e+00    0    8.60e-01
2005 08 29  0215    53611    8100      0    1.30e+00    0    8.69e-01
2005 08 29  0220    53611    8400      0    1.28e+00    0    8.63e-01
2005 08 29  0225    53611    8700      0    1.30e+00    0    8.79e-01
2005 08 29  0230    53611    9000      0    1.27e+00    0    8.56e-01
2005 08 29  0235    53611    9300      0    1.28e+00    0    8.69e-01
2005 08 29  0240    53611    9600      0    1.29e+00    0    8.68e-01
2005 08 29  0245    53611    9900      0    1.30e+00    0    8.81e-01
2005 08 29  0250    53611   10200      0    1.29e+00    0    8.74e-01
2005 08 29  0255    53611   10500      0    1.32e+00    0    8.84e-01
2005 08 29  0300    53611   10800      0    1.29e+00    0    8.68e-01
2005 08 29  0305    53611   11100      0    1.29e+00    0    8.72e-01
2005 08 29  0310    53611   11400      0    1.28e+00    0    8.56e-01
2005 08 29  0315    53611   11700      0    1.28e+00    0    8.67e-01
2005 08 29  0320    53611   12000      0    1.28e+00    0    8.61e-01
2005 08 29  0325    53611   12300      0    1.27e+00    0    8.59e-01
2005 08 29  0330    53611   12600      0    1.28e+00    0    8.68e-01
2005 08 29  0335    53611   12900      0    1.30e+00    0    8.83e-01
2005 08 29  0340    53611   13200      0    1.27e+00    0    8.66e-01
2005 08 29  0345    53611   13500      0    1.26e+00    0    8.47e-01
2005 08 29  0350    53611   13800      0    1.25e+00    0    8.46e-01
2005 08 29  0355    53611   14100      0    1.29e+00    0    8.70e-01
2005 08 29  0400    53611   14400      0    1.27e+00    0    8.58e-01
2005 08 29  0405    53611   14700      0    1.26e+00    0    8.52e-01
2005 08 29  0410    53611   15000      0    1.27e+00    0    8.51e-01
2005 08 29  0415    53611   15300      0    1.29e+00    0    8.72e-01
2005 08 29  0420    53611   15600      0    1.25e+00    0    8.47e-01
2005 08 29  0425    53611   15900      0    1.30e+00    0    8.86e-01
2005 08 29  0430    53611   16200      0    1.30e+00    0    8.69e-01
2005 08 29  0435    53611   16500      0    1.29e+00    0    8.73e-01
2005 08 29  0440    53611   16800      0    1.27e+00    0    8.58e-01
2005 08 29  0445    53611   17100      0    1.31e+00    0    8.98e-01
2005 08 29  0450    53611   17400      0    1.31e+00    0    8.84e-01
2005 08 29  0455    53611   17700      0    1.26e+00    0    8.57e-01
2005 08 29  0500    53611   18000      0    1.27e+00    0    8.47e-01
2005 08 29  0505    53611   18300      0    1.27e+00    0    8.62e-01
2005 08 29  0510    53611   18600      0    1.25e+00    0    8.48e-01
2005 08 29  0515    53611   18900      0    1.31e+00    0    8.82e-01
2005 08 29  0520    53611   19200      0    1.31e+00    0    8.86e-01
2005 08 29  0525    53611   19500      0    1.28e+00    0    8.57e-01
2005 08 29  0530    53611   19800      0    1.29e+00    0    8.76e-01
2005 08 29  0535    53611   20100      0    1.25e+00    0    8.41e-01
2005 08 29  0540    53611   20400      0    1.31e+00    0    8.80e-01
2005 08 29  0545    53611   20700      0    1.27e+00    0    8.68e-01
2005 08 29  0550    53611   21000      0    1.28e+00    0    8.67e-01
2005 08 29  0555    53611   21300      0    1.26e+00    0    8.44e-01
2005 08 29  0600    53611   21600      0    1.28e+00    0    8.65e-01
2005 08 29  0605    53611   21900      0    1.28e+00    0    8.77e-01
2005 08 29  0610    53611   22200      0    1.28e+00    0    8.84e-01
2005 08 29  0615    53611   22500      0    1.29e+00    0    8.73e-01
2005 08 29  0620    53611   22800      0    1.28e+00    0    8.62e-01
2005 08 29  0625    53611   23100      0    1.28e+00    0    8.82e-01
2005 08 29  0630    53611   23400      0    1.29e+00    0    8.87e-01
2005 08 29  0635    53611   23700      0    1.27e+00    0    8.64e-01
2005 08 29  0640    53611   24000      0    1.27e+00    0    8.61e-01
2005 08 29  0645    53611   24300      0    1.29e+00    0    8.83e-01
2005 08 29  0650    53611   24600      0    1.27e+00    0    8.64e-01
2005 08 29  0655    53611   24900      0    1.29e+00    0    8.70e-01
2005 08 29  0700    53611   25200      0    1.28e+00    0    8.73e-01
2005 08 29  0705    53611   25500      0    1.27e+00    0    8.71e-01
2005 08 29  0710    53611   25800      0    1.28e+00    0    8.68e-01
2005 08 29  0715    53611   26100      0    1.30e+00    0    8.83e-01
2005 08 29  0720    53611   26400      0    1.26e+00    0    8.64e-01
2005 08 29  0725    53611   26700      0    1.25e+00    0    8.51e-01
2005 08 29  0730    53611   27000      0    1.28e+00    0    8.65e-01
2005 08 29  0735    53611   27300      0    1.27e+00    0    8.69e-01
2005 08 29  0740    53611   27600      0    1.29e+00    0    8.87e-01
2005 08 29  0745    53611   27900      0    1.28e+00    0    8.72e-01
2005 08 29  0750    53611   28200      0    1.29e+00    0    8.74e-01
2005 08 29  0755    53611   28500      0    1.30e+00    0    8.76e-01
2005 08 29  0800    53611   28800      0    1.29e+00    0    8.82e-01
2005 08 29  0805    53611   29100      0    1.29e+00    0    8.84e-01
2005 08 29  0810    53611   29400      0    1.30e+00    0    8.91e-01
2005 08 29  0815    53611   29700      0    1.28e+00    0    8.63e-01
2005 08 29  0820    53611   30000      0    1.30e+00    0    8.93e-01
2005 08 29  0825    53611   30300      0    1.28e+00    0    8.82e-01
2005 08 29  0830    53611   30600      0    1.26e+00    0    8.76e-01
2005 08 29  0835    53611   30900      0    1.27e+00    0    8.67e-01
2005 08 29  0840    53611   31200      0    1.29e+00    0    8.73e-01
2005 08 29  0845    53611   31500      0    1.29e+00    0    8.78e-01
2005 08 29  0850    53611   31800      0    1.24e+00    0    8.39e-01
2005 08 29  0855    53611   32100      0    1.29e+00    0    8.86e-01
2005 08 29  0900    53611   32400      0    1.27e+00    0    8.61e-01
2005 08 29  0905    53611   32700      0    1.31e+00    0    8.98e-01
2005 08 29  0910    53611   33000      0    1.27e+00    0    8.69e-01
2005 08 29  0915    53611   33300      0    1.25e+00    0    8.52e-01
2005 08 29  0920    53611   33600      0    1.27e+00    0    8.63e-01
2005 08 29  0925    53611   33900      0    1.30e+00    0    8.89e-01
2005 08 29  0930    53611   34200      0    1.27e+00    0    8.67e-01
2005 08 29  0935    53611   34500      0    1.30e+00    0    8.89e-01
2005 08 29  0940    53611   34800      0    1.26e+00    0    8.68e-01
2005 08 29  0945    53611   35100      0    1.25e+00    0    8.55e-01
2005 08 29  0950    53611   35400      0    1.29e+00    0    8.90e-01
2005 08 29  0955    53611   35700      0    1.28e+00    0    8.74e-01
2005 08 29  1000    53611   36000      0    1.26e+00    0    8.58e-01
2005 08 29  1005    53611   36300      0    1.29e+00    0    8.88e-01
2005 08 29  1010    53611   36600      0    1.29e+00    0    8.79e-01
2005 08 29  1015    53611   36900      0    1.29e+00    0    8.71e-01
2005 08 29  1020    53611   37200      0    1.30e+00    0    8.92e-01
2005 08 29  1025    53611   37500      0    1.30e+00    0    8.83e-01
2005 08 29  1030    53611   37800      0    1.25e+00    0    8.57e-01
2005 08 29  1035    53611   38100      0    1.28e+00    0    8.77e-01
2005 08 29  1040    53611   38400      0    1.26e+00    0    8.63e-01
2005 08 29  1045    53611   38700      0    1.26e+00    0    8.68e-01
2005 08 29  1050    53611   39000      0    1.29e+00    0    8.84e-01
2005 08 29  1055    53611   39300      0    1.27e+00    0    8.71e-01
2005 08 29  1100    53611   39600      0    1.28e+00    0    8.69e-01
2005 08 29  1105    53611   39900      0    1.30e+00    0    8.94e-01
2005 08 29  1110    53611   40200      0    1.29e+00    0    8.96e-01
2005 08 29  1115    53611   40500      0    1.27e+00    0    8.71e-01
2005 08 29  1120    53611   40800      0    1.27e+00    0    8.76e-01
2005 08 29  1125    53611   41100      0    1.30e+00    0    8.97e-01
2005 08 29  1130    53611   41400      0    1.28e+00    0    8.79e-01
2005 08 29  1135    53611   41700      0    1.27e+00    0    8.69e-01
2005 08 29  1140    53611   42000      0    1.27e+00    0    8.69e-01
2005 08 29  1145    53611   42300      0    1.25e+00    0    8.68e-01
2005 08 29  1150    53611   42600      0    1.26e+00    0    8.63e-01
2005 08 29  1155    53611   42900      0    1.27e+00    0    8.63e-01
2005 08 29  1200    53611   43200      0    1.29e+00    0    8.86e-01
2005 08 29  1205    53611   43500      0    1.26e+00    0    8.58e-01
2005 08 29  1210    53611   43800      0    1.31e+00    0    9.13e-01
2005 08 29  1215    53611   44100      0    1.26e+00    0    8.58e-01
2005 08 29  1220    53611   44400      0    1.33e+00    0    9.12e-01
2005 08 29  1225    53611   44700      0    1.28e+00    0    8.84e-01
2005 08 29  1230    53611   45000      0    1.30e+00    0    8.89e-01
2005 08 29  1235    53611   45300      0    1.32e+00    0    9.01e-01
2005 08 29  1240    53611   45600      0    1.30e+00    0    8.83e-01
2005 08 29  1245    53611   45900      0    1.32e+00    0    8.98e-01
2005 08 29  1250    53611   46200      0    1.32e+00    0    8.98e-01
2005 08 29  1255    53611   46500      0    1.33e+00    0    9.11e-01
2005 08 29  1300    53611   46800      0    1.28e+00    0    8.83e-01
2005 08 29  1305    53611   47100      0    1.30e+00    0    9.03e-01
2005 08 29  1310    53611   47400      0    1.31e+00    0    8.94e-01
2005 08 29  1315    53611   47700      0    1.32e+00    0    9.01e-01
2005 08 29  1320    53611   48000      0    1.33e+00    0    9.19e-01
2005 08 29  1325    53611   48300      0    1.35e+00    0    9.20e-01
2005 08 29  1330    53611   48600      0    1.33e+00    0    9.16e-01
2005 08 29  1335    53611   48900      0    1.35e+00    0    9.18e-01
2005 08 29  1340    53611   49200      0    1.37e+00    0    9.42e-01
2005 08 29  1345    53611   49500      0    1.38e+00    0    9.59e-01
2005 08 29  1350    53611   49800      0    1.36e+00    0    9.35e-01
2005 08 29  1355    53611   50100      0    1.41e+00    0    9.61e-01
2005 08 29  1400    53611   50400      0    1.36e+00    0    9.33e-01
2005 08 29  1405    53611   50700      0    1.42e+00    0    9.66e-01
2005 08 29  1410    53611   51000      0    1.42e+00    0    9.67e-01
2005 08 29  1415    53611   51300      0    1.42e+00    0    9.71e-01
2005 08 29  1420    53611   51600      0    1.44e+00    0    9.72e-01
2005 08 29  1425    53611   51900      0    1.44e+00    0    9.73e-01
2005 08 29  1430    53611   52200      0    1.49e+00    0    1.01e+00
2005 08 29  1435    53611   52500      0    1.51e+00    0    1.02e+00
2005 08 29  1440    53611   52800      0    1.52e+00    0    1.02e+00
2005 08 29  1445    53611   53100      0    1.55e+00    0    1.04e+00
2005 08 29  1450    53611   53400      0    1.53e+00    0    1.03e+00
2005 08 29  1455    53611   53700      0    1.52e+00    0    1.02e+00
2005 08 29  1500    53611   54000      0    1.56e+00    0    1.05e+00
2005 08 29  1505    53611   54300      0    1.60e+00    0    1.08e+00
2005 08 29  1510    53611   54600      0    1.56e+00    0    1.05e+00
2005 08 29  1515    53611   54900      0    1.64e+00    0    1.10e+00
2005 08 29  1520    53611   55200      0    1.61e+00    0    1.07e+00
2005 08 29  1525    53611   55500      0    1.64e+00    0    1.10e+00
2005 08 29  1530    53611   55800      0    1.67e+00    0    1.12e+00
2005 08 29  1535    53611   56100      0    1.67e+00    0    1.12e+00
2005 08 29  1540    53611   56400      0    1.69e+00    0    1.13e+00
2005 08 29  1545    53611   56700      0    1.72e+00    0    1.13e+00
2005 08 29  1550    53611   57000      0    1.72e+00    0    1.15e+00
2005 08 29  1555    53611   57300      0    1.76e+00    0    1.19e+00
2005 08 29  1600    53611   57600      0    1.78e+00    0    1.17e+00
2005 08 29  1605    53611   57900      0    1.77e+00    0    1.16e+00
2005 08 29  1610    53611   58200      0    1.76e+00    0    1.15e+00
2005 08 29  1615    53611   58500      0    1.82e+00    0    1.20e+00
2005 08 29  1620    53611   58800      0    1.92e+00    0    1.23e+00
2005 08 29  1625    53611   59100      0    1.94e+00    0    1.23e+00
2005 08 29  1630    53611   59400      0    2.09e+00    0    1.31e+00
2005 08 29  1635    53611   59700      0    2.10e+00    0    1.30e+00
2005 08 29  1640    53611   60000      0    2.10e+00    0    1.30e+00
2005 08 29  1645    53611   60300      0    2.20e+00    0    1.34e+00
2005 08 29  1650    53611   60600      0    2.24e+00    0    1.36e+00
2005 08 29  1655    53611   60900      0    2.13e+00    0    1.31e+00
2005 08 29  1700    53611   61200      0    2.10e+00    0    1.32e+00
2005 08 29  1705    53611   61500      0    2.21e+00    0    1.36e+00
2005 08 29  1710    53611   61800      0    2.17e+00    0    1.35e+00
2005 08 29  1715    53611   62100      0    2.08e+00    0    1.30e+00
2005 08 29  1720    53611   62400      0    2.11e+00    0    1.31e+00
2005 08 29  1725    53611   62700      0    2.07e+00    0    1.29e+00
2005 08 29  1730    53611   63000      0    2.14e+00    0    1.34e+00
2005 08 29  1735    53611   63300      0    2.21e+00    0    1.35e+00
2005 08 29  1740    53611   63600      0    2.23e+00    0    1.33e+00
2005 08 29  1745    53611   63900      0    2.24e+00    0    1.34e+00
2005 08 29  1750    53611   64200      0    2.22e+00    0    1.34e+00
2005 08 29  1755    53611   64500      0    2.25e+00    0    1.35e+00
2005 08 29  1800    53611   64800      0    2.22e+00    0    1.33e+00
2005 08 29  1805    53611   65100      0    2.27e+00    0    1.37e+00
2005 08 29  1810    53611   65400      0    2.26e+00    0    1.35e+00
2005 08 29  1815    53611   65700      0    2.21e+00    0    1.33e+00
2005 08 29  1820    53611   66000      0    2.16e+00    0    1.31e+00
2005 08 29  1825    53611   66300      0    2.16e+00    0    1.30e+00
2005 08 29  1830    53611   66600      0    2.12e+00    0    1.28e+00
2005 08 29  1835    53611   66900      0    2.16e+00    0    1.31e+00
2005 08 29  1840    53611   67200      0    2.18e+00    0    1.32e+00
2005 08 29  1845    53611   67500      0    2.20e+00    0    1.31e+00
2005 08 29  1850    53611   67800      0    2.21e+00    0    1.33e+00
2005 08 29  1855    53611   68100      0    2.22e+00    0    1.33e+00
2005 08 29  1900    53611   68400      0    2.26e+00    0    1.33e+00
2005 08 29  1905    53611   68700      0    2.30e+00    0    1.35e+00
2005 08 29  1910    53611   69000      0    2.27e+00    0    1.34e+00
2005 08 29  1915    53611   69300      0    2.28e+00    0    1.33e+00
2005 08 29  1920    53611   69600      0    2.27e+00    0    1.32e+00
2005 08 29  1925    53611   69900      0    2.30e+00    0    1.33e+00
2005 08 29  1930    53611   70200      0    2.35e+00    0    1.36e+00
2005 08 29  1935    53611   70500      0    2.34e+00    0    1.34e+00
2005 08 29  1940    53611   70800      0    2.32e+00    0    1.32e+00
2005 08 29  1945    53611   71100      0    2.41e+00    0    1.36e+00
2005 08 29  1950    53611   71400      0    2.41e+00    0    1.35e+00
2005 08 29  1955    53611   71700      0    2.37e+00    0    1.33e+00
2005 08 29  2000    53611   72000      0    2.42e+00    0    1.35e+00
2005 08 29  2005    53611   72300      0    2.43e+00    0    1.35e+00
2005 08 29  2010    53611   72600      0    2.43e+00    0    1.33e+00
2005 08 29  2015    53611   72900      0    2.44e+00    0    1.34e+00
2005 08 29  2020    53611   73200      9   -1.00e+05    9   -1.00e+05
2005 08 29  2025    53611   73500      9   -1.00e+05    9   -1.00e+05
2005 08 29  2030    53611   73800      9   -1.00e+05    9   -1.00e+05
2005 08 29  2035    53611   74100      9   -1.00e+05    9   -1.00e+05
2005 08 29  2040    53611   74400      0    2.52e+00    0    1.39e+00
2005 08 29  2045    53611   74700      0    2.46e+00    0    1.29e+00
2005 08 29  2050    53611   75000      0    2.56e+00    0    1.34e+00
2005 08 29  2055    53611   75300      0    2.53e+00    0    1.32e+00
2005 08 29  2100    53611   75600      0    2.51e+00    0    1.30e+00
2005 08 29  2105    53611   75900      0    2.47e+00    0    1.32e+00
2005 08 29  2110    53611   76200      0    2.48e+00    0    1.30e+00
2005 08 29  2115    53611   76500      0    2.54e+00    0    1.36e+00
2005 08 29  2120    53611   76800      0    2.53e+00    0    1.32e+00
2005 08 29  2125    53611   77100      0    2.53e+00    0    1.33e+00
2005 08 29  2130    53611   77400      0    2.49e+00    0    1.31e+00
2005 08 29  2135    53611   77700      0    2.56e+00    0    1.33e+00
2005 08 29  2140    53611   78000      0    2.53e+00    0    1.33e+00
2005 08 29  2145    53611   78300      0    2.53e+00    0    1.32e+00
2005 08 29  2150    53611   78600      0    2.52e+00    0    1.32e+00
2005 08 29  2155    53611   78900      0    2.55e+00    0    1.34e+00
2005 08 29  2200    53611   79200      0    2.55e+00    0    1.31e+00
2005 08 29  2205    53611   79500      0    2.60e+00    0    1.31e+00
2005 08 29  2210    53611   79800      0    2.62e+00    0    1.35e+00
2005 08 29  2215    53611   80100      0    2.54e+00    0    1.29e+00
2005 08 29  2220    53611   80400      0    2.64e+00    0    1.35e+00
2005 08 29  2225    53611   80700      0    2.62e+00    0    1.35e+00
2005 08 29  2230    53611   81000      0    2.64e+00    0    1.33e+00
2005 08 29  2235    53611   81300      0    2.60e+00    0    1.33e+00
2005 08 29  2240    53611   81600      0    2.61e+00    0    1.32e+00
2005 08 29  2245    53611   81900      0    2.65e+00    0    1.36e+00
2005 08 29  2250    53611   82200      0    2.62e+00    0    1.32e+00
2005 08 29  2255    53611   82500      0    2.64e+00    0    1.33e+00
2005 08 29  2300    53611   82800      0    2.59e+00    0    1.29e+00
2005 08 29  2305    53611   83100      0    2.66e+00    0    1.35e+00
2005 08 29  2310    53611   83400      0    2.67e+00    0    1.33e+00
2005 08 29  2315    53611   83700      0    2.64e+00    0    1.29e+00
2005 08 29  2320    53611   84000      0    2.64e+00    0    1.32e+00
2005 08 29  2325    53611   84300      0    2.70e+00    0    1.32e+00
2005 08 29  2330    53611   84600      0    2.70e+00    0    1.35e+00
2005 08 29  2335    53611   84900      0    2.76e+00    0    1.37e+00
2005 08 29  2340    53611   85200      0    2.70e+00    0    1.32e+00
2005 08 29  2345    53611   85500      0    2.70e+00    0    1.32e+00
2005 08 29  2350    53611   85800      0    2.70e+00    0    1.30e+00
2005 08 29  2355    53611   86100      0    2.73e+00    0    1.34e+00
