:Data_list: 20051002_ace_sis_5m.txt
:Created: 2005 Oct 03 0011 UT
# Prepared by the U.S. Dept. of Commerce, NOAA, Space Environment Center.
# Please send comments and suggestions to SEC.Webmaster@noaa.gov 
# 
# Units: proton flux p/cs2-sec-ster
# Status(S): 0 = nominal data, 1 to 8 = bad data record, 9 = no data
# Missing data values: -1.00e+05
# Source: ACE Satellite - Solar Isotope Spectrometer
#
# 5-minute averaged Real-time Integral Flux of High-energy Solar Protons
# 
#                 Modified Seconds
# UT Date   Time   Julian  of the      ---- Integral Proton Flux ----
# YR MO DA  HHMM     Day     Day       S    > 10 MeV    S    > 30 MeV
#--------------------------------------------------------------------
2005 10 02  0000    53645       0      0    1.19e+00    0    8.19e-01
2005 10 02  0005    53645     300      0    1.22e+00    0    8.42e-01
2005 10 02  0010    53645     600      0    1.21e+00    0    8.43e-01
2005 10 02  0015    53645     900      0    1.23e+00    0    8.41e-01
2005 10 02  0020    53645    1200      0    1.20e+00    0    8.20e-01
2005 10 02  0025    53645    1500      0    1.18e+00    0    8.09e-01
2005 10 02  0030    53645    1800      0    1.21e+00    0    8.35e-01
2005 10 02  0035    53645    2100      0    1.21e+00    0    8.29e-01
2005 10 02  0040    53645    2400      0    1.21e+00    0    8.37e-01
2005 10 02  0045    53645    2700      0    1.18e+00    0    8.19e-01
2005 10 02  0050    53645    3000      0    1.19e+00    0    8.19e-01
2005 10 02  0055    53645    3300      0    1.20e+00    0    8.22e-01
2005 10 02  0100    53645    3600      0    1.22e+00    0    8.34e-01
2005 10 02  0105    53645    3900      0    1.20e+00    0    8.26e-01
2005 10 02  0110    53645    4200      0    1.20e+00    0    8.11e-01
2005 10 02  0115    53645    4500      0    1.22e+00    0    8.37e-01
2005 10 02  0120    53645    4800      0    1.20e+00    0    8.34e-01
2005 10 02  0125    53645    5100      0    1.20e+00    0    8.26e-01
2005 10 02  0130    53645    5400      0    1.19e+00    0    8.22e-01
2005 10 02  0135    53645    5700      0    1.19e+00    0    8.22e-01
2005 10 02  0140    53645    6000      0    1.19e+00    0    8.30e-01
2005 10 02  0145    53645    6300      0    1.22e+00    0    8.34e-01
2005 10 02  0150    53645    6600      0    1.19e+00    0    8.16e-01
2005 10 02  0155    53645    6900      0    1.22e+00    0    8.46e-01
2005 10 02  0200    53645    7200      0    1.19e+00    0    8.22e-01
2005 10 02  0205    53645    7500      0    1.21e+00    0    8.32e-01
2005 10 02  0210    53645    7800      0    1.17e+00    0    7.99e-01
2005 10 02  0215    53645    8100      0    1.20e+00    0    8.24e-01
2005 10 02  0220    53645    8400      0    1.18e+00    0    8.11e-01
2005 10 02  0225    53645    8700      0    1.19e+00    0    8.27e-01
2005 10 02  0230    53645    9000      0    1.22e+00    0    8.41e-01
2005 10 02  0235    53645    9300      0    1.20e+00    0    8.21e-01
2005 10 02  0240    53645    9600      0    1.17e+00    0    8.06e-01
2005 10 02  0245    53645    9900      0    1.21e+00    0    8.22e-01
2005 10 02  0250    53645   10200      0    1.20e+00    0    8.26e-01
2005 10 02  0255    53645   10500      0    1.21e+00    0    8.41e-01
2005 10 02  0300    53645   10800      0    1.19e+00    0    8.23e-01
2005 10 02  0305    53645   11100      0    1.19e+00    0    8.28e-01
2005 10 02  0310    53645   11400      0    1.21e+00    0    8.27e-01
2005 10 02  0315    53645   11700      0    1.23e+00    0    8.54e-01
2005 10 02  0320    53645   12000      0    1.19e+00    0    8.24e-01
2005 10 02  0325    53645   12300      0    1.20e+00    0    8.22e-01
2005 10 02  0330    53645   12600      0    1.18e+00    0    8.03e-01
2005 10 02  0335    53645   12900      0    1.19e+00    0    8.20e-01
2005 10 02  0340    53645   13200      0    1.18e+00    0    8.07e-01
2005 10 02  0345    53645   13500      0    1.19e+00    0    8.17e-01
2005 10 02  0350    53645   13800      0    1.21e+00    0    8.41e-01
2005 10 02  0355    53645   14100      0    1.20e+00    0    8.32e-01
2005 10 02  0400    53645   14400      0    1.21e+00    0    8.36e-01
2005 10 02  0405    53645   14700      0    1.17e+00    0    8.06e-01
2005 10 02  0410    53645   15000      0    1.19e+00    0    8.17e-01
2005 10 02  0415    53645   15300      0    1.20e+00    0    8.23e-01
2005 10 02  0420    53645   15600      0    1.21e+00    0    8.24e-01
2005 10 02  0425    53645   15900      0    1.21e+00    0    8.32e-01
2005 10 02  0430    53645   16200      0    1.20e+00    0    8.37e-01
2005 10 02  0435    53645   16500      0    1.19e+00    0    8.27e-01
2005 10 02  0440    53645   16800      0    1.18e+00    0    8.06e-01
2005 10 02  0445    53645   17100      0    1.19e+00    0    8.34e-01
2005 10 02  0450    53645   17400      0    1.21e+00    0    8.48e-01
2005 10 02  0455    53645   17700      0    1.20e+00    0    8.24e-01
2005 10 02  0500    53645   18000      0    1.21e+00    0    8.31e-01
2005 10 02  0505    53645   18300      0    1.18e+00    0    8.10e-01
2005 10 02  0510    53645   18600      0    1.21e+00    0    8.48e-01
2005 10 02  0515    53645   18900      0    1.18e+00    0    8.08e-01
2005 10 02  0520    53645   19200      0    1.22e+00    0    8.40e-01
2005 10 02  0525    53645   19500      0    1.19e+00    0    8.20e-01
2005 10 02  0530    53645   19800      0    1.20e+00    0    8.24e-01
2005 10 02  0535    53645   20100      0    1.19e+00    0    8.19e-01
2005 10 02  0540    53645   20400      0    1.20e+00    0    8.24e-01
2005 10 02  0545    53645   20700      0    1.18e+00    0    8.06e-01
2005 10 02  0550    53645   21000      0    1.18e+00    0    8.03e-01
2005 10 02  0555    53645   21300      0    1.20e+00    0    8.19e-01
2005 10 02  0600    53645   21600      0    1.19e+00    0    8.16e-01
2005 10 02  0605    53645   21900      0    1.20e+00    0    8.32e-01
2005 10 02  0610    53645   22200      0    1.23e+00    0    8.61e-01
2005 10 02  0615    53645   22500      0    1.22e+00    0    8.46e-01
2005 10 02  0620    53645   22800      0    1.21e+00    0    8.18e-01
2005 10 02  0625    53645   23100      0    1.20e+00    0    8.28e-01
2005 10 02  0630    53645   23400      0    1.18e+00    0    8.09e-01
2005 10 02  0635    53645   23700      0    1.23e+00    0    8.44e-01
2005 10 02  0640    53645   24000      0    1.21e+00    0    8.35e-01
2005 10 02  0645    53645   24300      0    1.23e+00    0    8.47e-01
2005 10 02  0650    53645   24600      0    1.18e+00    0    8.19e-01
2005 10 02  0655    53645   24900      0    1.22e+00    0    8.41e-01
2005 10 02  0700    53645   25200      0    1.20e+00    0    8.31e-01
2005 10 02  0705    53645   25500      0    1.18e+00    0    8.16e-01
2005 10 02  0710    53645   25800      0    1.22e+00    0    8.42e-01
2005 10 02  0715    53645   26100      0    1.21e+00    0    8.39e-01
2005 10 02  0720    53645   26400      0    1.24e+00    0    8.59e-01
2005 10 02  0725    53645   26700      0    1.22e+00    0    8.37e-01
2005 10 02  0730    53645   27000      0    1.21e+00    0    8.34e-01
2005 10 02  0735    53645   27300      0    1.20e+00    0    8.34e-01
2005 10 02  0740    53645   27600      0    1.21e+00    0    8.34e-01
2005 10 02  0745    53645   27900      0    1.20e+00    0    8.32e-01
2005 10 02  0750    53645   28200      0    1.21e+00    0    8.26e-01
2005 10 02  0755    53645   28500      0    1.20e+00    0    8.18e-01
2005 10 02  0800    53645   28800      0    1.19e+00    0    8.18e-01
2005 10 02  0805    53645   29100      0    1.20e+00    0    8.33e-01
2005 10 02  0810    53645   29400      0    1.18e+00    0    8.08e-01
2005 10 02  0815    53645   29700      0    1.21e+00    0    8.33e-01
2005 10 02  0820    53645   30000      0    1.24e+00    0    8.54e-01
2005 10 02  0825    53645   30300      0    1.21e+00    0    8.34e-01
2005 10 02  0830    53645   30600      0    1.18e+00    0    8.14e-01
2005 10 02  0835    53645   30900      0    1.24e+00    0    8.49e-01
2005 10 02  0840    53645   31200      0    1.22e+00    0    8.44e-01
2005 10 02  0845    53645   31500      0    1.19e+00    0    8.23e-01
2005 10 02  0850    53645   31800      0    1.21e+00    0    8.41e-01
2005 10 02  0855    53645   32100      0    1.20e+00    0    8.27e-01
2005 10 02  0900    53645   32400      0    1.22e+00    0    8.39e-01
2005 10 02  0905    53645   32700      0    1.22e+00    0    8.44e-01
2005 10 02  0910    53645   33000      0    1.21e+00    0    8.41e-01
2005 10 02  0915    53645   33300      0    1.19e+00    0    8.22e-01
2005 10 02  0920    53645   33600      0    1.20e+00    0    8.29e-01
2005 10 02  0925    53645   33900      0    1.20e+00    0    8.31e-01
2005 10 02  0930    53645   34200      0    1.20e+00    0    8.28e-01
2005 10 02  0935    53645   34500      0    1.20e+00    0    8.29e-01
2005 10 02  0940    53645   34800      0    1.22e+00    0    8.39e-01
2005 10 02  0945    53645   35100      0    1.19e+00    0    8.31e-01
2005 10 02  0950    53645   35400      0    1.19e+00    0    8.16e-01
2005 10 02  0955    53645   35700      0    1.21e+00    0    8.46e-01
2005 10 02  1000    53645   36000      0    1.21e+00    0    8.30e-01
2005 10 02  1005    53645   36300      0    1.19e+00    0    8.26e-01
2005 10 02  1010    53645   36600      0    1.21e+00    0    8.42e-01
2005 10 02  1015    53645   36900      0    1.20e+00    0    8.27e-01
2005 10 02  1020    53645   37200      0    1.20e+00    0    8.29e-01
2005 10 02  1025    53645   37500      0    1.20e+00    0    8.23e-01
2005 10 02  1030    53645   37800      0    1.21e+00    0    8.36e-01
2005 10 02  1035    53645   38100      0    1.19e+00    0    8.34e-01
2005 10 02  1040    53645   38400      0    1.21e+00    0    8.36e-01
2005 10 02  1045    53645   38700      0    1.20e+00    0    8.14e-01
2005 10 02  1050    53645   39000      0    1.22e+00    0    8.44e-01
2005 10 02  1055    53645   39300      0    1.22e+00    0    8.33e-01
2005 10 02  1100    53645   39600      0    1.19e+00    0    8.21e-01
2005 10 02  1105    53645   39900      0    1.16e+00    0    8.06e-01
2005 10 02  1110    53645   40200      0    1.21e+00    0    8.36e-01
2005 10 02  1115    53645   40500      0    1.19e+00    0    8.23e-01
2005 10 02  1120    53645   40800      0    1.20e+00    0    8.26e-01
2005 10 02  1125    53645   41100      0    1.22e+00    0    8.34e-01
2005 10 02  1130    53645   41400      0    1.20e+00    0    8.31e-01
2005 10 02  1135    53645   41700      0    1.20e+00    0    8.30e-01
2005 10 02  1140    53645   42000      0    1.19e+00    0    8.26e-01
2005 10 02  1145    53645   42300      0    1.20e+00    0    8.29e-01
2005 10 02  1150    53645   42600      0    1.19e+00    0    8.24e-01
2005 10 02  1155    53645   42900      0    1.23e+00    0    8.38e-01
2005 10 02  1200    53645   43200      0    1.21e+00    0    8.36e-01
2005 10 02  1205    53645   43500      0    1.26e+00    0    8.74e-01
2005 10 02  1210    53645   43800      0    1.19e+00    0    8.27e-01
2005 10 02  1215    53645   44100      0    1.20e+00    0    8.30e-01
2005 10 02  1220    53645   44400      0    1.20e+00    0    8.29e-01
2005 10 02  1225    53645   44700      0    1.19e+00    0    8.24e-01
2005 10 02  1230    53645   45000      0    1.20e+00    0    8.25e-01
2005 10 02  1235    53645   45300      0    1.21e+00    0    8.28e-01
2005 10 02  1240    53645   45600      0    1.20e+00    0    8.37e-01
2005 10 02  1245    53645   45900      0    1.19e+00    0    8.29e-01
2005 10 02  1250    53645   46200      0    1.19e+00    0    8.26e-01
2005 10 02  1255    53645   46500      0    1.23e+00    0    8.45e-01
2005 10 02  1300    53645   46800      0    1.21e+00    0    8.46e-01
2005 10 02  1305    53645   47100      0    1.19e+00    0    8.18e-01
2005 10 02  1310    53645   47400      0    1.20e+00    0    8.31e-01
2005 10 02  1315    53645   47700      0    1.23e+00    0    8.50e-01
2005 10 02  1320    53645   48000      0    1.19e+00    0    8.12e-01
2005 10 02  1325    53645   48300      0    1.21e+00    0    8.41e-01
2005 10 02  1330    53645   48600      0    1.20e+00    0    8.28e-01
2005 10 02  1335    53645   48900      0    1.19e+00    0    8.19e-01
2005 10 02  1340    53645   49200      0    1.19e+00    0    8.27e-01
2005 10 02  1345    53645   49500      0    1.21e+00    0    8.36e-01
2005 10 02  1350    53645   49800      0    1.20e+00    0    8.23e-01
2005 10 02  1355    53645   50100      0    1.21e+00    0    8.20e-01
2005 10 02  1400    53645   50400      0    1.22e+00    0    8.51e-01
2005 10 02  1405    53645   50700      0    1.22e+00    0    8.49e-01
2005 10 02  1410    53645   51000      0    1.21e+00    0    8.38e-01
2005 10 02  1415    53645   51300      0    1.22e+00    0    8.45e-01
2005 10 02  1420    53645   51600      0    1.19e+00    0    8.23e-01
2005 10 02  1425    53645   51900      0    1.21e+00    0    8.27e-01
2005 10 02  1430    53645   52200      0    1.23e+00    0    8.53e-01
2005 10 02  1435    53645   52500      0    1.19e+00    0    8.17e-01
2005 10 02  1440    53645   52800      0    1.19e+00    0    8.21e-01
2005 10 02  1445    53645   53100      0    1.20e+00    0    8.30e-01
2005 10 02  1450    53645   53400      0    1.18e+00    0    8.20e-01
2005 10 02  1455    53645   53700      0    1.19e+00    0    8.26e-01
2005 10 02  1500    53645   54000      0    1.20e+00    0    8.14e-01
2005 10 02  1505    53645   54300      0    1.21e+00    0    8.43e-01
2005 10 02  1510    53645   54600      0    1.22e+00    0    8.36e-01
2005 10 02  1515    53645   54900      0    1.20e+00    0    8.24e-01
2005 10 02  1520    53645   55200      0    1.22e+00    0    8.42e-01
2005 10 02  1525    53645   55500      0    1.20e+00    0    8.24e-01
2005 10 02  1530    53645   55800      0    1.19e+00    0    8.16e-01
2005 10 02  1535    53645   56100      0    1.19e+00    0    8.23e-01
2005 10 02  1540    53645   56400      0    1.21e+00    0    8.37e-01
2005 10 02  1545    53645   56700      0    1.22e+00    0    8.45e-01
2005 10 02  1550    53645   57000      0    1.20e+00    0    8.24e-01
2005 10 02  1555    53645   57300      0    1.20e+00    0    8.30e-01
2005 10 02  1600    53645   57600      0    1.19e+00    0    8.20e-01
2005 10 02  1605    53645   57900      0    1.18e+00    0    8.12e-01
2005 10 02  1610    53645   58200      0    1.19e+00    0    8.32e-01
2005 10 02  1615    53645   58500      0    1.18e+00    0    8.05e-01
2005 10 02  1620    53645   58800      0    1.23e+00    0    8.43e-01
2005 10 02  1625    53645   59100      0    1.21e+00    0    8.28e-01
2005 10 02  1630    53645   59400      0    1.21e+00    0    8.29e-01
2005 10 02  1635    53645   59700      0    1.20e+00    0    8.20e-01
2005 10 02  1640    53645   60000      0    1.21e+00    0    8.30e-01
2005 10 02  1645    53645   60300      0    1.19e+00    0    8.13e-01
2005 10 02  1650    53645   60600      0    1.19e+00    0    8.24e-01
2005 10 02  1655    53645   60900      0    1.22e+00    0    8.39e-01
2005 10 02  1700    53645   61200      0    1.20e+00    0    8.23e-01
2005 10 02  1705    53645   61500      0    1.18e+00    0    8.19e-01
2005 10 02  1710    53645   61800      0    1.19e+00    0    8.18e-01
2005 10 02  1715    53645   62100      0    1.18e+00    0    8.21e-01
2005 10 02  1720    53645   62400      0    1.21e+00    0    8.35e-01
2005 10 02  1725    53645   62700      0    1.23e+00    0    8.43e-01
2005 10 02  1730    53645   63000      0    1.19e+00    0    8.27e-01
2005 10 02  1735    53645   63300      0    1.20e+00    0    8.30e-01
2005 10 02  1740    53645   63600      0    1.21e+00    0    8.53e-01
2005 10 02  1745    53645   63900      0    1.19e+00    0    8.18e-01
2005 10 02  1750    53645   64200      0    1.20e+00    0    8.25e-01
2005 10 02  1755    53645   64500      0    1.18e+00    0    8.14e-01
2005 10 02  1800    53645   64800      0    1.23e+00    0    8.41e-01
2005 10 02  1805    53645   65100      0    1.20e+00    0    8.29e-01
2005 10 02  1810    53645   65400      0    1.18e+00    0    8.19e-01
2005 10 02  1815    53645   65700      0    1.22e+00    0    8.39e-01
2005 10 02  1820    53645   66000      0    1.19e+00    0    8.22e-01
2005 10 02  1825    53645   66300      0    1.23e+00    0    8.53e-01
2005 10 02  1830    53645   66600      0    1.19e+00    0    8.26e-01
2005 10 02  1835    53645   66900      0    1.19e+00    0    8.13e-01
2005 10 02  1840    53645   67200      0    1.23e+00    0    8.50e-01
2005 10 02  1845    53645   67500      0    1.23e+00    0    8.51e-01
2005 10 02  1850    53645   67800      0    1.19e+00    0    8.22e-01
2005 10 02  1855    53645   68100      0    1.22e+00    0    8.48e-01
2005 10 02  1900    53645   68400      0    1.17e+00    0    8.06e-01
2005 10 02  1905    53645   68700      0    1.19e+00    0    8.18e-01
2005 10 02  1910    53645   69000      0    1.21e+00    0    8.36e-01
2005 10 02  1915    53645   69300      0    1.20e+00    0    8.29e-01
2005 10 02  1920    53645   69600      0    1.23e+00    0    8.47e-01
2005 10 02  1925    53645   69900      0    1.21e+00    0    8.29e-01
2005 10 02  1930    53645   70200      0    1.18e+00    0    8.22e-01
2005 10 02  1935    53645   70500      0    1.20e+00    0    8.28e-01
2005 10 02  1940    53645   70800      0    1.23e+00    0    8.52e-01
2005 10 02  1945    53645   71100      0    1.20e+00    0    8.36e-01
2005 10 02  1950    53645   71400      0    1.20e+00    0    8.38e-01
2005 10 02  1955    53645   71700      0    1.18e+00    0    8.03e-01
2005 10 02  2000    53645   72000      0    1.21e+00    0    8.34e-01
2005 10 02  2005    53645   72300      0    1.22e+00    0    8.26e-01
2005 10 02  2010    53645   72600      0    1.20e+00    0    8.34e-01
2005 10 02  2015    53645   72900      0    1.21e+00    0    8.39e-01
2005 10 02  2020    53645   73200      0    1.20e+00    0    8.29e-01
2005 10 02  2025    53645   73500      0    1.29e+00    0    9.07e-01
2005 10 02  2030    53645   73800      0    1.21e+00    0    8.48e-01
2005 10 02  2035    53645   74100      0    1.21e+00    0    8.48e-01
2005 10 02  2040    53645   74400      0    1.21e+00    0    8.40e-01
2005 10 02  2045    53645   74700      0    1.22e+00    0    8.38e-01
2005 10 02  2050    53645   75000      0    1.18e+00    0    8.19e-01
2005 10 02  2055    53645   75300      0    1.19e+00    0    8.27e-01
2005 10 02  2100    53645   75600      0    1.22e+00    0    8.50e-01
2005 10 02  2105    53645   75900      0    1.21e+00    0    8.38e-01
2005 10 02  2110    53645   76200      0    1.20e+00    0    8.36e-01
2005 10 02  2115    53645   76500      0    1.22e+00    0    8.52e-01
2005 10 02  2120    53645   76800      0    1.20e+00    0    8.32e-01
2005 10 02  2125    53645   77100      0    1.21e+00    0    8.36e-01
2005 10 02  2130    53645   77400      0    1.19e+00    0    8.23e-01
2005 10 02  2135    53645   77700      0    1.19e+00    0    8.18e-01
2005 10 02  2140    53645   78000      0    1.20e+00    0    8.30e-01
2005 10 02  2145    53645   78300      0    1.19e+00    0    8.24e-01
2005 10 02  2150    53645   78600      0    1.21e+00    0    8.37e-01
2005 10 02  2155    53645   78900      0    1.22e+00    0    8.47e-01
2005 10 02  2200    53645   79200      0    1.21e+00    0    8.41e-01
2005 10 02  2205    53645   79500      0    1.20e+00    0    8.29e-01
2005 10 02  2210    53645   79800      0    1.19e+00    0    8.21e-01
2005 10 02  2215    53645   80100      0    1.22e+00    0    8.40e-01
2005 10 02  2220    53645   80400      0    1.23e+00    0    8.53e-01
2005 10 02  2225    53645   80700      0    1.25e+00    0    8.66e-01
2005 10 02  2230    53645   81000      0    1.21e+00    0    8.23e-01
2005 10 02  2235    53645   81300      0    1.21e+00    0    8.36e-01
2005 10 02  2240    53645   81600      0    1.20e+00    0    8.31e-01
2005 10 02  2245    53645   81900      0    1.22e+00    0    8.47e-01
2005 10 02  2250    53645   82200      0    1.23e+00    0    8.46e-01
2005 10 02  2255    53645   82500      0    1.21e+00    0    8.31e-01
2005 10 02  2300    53645   82800      0    1.23e+00    0    8.49e-01
2005 10 02  2305    53645   83100      0    1.21e+00    0    8.32e-01
2005 10 02  2310    53645   83400      0    1.22e+00    0    8.40e-01
2005 10 02  2315    53645   83700      0    1.22e+00    0    8.40e-01
2005 10 02  2320    53645   84000      0    1.21e+00    0    8.38e-01
2005 10 02  2325    53645   84300      0    1.23e+00    0    8.49e-01
2005 10 02  2330    53645   84600      0    1.27e+00    0    8.62e-01
2005 10 02  2335    53645   84900      0    1.26e+00    0    8.71e-01
2005 10 02  2340    53645   85200      0    1.20e+00    0    8.38e-01
2005 10 02  2345    53645   85500      0    1.19e+00    0    8.17e-01
2005 10 02  2350    53645   85800      0    1.18e+00    0    8.14e-01
2005 10 02  2355    53645   86100      0    1.23e+00    0    8.43e-01
