:Data_list: 20051111_ace_sis_5m.txt
:Created: 2005 Nov 12 0011 UT
# Prepared by the U.S. Dept. of Commerce, NOAA, Space Environment Center.
# Please send comments and suggestions to SEC.Webmaster@noaa.gov 
# 
# Units: proton flux p/cs2-sec-ster
# Status(S): 0 = nominal data, 1 to 8 = bad data record, 9 = no data
# Missing data values: -1.00e+05
# Source: ACE Satellite - Solar Isotope Spectrometer
#
# 5-minute averaged Real-time Integral Flux of High-energy Solar Protons
# 
#                 Modified Seconds
# UT Date   Time   Julian  of the      ---- Integral Proton Flux ----
# YR MO DA  HHMM     Day     Day       S    > 10 MeV    S    > 30 MeV
#--------------------------------------------------------------------
2005 11 11  0000    53685       0      0    1.37e+00    0    9.64e-01
2005 11 11  0005    53685     300      0    1.38e+00    0    9.65e-01
2005 11 11  0010    53685     600      0    1.35e+00    0    9.53e-01
2005 11 11  0015    53685     900      0    1.39e+00    0    9.82e-01
2005 11 11  0020    53685    1200      0    1.38e+00    0    9.67e-01
2005 11 11  0025    53685    1500      0    1.39e+00    0    9.81e-01
2005 11 11  0030    53685    1800      0    1.40e+00    0    9.88e-01
2005 11 11  0035    53685    2100      0    1.40e+00    0    9.78e-01
2005 11 11  0040    53685    2400      0    1.42e+00    0    9.93e-01
2005 11 11  0045    53685    2700      0    1.38e+00    0    9.62e-01
2005 11 11  0050    53685    3000      0    1.37e+00    0    9.53e-01
2005 11 11  0055    53685    3300      0    1.39e+00    0    9.76e-01
2005 11 11  0100    53685    3600      0    1.40e+00    0    9.79e-01
2005 11 11  0105    53685    3900      0    1.41e+00    0    9.94e-01
2005 11 11  0110    53685    4200      0    1.41e+00    0    9.97e-01
2005 11 11  0115    53685    4500      0    1.38e+00    0    9.62e-01
2005 11 11  0120    53685    4800      0    1.36e+00    0    9.62e-01
2005 11 11  0125    53685    5100      0    1.37e+00    0    9.65e-01
2005 11 11  0130    53685    5400      0    1.38e+00    0    9.71e-01
2005 11 11  0135    53685    5700      0    1.38e+00    0    9.61e-01
2005 11 11  0140    53685    6000      0    1.36e+00    0    9.55e-01
2005 11 11  0145    53685    6300      0    1.36e+00    0    9.56e-01
2005 11 11  0150    53685    6600      0    1.41e+00    0    1.00e+00
2005 11 11  0155    53685    6900      0    1.38e+00    0    9.62e-01
2005 11 11  0200    53685    7200      0    1.40e+00    0    9.81e-01
2005 11 11  0205    53685    7500      0    1.38e+00    0    9.63e-01
2005 11 11  0210    53685    7800      0    1.37e+00    0    9.57e-01
2005 11 11  0215    53685    8100      0    1.40e+00    0    9.89e-01
2005 11 11  0220    53685    8400      0    1.37e+00    0    9.63e-01
2005 11 11  0225    53685    8700      0    1.39e+00    0    9.84e-01
2005 11 11  0230    53685    9000      0    1.36e+00    0    9.66e-01
2005 11 11  0235    53685    9300      0    1.41e+00    0    9.94e-01
2005 11 11  0240    53685    9600      0    1.35e+00    0    9.36e-01
2005 11 11  0245    53685    9900      0    1.39e+00    0    9.73e-01
2005 11 11  0250    53685   10200      0    1.39e+00    0    9.78e-01
2005 11 11  0255    53685   10500      0    1.37e+00    0    9.67e-01
2005 11 11  0300    53685   10800      0    1.37e+00    0    9.68e-01
2005 11 11  0305    53685   11100      0    1.36e+00    0    9.53e-01
2005 11 11  0310    53685   11400      0    1.39e+00    0    9.78e-01
2005 11 11  0315    53685   11700      0    1.36e+00    0    9.55e-01
2005 11 11  0320    53685   12000      0    1.41e+00    0    9.90e-01
2005 11 11  0325    53685   12300      0    1.39e+00    0    9.72e-01
2005 11 11  0330    53685   12600      0    1.36e+00    0    9.39e-01
2005 11 11  0335    53685   12900      0    1.38e+00    0    9.57e-01
2005 11 11  0340    53685   13200      0    1.38e+00    0    9.69e-01
2005 11 11  0345    53685   13500      0    1.40e+00    0    9.88e-01
2005 11 11  0350    53685   13800      0    1.40e+00    0    9.84e-01
2005 11 11  0355    53685   14100      0    1.38e+00    0    9.80e-01
2005 11 11  0400    53685   14400      0    1.38e+00    0    9.74e-01
2005 11 11  0405    53685   14700      0    1.38e+00    0    9.63e-01
2005 11 11  0410    53685   15000      0    1.40e+00    0    9.86e-01
2005 11 11  0415    53685   15300      0    1.42e+00    0    1.00e+00
2005 11 11  0420    53685   15600      0    1.38e+00    0    9.66e-01
2005 11 11  0425    53685   15900      0    1.40e+00    0    9.77e-01
2005 11 11  0430    53685   16200      0    1.41e+00    0    9.90e-01
2005 11 11  0435    53685   16500      0    1.39e+00    0    9.72e-01
2005 11 11  0440    53685   16800      0    1.37e+00    0    9.63e-01
2005 11 11  0445    53685   17100      0    1.39e+00    0    9.70e-01
2005 11 11  0450    53685   17400      0    1.33e+00    0    9.34e-01
2005 11 11  0455    53685   17700      0    1.40e+00    0    9.74e-01
2005 11 11  0500    53685   18000      0    1.38e+00    0    9.67e-01
2005 11 11  0505    53685   18300      0    1.39e+00    0    9.62e-01
2005 11 11  0510    53685   18600      0    1.39e+00    0    9.80e-01
2005 11 11  0515    53685   18900      0    1.39e+00    0    9.70e-01
2005 11 11  0520    53685   19200      0    1.42e+00    0    9.91e-01
2005 11 11  0525    53685   19500      0    1.39e+00    0    9.71e-01
2005 11 11  0530    53685   19800      0    1.37e+00    0    9.59e-01
2005 11 11  0535    53685   20100      0    1.35e+00    0    9.48e-01
2005 11 11  0540    53685   20400      0    1.39e+00    0    9.68e-01
2005 11 11  0545    53685   20700      0    1.39e+00    0    9.79e-01
2005 11 11  0550    53685   21000      0    1.42e+00    0    9.93e-01
2005 11 11  0555    53685   21300      0    1.40e+00    0    9.79e-01
2005 11 11  0600    53685   21600      0    1.40e+00    0    9.84e-01
2005 11 11  0605    53685   21900      0    1.41e+00    0    1.00e+00
2005 11 11  0610    53685   22200      0    1.37e+00    0    9.60e-01
2005 11 11  0615    53685   22500      0    1.41e+00    0    9.89e-01
2005 11 11  0620    53685   22800      0    1.38e+00    0    9.73e-01
2005 11 11  0625    53685   23100      0    1.40e+00    0    9.81e-01
2005 11 11  0630    53685   23400      0    1.37e+00    0    9.48e-01
2005 11 11  0635    53685   23700      0    1.38e+00    0    9.68e-01
2005 11 11  0640    53685   24000      0    1.37e+00    0    9.67e-01
2005 11 11  0645    53685   24300      0    1.34e+00    0    9.55e-01
2005 11 11  0650    53685   24600      0    1.34e+00    0    9.50e-01
2005 11 11  0655    53685   24900      0    1.38e+00    0    9.67e-01
2005 11 11  0700    53685   25200      0    1.38e+00    0    9.66e-01
2005 11 11  0705    53685   25500      0    1.35e+00    0    9.40e-01
2005 11 11  0710    53685   25800      0    1.41e+00    0    9.89e-01
2005 11 11  0715    53685   26100      0    1.39e+00    0    9.76e-01
2005 11 11  0720    53685   26400      0    1.39e+00    0    9.81e-01
2005 11 11  0725    53685   26700      0    1.39e+00    0    9.88e-01
2005 11 11  0730    53685   27000      0    1.40e+00    0    9.81e-01
2005 11 11  0735    53685   27300      0    1.39e+00    0    9.71e-01
2005 11 11  0740    53685   27600      0    1.40e+00    0    9.79e-01
2005 11 11  0745    53685   27900      0    1.39e+00    0    9.72e-01
2005 11 11  0750    53685   28200      0    1.37e+00    0    9.57e-01
2005 11 11  0755    53685   28500      0    1.36e+00    0    9.60e-01
2005 11 11  0800    53685   28800      0    1.42e+00    0    9.84e-01
2005 11 11  0805    53685   29100      0    1.38e+00    0    9.66e-01
2005 11 11  0810    53685   29400      0    1.41e+00    0    1.00e+00
2005 11 11  0815    53685   29700      0    1.39e+00    0    9.83e-01
2005 11 11  0820    53685   30000      0    1.39e+00    0    9.86e-01
2005 11 11  0825    53685   30300      0    1.37e+00    0    9.67e-01
2005 11 11  0830    53685   30600      0    1.38e+00    0    9.66e-01
2005 11 11  0835    53685   30900      0    1.37e+00    0    9.55e-01
2005 11 11  0840    53685   31200      0    1.41e+00    0    9.98e-01
2005 11 11  0845    53685   31500      0    1.37e+00    0    9.61e-01
2005 11 11  0850    53685   31800      0    1.40e+00    0    9.79e-01
2005 11 11  0855    53685   32100      0    1.38e+00    0    9.68e-01
2005 11 11  0900    53685   32400      0    1.37e+00    0    9.58e-01
2005 11 11  0905    53685   32700      0    1.36e+00    0    9.57e-01
2005 11 11  0910    53685   33000      0    1.41e+00    0    9.81e-01
2005 11 11  0915    53685   33300      0    1.41e+00    0    9.83e-01
2005 11 11  0920    53685   33600      0    1.40e+00    0    9.79e-01
2005 11 11  0925    53685   33900      0    1.39e+00    0    9.74e-01
2005 11 11  0930    53685   34200      0    1.38e+00    0    9.66e-01
2005 11 11  0935    53685   34500      0    1.38e+00    0    9.57e-01
2005 11 11  0940    53685   34800      0    1.38e+00    0    9.60e-01
2005 11 11  0945    53685   35100      0    1.41e+00    0    9.91e-01
2005 11 11  0950    53685   35400      0    1.35e+00    0    9.44e-01
2005 11 11  0955    53685   35700      0    1.39e+00    0    9.64e-01
2005 11 11  1000    53685   36000      0    1.41e+00    0    9.77e-01
2005 11 11  1005    53685   36300      0    1.42e+00    0    9.95e-01
2005 11 11  1010    53685   36600      0    1.41e+00    0    9.90e-01
2005 11 11  1015    53685   36900      0    1.39e+00    0    9.62e-01
2005 11 11  1020    53685   37200      0    1.39e+00    0    9.75e-01
2005 11 11  1025    53685   37500      0    1.42e+00    0    1.01e+00
2005 11 11  1030    53685   37800      0    1.38e+00    0    9.88e-01
2005 11 11  1035    53685   38100      0    1.39e+00    0    9.79e-01
2005 11 11  1040    53685   38400      0    1.39e+00    0    9.82e-01
2005 11 11  1045    53685   38700      0    1.38e+00    0    9.69e-01
2005 11 11  1050    53685   39000      0    1.41e+00    0    9.91e-01
2005 11 11  1055    53685   39300      0    1.38e+00    0    9.60e-01
2005 11 11  1100    53685   39600      0    1.40e+00    0    9.78e-01
2005 11 11  1105    53685   39900      0    1.39e+00    0    9.67e-01
2005 11 11  1110    53685   40200      0    1.37e+00    0    9.66e-01
2005 11 11  1115    53685   40500      0    1.36e+00    0    9.62e-01
2005 11 11  1120    53685   40800      0    1.35e+00    0    9.58e-01
2005 11 11  1125    53685   41100      0    1.40e+00    0    9.87e-01
2005 11 11  1130    53685   41400      0    1.39e+00    0    9.72e-01
2005 11 11  1135    53685   41700      0    1.39e+00    0    9.56e-01
2005 11 11  1140    53685   42000      0    1.38e+00    0    9.66e-01
2005 11 11  1145    53685   42300      0    1.37e+00    0    9.62e-01
2005 11 11  1150    53685   42600      0    1.37e+00    0    9.59e-01
2005 11 11  1155    53685   42900      0    1.38e+00    0    9.70e-01
2005 11 11  1200    53685   43200      0    1.40e+00    0    9.84e-01
2005 11 11  1205    53685   43500      0    1.37e+00    0    9.60e-01
2005 11 11  1210    53685   43800      0    1.38e+00    0    9.73e-01
2005 11 11  1215    53685   44100      0    1.38e+00    0    9.63e-01
2005 11 11  1220    53685   44400      0    1.39e+00    0    9.72e-01
2005 11 11  1225    53685   44700      0    1.35e+00    0    9.54e-01
2005 11 11  1230    53685   45000      0    1.42e+00    0    9.99e-01
2005 11 11  1235    53685   45300      0    1.37e+00    0    9.62e-01
2005 11 11  1240    53685   45600      0    1.38e+00    0    9.72e-01
2005 11 11  1245    53685   45900      0    1.36e+00    0    9.51e-01
2005 11 11  1250    53685   46200      0    1.37e+00    0    9.67e-01
2005 11 11  1255    53685   46500      0    1.39e+00    0    9.71e-01
2005 11 11  1300    53685   46800      0    1.43e+00    0    9.97e-01
2005 11 11  1305    53685   47100      0    1.37e+00    0    9.61e-01
2005 11 11  1310    53685   47400      0    1.30e+00    0    9.14e-01
2005 11 11  1315    53685   47700      0    1.40e+00    0    9.82e-01
2005 11 11  1320    53685   48000      0    1.36e+00    0    9.53e-01
2005 11 11  1325    53685   48300      0    1.36e+00    0    9.65e-01
2005 11 11  1330    53685   48600      0    1.38e+00    0    9.74e-01
2005 11 11  1335    53685   48900      0    1.39e+00    0    9.68e-01
2005 11 11  1340    53685   49200      0    1.38e+00    0    9.67e-01
2005 11 11  1345    53685   49500      0    1.40e+00    0    9.84e-01
2005 11 11  1350    53685   49800      0    1.40e+00    0    9.67e-01
2005 11 11  1355    53685   50100      0    1.39e+00    0    9.67e-01
2005 11 11  1400    53685   50400      0    1.38e+00    0    9.66e-01
2005 11 11  1405    53685   50700      0    1.39e+00    0    9.84e-01
2005 11 11  1410    53685   51000      0    1.37e+00    0    9.62e-01
2005 11 11  1415    53685   51300      0    1.40e+00    0    9.68e-01
2005 11 11  1420    53685   51600      0    1.40e+00    0    9.77e-01
2005 11 11  1425    53685   51900      0    1.38e+00    0    9.72e-01
2005 11 11  1430    53685   52200      0    1.38e+00    0    9.69e-01
2005 11 11  1435    53685   52500      0    1.37e+00    0    9.60e-01
2005 11 11  1440    53685   52800      0    1.40e+00    0    9.69e-01
2005 11 11  1445    53685   53100      0    1.38e+00    0    9.58e-01
2005 11 11  1450    53685   53400      0    1.41e+00    0    9.87e-01
2005 11 11  1455    53685   53700      0    1.39e+00    0    9.82e-01
2005 11 11  1500    53685   54000      0    1.41e+00    0    9.85e-01
2005 11 11  1505    53685   54300      0    1.38e+00    0    9.54e-01
2005 11 11  1510    53685   54600      0    1.36e+00    0    9.63e-01
2005 11 11  1515    53685   54900      0    1.38e+00    0    9.67e-01
2005 11 11  1520    53685   55200      0    1.40e+00    0    9.86e-01
2005 11 11  1525    53685   55500      0    1.36e+00    0    9.47e-01
2005 11 11  1530    53685   55800      0    1.37e+00    0    9.63e-01
2005 11 11  1535    53685   56100      0    1.37e+00    0    9.68e-01
2005 11 11  1540    53685   56400      0    1.38e+00    0    9.55e-01
2005 11 11  1545    53685   56700      0    1.37e+00    0    9.72e-01
2005 11 11  1550    53685   57000      0    1.34e+00    0    9.43e-01
2005 11 11  1555    53685   57300      0    1.36e+00    0    9.61e-01
2005 11 11  1600    53685   57600      0    1.39e+00    0    9.83e-01
2005 11 11  1605    53685   57900      0    1.39e+00    0    9.66e-01
2005 11 11  1610    53685   58200      0    1.37e+00    0    9.63e-01
2005 11 11  1615    53685   58500      0    1.37e+00    0    9.54e-01
2005 11 11  1620    53685   58800      0    1.38e+00    0    9.76e-01
2005 11 11  1625    53685   59100      0    1.37e+00    0    9.69e-01
2005 11 11  1630    53685   59400      0    1.37e+00    0    9.62e-01
2005 11 11  1635    53685   59700      0    1.41e+00    0    9.94e-01
2005 11 11  1640    53685   60000      0    1.37e+00    0    9.66e-01
2005 11 11  1645    53685   60300      0    1.39e+00    0    9.83e-01
2005 11 11  1650    53685   60600      0    1.41e+00    0    9.87e-01
2005 11 11  1655    53685   60900      0    1.38e+00    0    9.74e-01
2005 11 11  1700    53685   61200      0    1.35e+00    0    9.39e-01
2005 11 11  1705    53685   61500      0    1.39e+00    0    9.71e-01
2005 11 11  1710    53685   61800      0    1.35e+00    0    9.47e-01
2005 11 11  1715    53685   62100      0    1.42e+00    0    9.92e-01
2005 11 11  1720    53685   62400      0    1.40e+00    0    9.77e-01
2005 11 11  1725    53685   62700      0    1.34e+00    0    9.33e-01
2005 11 11  1730    53685   63000      0    1.38e+00    0    9.69e-01
2005 11 11  1735    53685   63300      0    1.39e+00    0    9.79e-01
2005 11 11  1740    53685   63600      0    1.35e+00    0    9.52e-01
2005 11 11  1745    53685   63900      0    1.38e+00    0    9.61e-01
2005 11 11  1750    53685   64200      0    1.37e+00    0    9.52e-01
2005 11 11  1755    53685   64500      0    1.40e+00    0    9.81e-01
2005 11 11  1800    53685   64800      0    1.41e+00    0    9.84e-01
2005 11 11  1805    53685   65100      0    1.41e+00    0    9.95e-01
2005 11 11  1810    53685   65400      0    1.35e+00    0    9.49e-01
2005 11 11  1815    53685   65700      0    1.36e+00    0    9.61e-01
2005 11 11  1820    53685   66000      0    1.38e+00    0    9.63e-01
2005 11 11  1825    53685   66300      0    1.38e+00    0    9.63e-01
2005 11 11  1830    53685   66600      0    1.37e+00    0    9.58e-01
2005 11 11  1835    53685   66900      0    1.37e+00    0    9.66e-01
2005 11 11  1840    53685   67200      0    1.40e+00    0    9.79e-01
2005 11 11  1845    53685   67500      0    1.38e+00    0    9.73e-01
2005 11 11  1850    53685   67800      0    1.38e+00    0    9.69e-01
2005 11 11  1855    53685   68100      0    1.40e+00    0    9.84e-01
2005 11 11  1900    53685   68400      0    1.37e+00    0    9.53e-01
2005 11 11  1905    53685   68700      0    1.41e+00    0    9.91e-01
2005 11 11  1910    53685   69000      0    1.37e+00    0    9.67e-01
2005 11 11  1915    53685   69300      0    1.36e+00    0    9.50e-01
2005 11 11  1920    53685   69600      0    1.36e+00    0    9.50e-01
2005 11 11  1925    53685   69900      0    1.40e+00    0    9.78e-01
2005 11 11  1930    53685   70200      0    1.39e+00    0    9.60e-01
2005 11 11  1935    53685   70500      0    1.39e+00    0    9.70e-01
2005 11 11  1940    53685   70800      0    1.38e+00    0    9.71e-01
2005 11 11  1945    53685   71100      0    1.37e+00    0    9.57e-01
2005 11 11  1950    53685   71400      0    1.37e+00    0    9.50e-01
2005 11 11  1955    53685   71700      0    1.40e+00    0    9.83e-01
2005 11 11  2000    53685   72000      0    1.35e+00    0    9.40e-01
2005 11 11  2005    53685   72300      0    1.35e+00    0    9.48e-01
2005 11 11  2010    53685   72600      0    1.39e+00    0    9.90e-01
2005 11 11  2015    53685   72900      0    1.38e+00    0    9.73e-01
2005 11 11  2020    53685   73200      0    1.41e+00    0    9.90e-01
2005 11 11  2025    53685   73500      0    1.38e+00    0    9.69e-01
2005 11 11  2030    53685   73800      0    1.37e+00    0    9.66e-01
2005 11 11  2035    53685   74100      0    1.36e+00    0    9.48e-01
2005 11 11  2040    53685   74400      0    1.34e+00    0    9.39e-01
2005 11 11  2045    53685   74700      0    1.33e+00    0    9.29e-01
2005 11 11  2050    53685   75000      0    1.35e+00    0    9.58e-01
2005 11 11  2055    53685   75300      0    1.42e+00    0    9.98e-01
2005 11 11  2100    53685   75600      0    1.42e+00    0    9.98e-01
2005 11 11  2105    53685   75900      0    1.38e+00    0    9.62e-01
2005 11 11  2110    53685   76200      0    1.42e+00    0    9.92e-01
2005 11 11  2115    53685   76500      0    1.34e+00    0    9.28e-01
2005 11 11  2120    53685   76800      0    1.36e+00    0    9.56e-01
2005 11 11  2125    53685   77100      0    1.36e+00    0    9.66e-01
2005 11 11  2130    53685   77400      0    1.39e+00    0    9.60e-01
2005 11 11  2135    53685   77700      0    1.36e+00    0    9.49e-01
2005 11 11  2140    53685   78000      0    1.40e+00    0    9.84e-01
2005 11 11  2145    53685   78300      0    1.36e+00    0    9.49e-01
2005 11 11  2150    53685   78600      0    1.39e+00    0    9.73e-01
2005 11 11  2155    53685   78900      0    1.39e+00    0    9.87e-01
2005 11 11  2200    53685   79200      0    1.36e+00    0    9.54e-01
2005 11 11  2205    53685   79500      0    1.37e+00    0    9.72e-01
2005 11 11  2210    53685   79800      0    1.35e+00    0    9.39e-01
2005 11 11  2215    53685   80100      0    1.37e+00    0    9.70e-01
2005 11 11  2220    53685   80400      0    1.39e+00    0    9.77e-01
2005 11 11  2225    53685   80700      0    1.34e+00    0    9.44e-01
2005 11 11  2230    53685   81000      0    1.40e+00    0    9.78e-01
2005 11 11  2235    53685   81300      0    1.34e+00    0    9.34e-01
2005 11 11  2240    53685   81600      0    1.38e+00    0    9.62e-01
2005 11 11  2245    53685   81900      0    1.37e+00    0    9.57e-01
2005 11 11  2250    53685   82200      0    1.36e+00    0    9.41e-01
2005 11 11  2255    53685   82500      0    1.43e+00    0    9.99e-01
2005 11 11  2300    53685   82800      0    1.38e+00    0    9.71e-01
2005 11 11  2305    53685   83100      0    1.38e+00    0    9.57e-01
2005 11 11  2310    53685   83400      0    1.37e+00    0    9.57e-01
2005 11 11  2315    53685   83700      0    1.36e+00    0    9.57e-01
2005 11 11  2320    53685   84000      0    1.40e+00    0    9.76e-01
2005 11 11  2325    53685   84300      0    1.37e+00    0    9.57e-01
2005 11 11  2330    53685   84600      0    1.36e+00    0    9.53e-01
2005 11 11  2335    53685   84900      0    1.36e+00    0    9.52e-01
2005 11 11  2340    53685   85200      0    1.37e+00    0    9.60e-01
2005 11 11  2345    53685   85500      0    1.37e+00    0    9.61e-01
2005 11 11  2350    53685   85800      0    1.40e+00    0    9.81e-01
2005 11 11  2355    53685   86100      0    1.37e+00    0    9.61e-01
