:Data_list: 20050925_ace_sis_5m.txt
:Created: 2005 Sep 26 0011 UT
# Prepared by the U.S. Dept. of Commerce, NOAA, Space Environment Center.
# Please send comments and suggestions to SEC.Webmaster@noaa.gov 
# 
# Units: proton flux p/cs2-sec-ster
# Status(S): 0 = nominal data, 1 to 8 = bad data record, 9 = no data
# Missing data values: -1.00e+05
# Source: ACE Satellite - Solar Isotope Spectrometer
#
# 5-minute averaged Real-time Integral Flux of High-energy Solar Protons
# 
#                 Modified Seconds
# UT Date   Time   Julian  of the      ---- Integral Proton Flux ----
# YR MO DA  HHMM     Day     Day       S    > 10 MeV    S    > 30 MeV
#--------------------------------------------------------------------
2005 09 25  0000    53638       0      0    1.33e+00    0    8.32e-01
2005 09 25  0005    53638     300      0    1.34e+00    0    8.62e-01
2005 09 25  0010    53638     600      0    1.33e+00    0    8.41e-01
2005 09 25  0015    53638     900      0    1.32e+00    0    8.43e-01
2005 09 25  0020    53638    1200      0    1.35e+00    0    8.71e-01
2005 09 25  0025    53638    1500      0    1.35e+00    0    8.55e-01
2005 09 25  0030    53638    1800      0    1.36e+00    0    8.70e-01
2005 09 25  0035    53638    2100      0    1.39e+00    0    8.88e-01
2005 09 25  0040    53638    2400      0    1.37e+00    0    8.62e-01
2005 09 25  0045    53638    2700      0    1.34e+00    0    8.51e-01
2005 09 25  0050    53638    3000      0    1.34e+00    0    8.38e-01
2005 09 25  0055    53638    3300      0    1.37e+00    0    8.68e-01
2005 09 25  0100    53638    3600      0    1.36e+00    0    8.60e-01
2005 09 25  0105    53638    3900      0    1.37e+00    0    8.73e-01
2005 09 25  0110    53638    4200      0    1.36e+00    0    8.60e-01
2005 09 25  0115    53638    4500      0    1.37e+00    0    8.75e-01
2005 09 25  0120    53638    4800      0    1.36e+00    0    8.60e-01
2005 09 25  0125    53638    5100      0    1.37e+00    0    8.67e-01
2005 09 25  0130    53638    5400      0    1.37e+00    0    8.60e-01
2005 09 25  0135    53638    5700      0    1.39e+00    0    8.62e-01
2005 09 25  0140    53638    6000      0    1.37e+00    0    8.61e-01
2005 09 25  0145    53638    6300      0    1.37e+00    0    8.54e-01
2005 09 25  0150    53638    6600      0    1.35e+00    0    8.47e-01
2005 09 25  0155    53638    6900      0    1.34e+00    0    8.33e-01
2005 09 25  0200    53638    7200      0    1.37e+00    0    8.62e-01
2005 09 25  0205    53638    7500      0    1.36e+00    0    8.60e-01
2005 09 25  0210    53638    7800      0    1.39e+00    0    8.75e-01
2005 09 25  0215    53638    8100      0    1.35e+00    0    8.61e-01
2005 09 25  0220    53638    8400      0    1.38e+00    0    8.72e-01
2005 09 25  0225    53638    8700      0    1.41e+00    0    8.82e-01
2005 09 25  0230    53638    9000      0    1.37e+00    0    8.67e-01
2005 09 25  0235    53638    9300      0    1.36e+00    0    8.59e-01
2005 09 25  0240    53638    9600      0    1.36e+00    0    8.69e-01
2005 09 25  0245    53638    9900      0    1.36e+00    0    8.60e-01
2005 09 25  0250    53638   10200      0    1.35e+00    0    8.41e-01
2005 09 25  0255    53638   10500      0    1.35e+00    0    8.44e-01
2005 09 25  0300    53638   10800      0    1.37e+00    0    8.73e-01
2005 09 25  0305    53638   11100      0    1.36e+00    0    8.62e-01
2005 09 25  0310    53638   11400      0    1.35e+00    0    8.58e-01
2005 09 25  0315    53638   11700      0    1.37e+00    0    8.70e-01
2005 09 25  0320    53638   12000      0    1.34e+00    0    8.60e-01
2005 09 25  0325    53638   12300      0    1.34e+00    0    8.41e-01
2005 09 25  0330    53638   12600      0    1.39e+00    0    8.67e-01
2005 09 25  0335    53638   12900      0    1.36e+00    0    8.67e-01
2005 09 25  0340    53638   13200      0    1.35e+00    0    8.47e-01
2005 09 25  0345    53638   13500      0    1.37e+00    0    8.66e-01
2005 09 25  0350    53638   13800      0    1.35e+00    0    8.54e-01
2005 09 25  0355    53638   14100      0    1.34e+00    0    8.36e-01
2005 09 25  0400    53638   14400      0    1.37e+00    0    8.59e-01
2005 09 25  0405    53638   14700      0    1.35e+00    0    8.42e-01
2005 09 25  0410    53638   15000      0    1.35e+00    0    8.49e-01
2005 09 25  0415    53638   15300      0    1.36e+00    0    8.53e-01
2005 09 25  0420    53638   15600      0    1.33e+00    0    8.40e-01
2005 09 25  0425    53638   15900      0    1.33e+00    0    8.56e-01
2005 09 25  0430    53638   16200      0    1.36e+00    0    8.52e-01
2005 09 25  0435    53638   16500      0    1.34e+00    0    8.52e-01
2005 09 25  0440    53638   16800      0    1.37e+00    0    8.76e-01
2005 09 25  0445    53638   17100      0    1.38e+00    0    8.78e-01
2005 09 25  0450    53638   17400      0    1.36e+00    0    8.61e-01
2005 09 25  0455    53638   17700      0    1.31e+00    0    8.31e-01
2005 09 25  0500    53638   18000      0    1.36e+00    0    8.63e-01
2005 09 25  0505    53638   18300      0    1.34e+00    0    8.36e-01
2005 09 25  0510    53638   18600      0    1.39e+00    0    8.71e-01
2005 09 25  0515    53638   18900      0    1.39e+00    0    8.82e-01
2005 09 25  0520    53638   19200      0    1.34e+00    0    8.39e-01
2005 09 25  0525    53638   19500      0    1.33e+00    0    8.44e-01
2005 09 25  0530    53638   19800      0    1.34e+00    0    8.48e-01
2005 09 25  0535    53638   20100      0    1.35e+00    0    8.58e-01
2005 09 25  0540    53638   20400      0    1.36e+00    0    8.57e-01
2005 09 25  0545    53638   20700      0    1.35e+00    0    8.43e-01
2005 09 25  0550    53638   21000      0    1.35e+00    0    8.51e-01
2005 09 25  0555    53638   21300      0    1.38e+00    0    8.73e-01
2005 09 25  0600    53638   21600      0    1.36e+00    0    8.60e-01
2005 09 25  0605    53638   21900      0    1.34e+00    0    8.50e-01
2005 09 25  0610    53638   22200      0    1.32e+00    0    8.35e-01
2005 09 25  0615    53638   22500      0    1.35e+00    0    8.39e-01
2005 09 25  0620    53638   22800      0    1.35e+00    0    8.64e-01
2005 09 25  0625    53638   23100      0    1.34e+00    0    8.52e-01
2005 09 25  0630    53638   23400      0    1.33e+00    0    8.32e-01
2005 09 25  0635    53638   23700      0    1.36e+00    0    8.58e-01
2005 09 25  0640    53638   24000      0    1.33e+00    0    8.49e-01
2005 09 25  0645    53638   24300      0    1.32e+00    0    8.28e-01
2005 09 25  0650    53638   24600      0    1.34e+00    0    8.47e-01
2005 09 25  0655    53638   24900      0    1.36e+00    0    8.53e-01
2005 09 25  0700    53638   25200      0    1.34e+00    0    8.56e-01
2005 09 25  0705    53638   25500      0    1.34e+00    0    8.41e-01
2005 09 25  0710    53638   25800      0    1.35e+00    0    8.53e-01
2005 09 25  0715    53638   26100      0    1.33e+00    0    8.40e-01
2005 09 25  0720    53638   26400      0    1.37e+00    0    8.83e-01
2005 09 25  0725    53638   26700      0    1.31e+00    0    8.40e-01
2005 09 25  0730    53638   27000      0    1.33e+00    0    8.50e-01
2005 09 25  0735    53638   27300      0    1.30e+00    0    8.19e-01
2005 09 25  0740    53638   27600      0    1.33e+00    0    8.48e-01
2005 09 25  0745    53638   27900      0    1.32e+00    0    8.31e-01
2005 09 25  0750    53638   28200      0    1.36e+00    0    8.63e-01
2005 09 25  0755    53638   28500      0    1.35e+00    0    8.61e-01
2005 09 25  0800    53638   28800      0    1.33e+00    0    8.56e-01
2005 09 25  0805    53638   29100      0    1.33e+00    0    8.59e-01
2005 09 25  0810    53638   29400      0    1.34e+00    0    8.46e-01
2005 09 25  0815    53638   29700      0    1.32e+00    0    8.29e-01
2005 09 25  0820    53638   30000      0    1.32e+00    0    8.42e-01
2005 09 25  0825    53638   30300      0    1.35e+00    0    8.55e-01
2005 09 25  0830    53638   30600      0    1.31e+00    0    8.43e-01
2005 09 25  0835    53638   30900      0    1.33e+00    0    8.44e-01
2005 09 25  0840    53638   31200      0    1.34e+00    0    8.36e-01
2005 09 25  0845    53638   31500      0    1.32e+00    0    8.38e-01
2005 09 25  0850    53638   31800      0    1.33e+00    0    8.33e-01
2005 09 25  0855    53638   32100      0    1.31e+00    0    8.27e-01
2005 09 25  0900    53638   32400      0    1.33e+00    0    8.54e-01
2005 09 25  0905    53638   32700      0    1.31e+00    0    8.23e-01
2005 09 25  0910    53638   33000      0    1.31e+00    0    8.41e-01
2005 09 25  0915    53638   33300      0    1.31e+00    0    8.33e-01
2005 09 25  0920    53638   33600      0    1.31e+00    0    8.39e-01
2005 09 25  0925    53638   33900      0    1.31e+00    0    8.42e-01
2005 09 25  0930    53638   34200      0    1.30e+00    0    8.39e-01
2005 09 25  0935    53638   34500      0    1.33e+00    0    8.54e-01
2005 09 25  0940    53638   34800      0    1.29e+00    0    8.29e-01
2005 09 25  0945    53638   35100      0    1.30e+00    0    8.42e-01
2005 09 25  0950    53638   35400      0    1.33e+00    0    8.62e-01
2005 09 25  0955    53638   35700      0    1.32e+00    0    8.45e-01
2005 09 25  1000    53638   36000      0    1.27e+00    0    8.13e-01
2005 09 25  1005    53638   36300      0    1.30e+00    0    8.33e-01
2005 09 25  1010    53638   36600      0    1.29e+00    0    8.22e-01
2005 09 25  1015    53638   36900      0    1.29e+00    0    8.38e-01
2005 09 25  1020    53638   37200      0    1.30e+00    0    8.39e-01
2005 09 25  1025    53638   37500      0    1.29e+00    0    8.34e-01
2005 09 25  1030    53638   37800      0    1.25e+00    0    8.06e-01
2005 09 25  1035    53638   38100      0    1.29e+00    0    8.24e-01
2005 09 25  1040    53638   38400      0    1.30e+00    0    8.37e-01
2005 09 25  1045    53638   38700      0    1.30e+00    0    8.31e-01
2005 09 25  1050    53638   39000      0    1.33e+00    0    8.53e-01
2005 09 25  1055    53638   39300      0    1.28e+00    0    8.27e-01
2005 09 25  1100    53638   39600      0    1.31e+00    0    8.42e-01
2005 09 25  1105    53638   39900      0    1.32e+00    0    8.49e-01
2005 09 25  1110    53638   40200      0    1.31e+00    0    8.44e-01
2005 09 25  1115    53638   40500      0    1.32e+00    0    8.51e-01
2005 09 25  1120    53638   40800      0    1.30e+00    0    8.43e-01
2005 09 25  1125    53638   41100      0    1.32e+00    0    8.54e-01
2005 09 25  1130    53638   41400      0    1.35e+00    0    8.76e-01
2005 09 25  1135    53638   41700      0    1.33e+00    0    8.54e-01
2005 09 25  1140    53638   42000      0    1.34e+00    0    8.67e-01
2005 09 25  1145    53638   42300      0    1.29e+00    0    8.26e-01
2005 09 25  1150    53638   42600      0    1.29e+00    0    8.26e-01
2005 09 25  1155    53638   42900      0    1.30e+00    0    8.52e-01
2005 09 25  1200    53638   43200      0    1.32e+00    0    8.41e-01
2005 09 25  1205    53638   43500      0    1.33e+00    0    8.61e-01
2005 09 25  1210    53638   43800      0    1.28e+00    0    8.08e-01
2005 09 25  1215    53638   44100      0    1.33e+00    0    8.64e-01
2005 09 25  1220    53638   44400      0    1.29e+00    0    8.30e-01
2005 09 25  1225    53638   44700      0    1.31e+00    0    8.48e-01
2005 09 25  1230    53638   45000      0    1.31e+00    0    8.48e-01
2005 09 25  1235    53638   45300      0    1.30e+00    0    8.46e-01
2005 09 25  1240    53638   45600      0    1.32e+00    0    8.51e-01
2005 09 25  1245    53638   45900      0    1.29e+00    0    8.40e-01
2005 09 25  1250    53638   46200      0    1.28e+00    0    8.31e-01
2005 09 25  1255    53638   46500      0    1.30e+00    0    8.52e-01
2005 09 25  1300    53638   46800      0    1.25e+00    0    8.11e-01
2005 09 25  1305    53638   47100      0    1.27e+00    0    8.18e-01
2005 09 25  1310    53638   47400      0    1.32e+00    0    8.51e-01
2005 09 25  1315    53638   47700      0    1.31e+00    0    8.45e-01
2005 09 25  1320    53638   48000      0    1.31e+00    0    8.57e-01
2005 09 25  1325    53638   48300      0    1.29e+00    0    8.27e-01
2005 09 25  1330    53638   48600      0    1.31e+00    0    8.53e-01
2005 09 25  1335    53638   48900      0    1.27e+00    0    8.00e-01
2005 09 25  1340    53638   49200      0    1.31e+00    0    8.50e-01
2005 09 25  1345    53638   49500      0    1.30e+00    0    8.53e-01
2005 09 25  1350    53638   49800      0    1.31e+00    0    8.39e-01
2005 09 25  1355    53638   50100      0    1.31e+00    0    8.43e-01
2005 09 25  1400    53638   50400      0    1.31e+00    0    8.44e-01
2005 09 25  1405    53638   50700      0    1.29e+00    0    8.29e-01
2005 09 25  1410    53638   51000      0    1.31e+00    0    8.44e-01
2005 09 25  1415    53638   51300      0    1.30e+00    0    8.38e-01
2005 09 25  1420    53638   51600      0    1.30e+00    0    8.40e-01
2005 09 25  1425    53638   51900      0    1.31e+00    0    8.49e-01
2005 09 25  1430    53638   52200      0    1.29e+00    0    8.40e-01
2005 09 25  1435    53638   52500      0    1.32e+00    0    8.66e-01
2005 09 25  1440    53638   52800      0    1.31e+00    0    8.53e-01
2005 09 25  1445    53638   53100      0    1.29e+00    0    8.39e-01
2005 09 25  1450    53638   53400      0    1.33e+00    0    8.64e-01
2005 09 25  1455    53638   53700      0    1.32e+00    0    8.54e-01
2005 09 25  1500    53638   54000      0    1.33e+00    0    8.74e-01
2005 09 25  1505    53638   54300      0    1.31e+00    0    8.55e-01
2005 09 25  1510    53638   54600      0    1.28e+00    0    8.22e-01
2005 09 25  1515    53638   54900      0    1.28e+00    0    8.19e-01
2005 09 25  1520    53638   55200      0    1.30e+00    0    8.52e-01
2005 09 25  1525    53638   55500      0    1.28e+00    0    8.34e-01
2005 09 25  1530    53638   55800      0    1.28e+00    0    8.35e-01
2005 09 25  1535    53638   56100      0    1.30e+00    0    8.21e-01
2005 09 25  1540    53638   56400      0    1.29e+00    0    8.34e-01
2005 09 25  1545    53638   56700      0    1.29e+00    0    8.41e-01
2005 09 25  1550    53638   57000      0    1.29e+00    0    8.40e-01
2005 09 25  1555    53638   57300      0    1.28e+00    0    8.21e-01
2005 09 25  1600    53638   57600      0    1.28e+00    0    8.18e-01
2005 09 25  1605    53638   57900      0    1.31e+00    0    8.40e-01
2005 09 25  1610    53638   58200      0    1.32e+00    0    8.52e-01
2005 09 25  1615    53638   58500      0    1.27e+00    0    8.30e-01
2005 09 25  1620    53638   58800      0    1.29e+00    0    8.43e-01
2005 09 25  1625    53638   59100      0    1.31e+00    0    8.53e-01
2005 09 25  1630    53638   59400      0    1.31e+00    0    8.47e-01
2005 09 25  1635    53638   59700      0    1.30e+00    0    8.44e-01
2005 09 25  1640    53638   60000      0    1.27e+00    0    8.31e-01
2005 09 25  1645    53638   60300      0    1.27e+00    0    8.21e-01
2005 09 25  1650    53638   60600      0    1.30e+00    0    8.35e-01
2005 09 25  1655    53638   60900      0    1.28e+00    0    8.31e-01
2005 09 25  1700    53638   61200      0    1.27e+00    0    8.23e-01
2005 09 25  1705    53638   61500      0    1.27e+00    0    8.11e-01
2005 09 25  1710    53638   61800      0    1.25e+00    0    8.07e-01
2005 09 25  1715    53638   62100      0    1.26e+00    0    8.18e-01
2005 09 25  1720    53638   62400      0    1.31e+00    0    8.60e-01
2005 09 25  1725    53638   62700      0    1.26e+00    0    8.22e-01
2005 09 25  1730    53638   63000      0    1.28e+00    0    8.33e-01
2005 09 25  1735    53638   63300      0    1.27e+00    0    8.18e-01
2005 09 25  1740    53638   63600      0    1.27e+00    0    8.18e-01
2005 09 25  1745    53638   63900      0    1.26e+00    0    8.16e-01
2005 09 25  1750    53638   64200      0    1.27e+00    0    8.31e-01
2005 09 25  1755    53638   64500      0    1.27e+00    0    8.21e-01
2005 09 25  1800    53638   64800      0    1.29e+00    0    8.30e-01
2005 09 25  1805    53638   65100      0    1.26e+00    0    8.22e-01
2005 09 25  1810    53638   65400      0    1.28e+00    0    8.36e-01
2005 09 25  1815    53638   65700      0    1.30e+00    0    8.42e-01
2005 09 25  1820    53638   66000      0    1.30e+00    0    8.53e-01
2005 09 25  1825    53638   66300      0    1.25e+00    0    8.17e-01
2005 09 25  1830    53638   66600      0    1.29e+00    0    8.42e-01
2005 09 25  1835    53638   66900      0    1.28e+00    0    8.28e-01
2005 09 25  1840    53638   67200      0    1.28e+00    0    8.36e-01
2005 09 25  1845    53638   67500      0    1.30e+00    0    8.44e-01
2005 09 25  1850    53638   67800      0    1.27e+00    0    8.21e-01
2005 09 25  1855    53638   68100      0    1.27e+00    0    8.42e-01
2005 09 25  1900    53638   68400      0    1.28e+00    0    8.23e-01
2005 09 25  1905    53638   68700      0    1.28e+00    0    8.25e-01
2005 09 25  1910    53638   69000      0    1.30e+00    0    8.26e-01
2005 09 25  1915    53638   69300      0    1.26e+00    0    8.20e-01
2005 09 25  1920    53638   69600      0    1.30e+00    0    8.49e-01
2005 09 25  1925    53638   69900      0    1.26e+00    0    8.06e-01
2005 09 25  1930    53638   70200      0    1.31e+00    0    8.52e-01
2005 09 25  1935    53638   70500      0    1.26e+00    0    8.18e-01
2005 09 25  1940    53638   70800      0    1.26e+00    0    8.18e-01
2005 09 25  1945    53638   71100      0    1.29e+00    0    8.37e-01
2005 09 25  1950    53638   71400      0    1.25e+00    0    8.15e-01
2005 09 25  1955    53638   71700      9   -1.00e+05    9   -1.00e+05
2005 09 25  2000    53638   72000      0    1.36e+00    0    8.60e-01
2005 09 25  2005    53638   72300      0    1.23e+00    0    7.88e-01
2005 09 25  2010    53638   72600      0    1.30e+00    0    8.43e-01
2005 09 25  2015    53638   72900      0    1.29e+00    0    8.42e-01
2005 09 25  2020    53638   73200      0    1.31e+00    0    8.43e-01
2005 09 25  2025    53638   73500      9   -1.00e+05    9   -1.00e+05
2005 09 25  2030    53638   73800      0    1.28e+00    0    8.30e-01
2005 09 25  2035    53638   74100      0    1.29e+00    0    8.24e-01
2005 09 25  2040    53638   74400      0    1.27e+00    0    8.29e-01
2005 09 25  2045    53638   74700      0    1.30e+00    0    8.44e-01
2005 09 25  2050    53638   75000      0    1.28e+00    0    8.38e-01
2005 09 25  2055    53638   75300      0    1.24e+00    0    8.12e-01
2005 09 25  2100    53638   75600      0    1.27e+00    0    8.30e-01
2005 09 25  2105    53638   75900      0    1.27e+00    0    8.24e-01
2005 09 25  2110    53638   76200      0    1.26e+00    0    8.26e-01
2005 09 25  2115    53638   76500      0    1.27e+00    0    8.33e-01
2005 09 25  2120    53638   76800      0    1.28e+00    0    8.32e-01
2005 09 25  2125    53638   77100      0    1.27e+00    0    8.17e-01
2005 09 25  2130    53638   77400      0    1.28e+00    0    8.39e-01
2005 09 25  2135    53638   77700      0    1.26e+00    0    8.28e-01
2005 09 25  2140    53638   78000      0    1.30e+00    0    8.50e-01
2005 09 25  2145    53638   78300      0    1.29e+00    0    8.38e-01
2005 09 25  2150    53638   78600      0    1.28e+00    0    8.33e-01
2005 09 25  2155    53638   78900      0    1.21e+00    0    7.86e-01
2005 09 25  2200    53638   79200      0    1.25e+00    0    8.13e-01
2005 09 25  2205    53638   79500      0    1.27e+00    0    8.36e-01
2005 09 25  2210    53638   79800      0    1.26e+00    0    8.22e-01
2005 09 25  2215    53638   80100      0    1.27e+00    0    8.21e-01
2005 09 25  2220    53638   80400      0    1.29e+00    0    8.43e-01
2005 09 25  2225    53638   80700      0    1.27e+00    0    8.18e-01
2005 09 25  2230    53638   81000      0    1.26e+00    0    8.19e-01
2005 09 25  2235    53638   81300      0    1.28e+00    0    8.36e-01
2005 09 25  2240    53638   81600      0    1.30e+00    0    8.39e-01
2005 09 25  2245    53638   81900      0    1.30e+00    0    8.48e-01
2005 09 25  2250    53638   82200      0    1.30e+00    0    8.37e-01
2005 09 25  2255    53638   82500      0    1.29e+00    0    8.31e-01
2005 09 25  2300    53638   82800      0    1.28e+00    0    8.40e-01
2005 09 25  2305    53638   83100      0    1.30e+00    0    8.51e-01
2005 09 25  2310    53638   83400      0    1.28e+00    0    8.39e-01
2005 09 25  2315    53638   83700      0    1.29e+00    0    8.34e-01
2005 09 25  2320    53638   84000      0    1.28e+00    0    8.32e-01
2005 09 25  2325    53638   84300      0    1.29e+00    0    8.31e-01
2005 09 25  2330    53638   84600      0    1.29e+00    0    8.46e-01
2005 09 25  2335    53638   84900      0    1.26e+00    0    8.14e-01
2005 09 25  2340    53638   85200      0    1.35e+00    0    9.16e-01
2005 09 25  2345    53638   85500      0    1.29e+00    0    8.43e-01
2005 09 25  2350    53638   85800      0    1.26e+00    0    8.19e-01
2005 09 25  2355    53638   86100      0    1.28e+00    0    8.40e-01
