:Data_list: 20050901_ace_sis_5m.txt
:Created: 2005 Sep 02 0011 UT
# Prepared by the U.S. Dept. of Commerce, NOAA, Space Environment Center.
# Please send comments and suggestions to SEC.Webmaster@noaa.gov 
# 
# Units: proton flux p/cs2-sec-ster
# Status(S): 0 = nominal data, 1 to 8 = bad data record, 9 = no data
# Missing data values: -1.00e+05
# Source: ACE Satellite - Solar Isotope Spectrometer
#
# 5-minute averaged Real-time Integral Flux of High-energy Solar Protons
# 
#                 Modified Seconds
# UT Date   Time   Julian  of the      ---- Integral Proton Flux ----
# YR MO DA  HHMM     Day     Day       S    > 10 MeV    S    > 30 MeV
#--------------------------------------------------------------------
2005 09 01  0000    53614       0      0    1.35e+00    0    9.02e-01
2005 09 01  0005    53614     300      0    1.33e+00    0    8.93e-01
2005 09 01  0010    53614     600      0    1.32e+00    0    8.84e-01
2005 09 01  0015    53614     900      0    1.31e+00    0    8.74e-01
2005 09 01  0020    53614    1200      0    1.35e+00    0    9.16e-01
2005 09 01  0025    53614    1500      0    1.34e+00    0    9.07e-01
2005 09 01  0030    53614    1800      0    1.31e+00    0    8.73e-01
2005 09 01  0035    53614    2100      0    1.36e+00    0    9.20e-01
2005 09 01  0040    53614    2400      0    1.32e+00    0    8.94e-01
2005 09 01  0045    53614    2700      0    1.35e+00    0    9.12e-01
2005 09 01  0050    53614    3000      0    1.37e+00    0    9.19e-01
2005 09 01  0055    53614    3300      0    1.32e+00    0    8.91e-01
2005 09 01  0100    53614    3600      0    1.34e+00    0    9.04e-01
2005 09 01  0105    53614    3900      0    1.34e+00    0    9.00e-01
2005 09 01  0110    53614    4200      0    1.32e+00    0    8.87e-01
2005 09 01  0115    53614    4500      0    1.35e+00    0    9.11e-01
2005 09 01  0120    53614    4800      0    1.37e+00    0    9.20e-01
2005 09 01  0125    53614    5100      0    1.34e+00    0    9.05e-01
2005 09 01  0130    53614    5400      0    1.37e+00    0    9.31e-01
2005 09 01  0135    53614    5700      0    1.38e+00    0    9.35e-01
2005 09 01  0140    53614    6000      0    1.40e+00    0    9.52e-01
2005 09 01  0145    53614    6300      0    1.38e+00    0    9.32e-01
2005 09 01  0150    53614    6600      0    1.40e+00    0    9.55e-01
2005 09 01  0155    53614    6900      0    1.38e+00    0    9.24e-01
2005 09 01  0200    53614    7200      0    1.41e+00    0    9.56e-01
2005 09 01  0205    53614    7500      0    1.40e+00    0    9.52e-01
2005 09 01  0210    53614    7800      0    1.43e+00    0    9.60e-01
2005 09 01  0215    53614    8100      0    1.42e+00    0    9.64e-01
2005 09 01  0220    53614    8400      0    1.45e+00    0    9.78e-01
2005 09 01  0225    53614    8700      0    1.41e+00    0    9.44e-01
2005 09 01  0230    53614    9000      0    1.41e+00    0    9.44e-01
2005 09 01  0235    53614    9300      0    1.45e+00    0    9.84e-01
2005 09 01  0240    53614    9600      0    1.46e+00    0    1.00e+00
2005 09 01  0245    53614    9900      0    1.46e+00    0    9.91e-01
2005 09 01  0250    53614   10200      0    1.49e+00    0    1.01e+00
2005 09 01  0255    53614   10500      0    1.51e+00    0    1.04e+00
2005 09 01  0300    53614   10800      0    1.51e+00    0    1.02e+00
2005 09 01  0305    53614   11100      0    1.46e+00    0    9.91e-01
2005 09 01  0310    53614   11400      0    1.50e+00    0    1.02e+00
2005 09 01  0315    53614   11700      0    1.53e+00    0    1.05e+00
2005 09 01  0320    53614   12000      0    1.53e+00    0    1.01e+00
2005 09 01  0325    53614   12300      0    1.57e+00    0    1.06e+00
2005 09 01  0330    53614   12600      0    1.57e+00    0    1.05e+00
2005 09 01  0335    53614   12900      0    1.57e+00    0    1.05e+00
2005 09 01  0340    53614   13200      0    1.54e+00    0    1.04e+00
2005 09 01  0345    53614   13500      0    1.57e+00    0    1.07e+00
2005 09 01  0350    53614   13800      0    1.60e+00    0    1.08e+00
2005 09 01  0355    53614   14100      0    1.62e+00    0    1.10e+00
2005 09 01  0400    53614   14400      0    1.67e+00    0    1.13e+00
2005 09 01  0405    53614   14700      0    1.64e+00    0    1.10e+00
2005 09 01  0410    53614   15000      0    1.60e+00    0    1.07e+00
2005 09 01  0415    53614   15300      0    1.63e+00    0    1.10e+00
2005 09 01  0420    53614   15600      0    1.65e+00    0    1.10e+00
2005 09 01  0425    53614   15900      0    1.68e+00    0    1.13e+00
2005 09 01  0430    53614   16200      0    1.73e+00    0    1.15e+00
2005 09 01  0435    53614   16500      0    1.71e+00    0    1.15e+00
2005 09 01  0440    53614   16800      0    1.73e+00    0    1.16e+00
2005 09 01  0445    53614   17100      0    1.72e+00    0    1.16e+00
2005 09 01  0450    53614   17400      0    1.73e+00    0    1.17e+00
2005 09 01  0455    53614   17700      0    1.67e+00    0    1.13e+00
2005 09 01  0500    53614   18000      0    1.71e+00    0    1.15e+00
2005 09 01  0505    53614   18300      0    1.69e+00    0    1.15e+00
2005 09 01  0510    53614   18600      0    1.70e+00    0    1.15e+00
2005 09 01  0515    53614   18900      0    1.72e+00    0    1.17e+00
2005 09 01  0520    53614   19200      0    1.72e+00    0    1.17e+00
2005 09 01  0525    53614   19500      0    1.70e+00    0    1.15e+00
2005 09 01  0530    53614   19800      0    1.79e+00    0    1.20e+00
2005 09 01  0535    53614   20100      0    1.77e+00    0    1.20e+00
2005 09 01  0540    53614   20400      0    1.79e+00    0    1.21e+00
2005 09 01  0545    53614   20700      0    1.75e+00    0    1.18e+00
2005 09 01  0550    53614   21000      0    1.75e+00    0    1.19e+00
2005 09 01  0555    53614   21300      0    1.79e+00    0    1.22e+00
2005 09 01  0600    53614   21600      0    1.81e+00    0    1.24e+00
2005 09 01  0605    53614   21900      0    1.82e+00    0    1.23e+00
2005 09 01  0610    53614   22200      0    1.86e+00    0    1.26e+00
2005 09 01  0615    53614   22500      0    1.83e+00    0    1.23e+00
2005 09 01  0620    53614   22800      0    1.87e+00    0    1.25e+00
2005 09 01  0625    53614   23100      0    1.84e+00    0    1.25e+00
2005 09 01  0630    53614   23400      0    1.85e+00    0    1.26e+00
2005 09 01  0635    53614   23700      0    1.88e+00    0    1.26e+00
2005 09 01  0640    53614   24000      0    1.88e+00    0    1.27e+00
2005 09 01  0645    53614   24300      0    1.91e+00    0    1.28e+00
2005 09 01  0650    53614   24600      0    1.97e+00    0    1.32e+00
2005 09 01  0655    53614   24900      0    1.97e+00    0    1.32e+00
2005 09 01  0700    53614   25200      0    1.99e+00    0    1.34e+00
2005 09 01  0705    53614   25500      0    2.02e+00    0    1.35e+00
2005 09 01  0710    53614   25800      0    2.04e+00    0    1.35e+00
2005 09 01  0715    53614   26100      0    2.05e+00    0    1.35e+00
2005 09 01  0720    53614   26400      0    2.08e+00    0    1.40e+00
2005 09 01  0725    53614   26700      0    2.07e+00    0    1.37e+00
2005 09 01  0730    53614   27000      0    2.10e+00    0    1.39e+00
2005 09 01  0735    53614   27300      0    2.07e+00    0    1.39e+00
2005 09 01  0740    53614   27600      0    2.08e+00    0    1.39e+00
2005 09 01  0745    53614   27900      0    2.07e+00    0    1.38e+00
2005 09 01  0750    53614   28200      0    2.06e+00    0    1.38e+00
2005 09 01  0755    53614   28500      0    2.09e+00    0    1.41e+00
2005 09 01  0800    53614   28800      0    2.12e+00    0    1.39e+00
2005 09 01  0805    53614   29100      0    2.13e+00    0    1.40e+00
2005 09 01  0810    53614   29400      0    2.20e+00    0    1.45e+00
2005 09 01  0815    53614   29700      0    2.19e+00    0    1.45e+00
2005 09 01  0820    53614   30000      0    2.22e+00    0    1.49e+00
2005 09 01  0825    53614   30300      0    2.27e+00    0    1.50e+00
2005 09 01  0830    53614   30600      0    2.23e+00    0    1.49e+00
2005 09 01  0835    53614   30900      0    2.23e+00    0    1.46e+00
2005 09 01  0840    53614   31200      0    2.26e+00    0    1.48e+00
2005 09 01  0845    53614   31500      0    2.27e+00    0    1.50e+00
2005 09 01  0850    53614   31800      0    2.41e+00    0    1.61e+00
2005 09 01  0855    53614   32100      0    2.39e+00    0    1.56e+00
2005 09 01  0900    53614   32400      0    2.40e+00    0    1.58e+00
2005 09 01  0905    53614   32700      0    2.38e+00    0    1.55e+00
2005 09 01  0910    53614   33000      0    2.41e+00    0    1.58e+00
2005 09 01  0915    53614   33300      0    2.48e+00    0    1.61e+00
2005 09 01  0920    53614   33600      0    2.49e+00    0    1.63e+00
2005 09 01  0925    53614   33900      0    2.46e+00    0    1.60e+00
2005 09 01  0930    53614   34200      0    2.53e+00    0    1.64e+00
2005 09 01  0935    53614   34500      0    2.54e+00    0    1.66e+00
2005 09 01  0940    53614   34800      0    2.57e+00    0    1.68e+00
2005 09 01  0945    53614   35100      0    2.54e+00    0    1.62e+00
2005 09 01  0950    53614   35400      0    2.54e+00    0    1.66e+00
2005 09 01  0955    53614   35700      0    2.62e+00    0    1.68e+00
2005 09 01  1000    53614   36000      0    2.64e+00    0    1.71e+00
2005 09 01  1005    53614   36300      0    2.58e+00    0    1.66e+00
2005 09 01  1010    53614   36600      0    2.66e+00    0    1.73e+00
2005 09 01  1015    53614   36900      0    2.62e+00    0    1.68e+00
2005 09 01  1020    53614   37200      0    2.64e+00    0    1.71e+00
2005 09 01  1025    53614   37500      0    2.66e+00    0    1.74e+00
2005 09 01  1030    53614   37800      0    2.65e+00    0    1.70e+00
2005 09 01  1035    53614   38100      0    2.72e+00    0    1.74e+00
2005 09 01  1040    53614   38400      0    2.68e+00    0    1.72e+00
2005 09 01  1045    53614   38700      0    2.73e+00    0    1.72e+00
2005 09 01  1050    53614   39000      0    2.73e+00    0    1.75e+00
2005 09 01  1055    53614   39300      0    2.77e+00    0    1.76e+00
2005 09 01  1100    53614   39600      0    2.78e+00    0    1.80e+00
2005 09 01  1105    53614   39900      0    2.76e+00    0    1.74e+00
2005 09 01  1110    53614   40200      0    2.72e+00    0    1.73e+00
2005 09 01  1115    53614   40500      0    2.70e+00    0    1.72e+00
2005 09 01  1120    53614   40800      0    2.65e+00    0    1.68e+00
2005 09 01  1125    53614   41100      0    2.69e+00    0    1.72e+00
2005 09 01  1130    53614   41400      0    2.74e+00    0    1.75e+00
2005 09 01  1135    53614   41700      0    2.71e+00    0    1.74e+00
2005 09 01  1140    53614   42000      0    2.74e+00    0    1.75e+00
2005 09 01  1145    53614   42300      0    2.76e+00    0    1.76e+00
2005 09 01  1150    53614   42600      0    2.74e+00    0    1.73e+00
2005 09 01  1155    53614   42900      0    2.79e+00    0    1.78e+00
2005 09 01  1200    53614   43200      0    2.88e+00    0    1.81e+00
2005 09 01  1205    53614   43500      0    2.84e+00    0    1.79e+00
2005 09 01  1210    53614   43800      0    2.85e+00    0    1.80e+00
2005 09 01  1215    53614   44100      0    2.82e+00    0    1.79e+00
2005 09 01  1220    53614   44400      0    2.82e+00    0    1.76e+00
2005 09 01  1225    53614   44700      0    2.88e+00    0    1.80e+00
2005 09 01  1230    53614   45000      0    2.84e+00    0    1.77e+00
2005 09 01  1235    53614   45300      0    2.79e+00    0    1.75e+00
2005 09 01  1240    53614   45600      0    2.86e+00    0    1.78e+00
2005 09 01  1245    53614   45900      0    2.78e+00    0    1.74e+00
2005 09 01  1250    53614   46200      0    2.79e+00    0    1.76e+00
2005 09 01  1255    53614   46500      0    2.85e+00    0    1.79e+00
2005 09 01  1300    53614   46800      0    2.83e+00    0    1.76e+00
2005 09 01  1305    53614   47100      0    2.88e+00    0    1.78e+00
2005 09 01  1310    53614   47400      0    2.85e+00    0    1.78e+00
2005 09 01  1315    53614   47700      0    2.84e+00    0    1.77e+00
2005 09 01  1320    53614   48000      0    2.81e+00    0    1.74e+00
2005 09 01  1325    53614   48300      0    2.87e+00    0    1.76e+00
2005 09 01  1330    53614   48600      0    2.84e+00    0    1.76e+00
2005 09 01  1335    53614   48900      0    2.87e+00    0    1.75e+00
2005 09 01  1340    53614   49200      0    2.90e+00    0    1.76e+00
2005 09 01  1345    53614   49500      0    2.82e+00    0    1.71e+00
2005 09 01  1350    53614   49800      0    2.81e+00    0    1.73e+00
2005 09 01  1355    53614   50100      0    2.76e+00    0    1.73e+00
2005 09 01  1400    53614   50400      0    2.78e+00    0    1.74e+00
2005 09 01  1405    53614   50700      0    2.85e+00    0    1.80e+00
2005 09 01  1410    53614   51000      0    2.81e+00    0    1.76e+00
2005 09 01  1415    53614   51300      0    2.85e+00    0    1.75e+00
2005 09 01  1420    53614   51600      0    2.89e+00    0    1.78e+00
2005 09 01  1425    53614   51900      0    2.84e+00    0    1.79e+00
2005 09 01  1430    53614   52200      0    2.85e+00    0    1.78e+00
2005 09 01  1435    53614   52500      0    2.86e+00    0    1.79e+00
2005 09 01  1440    53614   52800      0    2.89e+00    0    1.78e+00
2005 09 01  1445    53614   53100      0    2.87e+00    0    1.79e+00
2005 09 01  1450    53614   53400      0    2.89e+00    0    1.78e+00
2005 09 01  1455    53614   53700      0    2.93e+00    0    1.81e+00
2005 09 01  1500    53614   54000      0    2.98e+00    0    1.83e+00
2005 09 01  1505    53614   54300      0    2.94e+00    0    1.78e+00
2005 09 01  1510    53614   54600      0    2.95e+00    0    1.81e+00
2005 09 01  1515    53614   54900      0    2.92e+00    0    1.78e+00
2005 09 01  1520    53614   55200      0    2.97e+00    0    1.82e+00
2005 09 01  1525    53614   55500      0    2.92e+00    0    1.82e+00
2005 09 01  1530    53614   55800      0    2.93e+00    0    1.79e+00
2005 09 01  1535    53614   56100      0    2.87e+00    0    1.76e+00
2005 09 01  1540    53614   56400      0    2.92e+00    0    1.78e+00
2005 09 01  1545    53614   56700      0    2.97e+00    0    1.80e+00
2005 09 01  1550    53614   57000      0    2.91e+00    0    1.77e+00
2005 09 01  1555    53614   57300      0    2.91e+00    0    1.73e+00
2005 09 01  1600    53614   57600      0    2.94e+00    0    1.76e+00
2005 09 01  1605    53614   57900      0    3.00e+00    0    1.83e+00
2005 09 01  1610    53614   58200      0    3.07e+00    0    1.87e+00
2005 09 01  1615    53614   58500      0    3.03e+00    0    1.84e+00
2005 09 01  1620    53614   58800      0    3.02e+00    0    1.84e+00
2005 09 01  1625    53614   59100      0    3.09e+00    0    1.86e+00
2005 09 01  1630    53614   59400      0    3.10e+00    0    1.85e+00
2005 09 01  1635    53614   59700      0    3.08e+00    0    1.87e+00
2005 09 01  1640    53614   60000      0    3.05e+00    0    1.83e+00
2005 09 01  1645    53614   60300      0    3.06e+00    0    1.85e+00
2005 09 01  1650    53614   60600      0    3.06e+00    0    1.83e+00
2005 09 01  1655    53614   60900      0    3.10e+00    0    1.86e+00
2005 09 01  1700    53614   61200      0    3.06e+00    0    1.84e+00
2005 09 01  1705    53614   61500      0    3.05e+00    0    1.82e+00
2005 09 01  1710    53614   61800      0    3.04e+00    0    1.82e+00
2005 09 01  1715    53614   62100      0    3.09e+00    0    1.85e+00
2005 09 01  1720    53614   62400      0    3.04e+00    0    1.83e+00
2005 09 01  1725    53614   62700      0    2.98e+00    0    1.81e+00
2005 09 01  1730    53614   63000      0    2.91e+00    0    1.76e+00
2005 09 01  1735    53614   63300      0    2.97e+00    0    1.80e+00
2005 09 01  1740    53614   63600      0    2.90e+00    0    1.77e+00
2005 09 01  1745    53614   63900      0    2.97e+00    0    1.79e+00
2005 09 01  1750    53614   64200      0    2.91e+00    0    1.76e+00
2005 09 01  1755    53614   64500      0    2.89e+00    0    1.74e+00
2005 09 01  1800    53614   64800      0    2.89e+00    0    1.75e+00
2005 09 01  1805    53614   65100      0    2.99e+00    0    1.80e+00
2005 09 01  1810    53614   65400      9   -1.00e+05    9   -1.00e+05
2005 09 01  1815    53614   65700      9   -1.00e+05    9   -1.00e+05
2005 09 01  1820    53614   66000      0    8.79e+00    0    1.78e+00
2005 09 01  1825    53614   66300      0    2.95e+00    0    1.77e+00
2005 09 01  1830    53614   66600      0    3.01e+00    0    1.78e+00
2005 09 01  1835    53614   66900      0    3.00e+00    0    1.76e+00
2005 09 01  1840    53614   67200      0    3.01e+00    0    1.78e+00
2005 09 01  1845    53614   67500      0    3.06e+00    0    1.83e+00
2005 09 01  1850    53614   67800      0    3.04e+00    0    1.80e+00
2005 09 01  1855    53614   68100      0    3.08e+00    0    1.83e+00
2005 09 01  1900    53614   68400      0    3.08e+00    0    1.83e+00
2005 09 01  1905    53614   68700      0    3.03e+00    0    1.81e+00
2005 09 01  1910    53614   69000      9   -1.00e+05    9   -1.00e+05
2005 09 01  1915    53614   69300      9   -1.00e+05    9   -1.00e+05
2005 09 01  1920    53614   69600      9   -1.00e+05    9   -1.00e+05
2005 09 01  1925    53614   69900      9   -1.00e+05    9   -1.00e+05
2005 09 01  1930    53614   70200      9   -1.00e+05    9   -1.00e+05
2005 09 01  1935    53614   70500      9   -1.00e+05    9   -1.00e+05
2005 09 01  1940    53614   70800      9   -1.00e+05    9   -1.00e+05
2005 09 01  1945    53614   71100      9   -1.00e+05    9   -1.00e+05
2005 09 01  1950    53614   71400      9   -1.00e+05    9   -1.00e+05
2005 09 01  1955    53614   71700      9   -1.00e+05    9   -1.00e+05
2005 09 01  2000    53614   72000      9   -1.00e+05    9   -1.00e+05
2005 09 01  2005    53614   72300      9   -1.00e+05    9   -1.00e+05
2005 09 01  2010    53614   72600      9   -1.00e+05    9   -1.00e+05
2005 09 01  2015    53614   72900      9   -1.00e+05    9   -1.00e+05
2005 09 01  2020    53614   73200      9   -1.00e+05    9   -1.00e+05
2005 09 01  2025    53614   73500      0    3.18e+00    0    1.84e+00
2005 09 01  2030    53614   73800      0    3.08e+00    0    1.80e+00
2005 09 01  2035    53614   74100      0    3.05e+00    0    1.78e+00
2005 09 01  2040    53614   74400      0    3.12e+00    0    1.83e+00
2005 09 01  2045    53614   74700      0    3.13e+00    0    1.81e+00
2005 09 01  2050    53614   75000      0    3.20e+00    0    1.87e+00
2005 09 01  2055    53614   75300      0    3.18e+00    0    1.84e+00
2005 09 01  2100    53614   75600      0    3.13e+00    0    1.81e+00
2005 09 01  2105    53614   75900      0    3.14e+00    0    1.85e+00
2005 09 01  2110    53614   76200      0    3.13e+00    0    1.83e+00
2005 09 01  2115    53614   76500      0    3.15e+00    0    1.84e+00
2005 09 01  2120    53614   76800      0    3.17e+00    0    1.84e+00
2005 09 01  2125    53614   77100      0    3.17e+00    0    1.85e+00
2005 09 01  2130    53614   77400      0    3.13e+00    0    1.79e+00
2005 09 01  2135    53614   77700      0    3.18e+00    0    1.83e+00
2005 09 01  2140    53614   78000      0    3.18e+00    0    1.84e+00
2005 09 01  2145    53614   78300      0    3.17e+00    0    1.81e+00
2005 09 01  2150    53614   78600      0    3.15e+00    0    1.82e+00
2005 09 01  2155    53614   78900      0    3.25e+00    0    1.87e+00
2005 09 01  2200    53614   79200      0    3.22e+00    0    1.83e+00
2005 09 01  2205    53614   79500      0    3.30e+00    0    1.88e+00
2005 09 01  2210    53614   79800      0    3.24e+00    0    1.83e+00
2005 09 01  2215    53614   80100      0    3.27e+00    0    1.84e+00
2005 09 01  2220    53614   80400      0    3.23e+00    0    1.81e+00
2005 09 01  2225    53614   80700      0    3.26e+00    0    1.84e+00
2005 09 01  2230    53614   81000      0    3.33e+00    0    1.87e+00
2005 09 01  2235    53614   81300      0    3.24e+00    0    1.82e+00
2005 09 01  2240    53614   81600      0    3.31e+00    0    1.86e+00
2005 09 01  2245    53614   81900      0    3.27e+00    0    1.82e+00
2005 09 01  2250    53614   82200      0    3.33e+00    0    1.85e+00
2005 09 01  2255    53614   82500      0    3.39e+00    0    1.89e+00
2005 09 01  2300    53614   82800      0    3.36e+00    0    1.87e+00
2005 09 01  2305    53614   83100      0    3.32e+00    0    1.83e+00
2005 09 01  2310    53614   83400      0    3.41e+00    0    1.88e+00
2005 09 01  2315    53614   83700      0    3.40e+00    0    1.88e+00
2005 09 01  2320    53614   84000      0    3.44e+00    0    1.86e+00
2005 09 01  2325    53614   84300      0    3.39e+00    0    1.87e+00
2005 09 01  2330    53614   84600      0    3.40e+00    0    1.85e+00
2005 09 01  2335    53614   84900      0    3.40e+00    0    1.85e+00
2005 09 01  2340    53614   85200      0    3.42e+00    0    1.88e+00
2005 09 01  2345    53614   85500      0    3.43e+00    0    1.90e+00
2005 09 01  2350    53614   85800      0    3.42e+00    0    1.86e+00
2005 09 01  2355    53614   86100      0    3.45e+00    0    1.90e+00
