:Data_list: 20050919_ace_sis_5m.txt
:Created: 2005 Sep 20 0011 UT
# Prepared by the U.S. Dept. of Commerce, NOAA, Space Environment Center.
# Please send comments and suggestions to SEC.Webmaster@noaa.gov 
# 
# Units: proton flux p/cs2-sec-ster
# Status(S): 0 = nominal data, 1 to 8 = bad data record, 9 = no data
# Missing data values: -1.00e+05
# Source: ACE Satellite - Solar Isotope Spectrometer
#
# 5-minute averaged Real-time Integral Flux of High-energy Solar Protons
# 
#                 Modified Seconds
# UT Date   Time   Julian  of the      ---- Integral Proton Flux ----
# YR MO DA  HHMM     Day     Day       S    > 10 MeV    S    > 30 MeV
#--------------------------------------------------------------------
2005 09 19  0000    53632       0      0    3.40e+00    0    1.11e+00
2005 09 19  0005    53632     300      0    3.40e+00    0    1.08e+00
2005 09 19  0010    53632     600      0    3.44e+00    0    1.10e+00
2005 09 19  0015    53632     900      0    3.51e+00    0    1.11e+00
2005 09 19  0020    53632    1200      0    3.52e+00    0    1.11e+00
2005 09 19  0025    53632    1500      0    3.44e+00    0    1.07e+00
2005 09 19  0030    53632    1800      0    3.51e+00    0    1.09e+00
2005 09 19  0035    53632    2100      0    3.41e+00    0    1.05e+00
2005 09 19  0040    53632    2400      0    3.38e+00    0    1.03e+00
2005 09 19  0045    53632    2700      0    3.49e+00    0    1.06e+00
2005 09 19  0050    53632    3000      0    3.47e+00    0    1.08e+00
2005 09 19  0055    53632    3300      0    3.40e+00    0    1.07e+00
2005 09 19  0100    53632    3600      0    3.31e+00    0    1.06e+00
2005 09 19  0105    53632    3900      0    3.24e+00    0    1.06e+00
2005 09 19  0110    53632    4200      0    3.21e+00    0    1.07e+00
2005 09 19  0115    53632    4500      0    3.21e+00    0    1.07e+00
2005 09 19  0120    53632    4800      0    3.14e+00    0    1.01e+00
2005 09 19  0125    53632    5100      0    3.21e+00    0    1.05e+00
2005 09 19  0130    53632    5400      0    3.25e+00    0    1.11e+00
2005 09 19  0135    53632    5700      0    3.24e+00    0    1.05e+00
2005 09 19  0140    53632    6000      0    3.23e+00    0    1.04e+00
2005 09 19  0145    53632    6300      0    3.32e+00    0    1.07e+00
2005 09 19  0150    53632    6600      0    3.32e+00    0    1.00e+00
2005 09 19  0155    53632    6900      0    3.37e+00    0    1.05e+00
2005 09 19  0200    53632    7200      0    3.36e+00    0    1.07e+00
2005 09 19  0205    53632    7500      0    3.38e+00    0    1.10e+00
2005 09 19  0210    53632    7800      0    3.38e+00    0    1.10e+00
2005 09 19  0215    53632    8100      0    3.34e+00    0    1.07e+00
2005 09 19  0220    53632    8400      0    3.37e+00    0    1.11e+00
2005 09 19  0225    53632    8700      0    3.42e+00    0    1.12e+00
2005 09 19  0230    53632    9000      0    3.34e+00    0    1.11e+00
2005 09 19  0235    53632    9300      0    3.31e+00    0    1.08e+00
2005 09 19  0240    53632    9600      0    3.32e+00    0    1.10e+00
2005 09 19  0245    53632    9900      0    3.22e+00    0    1.06e+00
2005 09 19  0250    53632   10200      0    3.18e+00    0    1.05e+00
2005 09 19  0255    53632   10500      0    3.20e+00    0    1.06e+00
2005 09 19  0300    53632   10800      0    3.27e+00    0    1.08e+00
2005 09 19  0305    53632   11100      0    3.20e+00    0    1.06e+00
2005 09 19  0310    53632   11400      0    3.12e+00    0    1.05e+00
2005 09 19  0315    53632   11700      0    3.14e+00    0    1.07e+00
2005 09 19  0320    53632   12000      0    3.01e+00    0    9.79e-01
2005 09 19  0325    53632   12300      0    3.02e+00    0    1.03e+00
2005 09 19  0330    53632   12600      0    3.03e+00    0    1.02e+00
2005 09 19  0335    53632   12900      0    3.08e+00    0    1.03e+00
2005 09 19  0340    53632   13200      0    3.14e+00    0    1.05e+00
2005 09 19  0345    53632   13500      0    3.12e+00    0    1.07e+00
2005 09 19  0350    53632   13800      0    3.13e+00    0    1.07e+00
2005 09 19  0355    53632   14100      0    3.09e+00    0    1.08e+00
2005 09 19  0400    53632   14400      0    3.03e+00    0    1.04e+00
2005 09 19  0405    53632   14700      0    3.07e+00    0    1.07e+00
2005 09 19  0410    53632   15000      0    3.14e+00    0    1.07e+00
2005 09 19  0415    53632   15300      0    3.07e+00    0    1.06e+00
2005 09 19  0420    53632   15600      0    3.09e+00    0    1.05e+00
2005 09 19  0425    53632   15900      0    3.14e+00    0    1.07e+00
2005 09 19  0430    53632   16200      0    3.08e+00    0    1.03e+00
2005 09 19  0435    53632   16500      0    3.03e+00    0    1.02e+00
2005 09 19  0440    53632   16800      0    3.01e+00    0    1.05e+00
2005 09 19  0445    53632   17100      0    3.01e+00    0    1.07e+00
2005 09 19  0450    53632   17400      0    2.99e+00    0    1.04e+00
2005 09 19  0455    53632   17700      0    2.97e+00    0    9.99e-01
2005 09 19  0500    53632   18000      0    2.99e+00    0    1.04e+00
2005 09 19  0505    53632   18300      0    2.95e+00    0    1.00e+00
2005 09 19  0510    53632   18600      0    3.07e+00    0    1.02e+00
2005 09 19  0515    53632   18900      0    3.16e+00    0    1.07e+00
2005 09 19  0520    53632   19200      0    3.15e+00    0    1.04e+00
2005 09 19  0525    53632   19500      0    3.08e+00    0    1.03e+00
2005 09 19  0530    53632   19800      0    3.09e+00    0    1.04e+00
2005 09 19  0535    53632   20100      0    2.81e+00    0    9.70e-01
2005 09 19  0540    53632   20400      0    2.96e+00    0    9.89e-01
2005 09 19  0545    53632   20700      0    2.96e+00    0    9.91e-01
2005 09 19  0550    53632   21000      0    2.91e+00    0    1.02e+00
2005 09 19  0555    53632   21300      0    2.92e+00    0    1.03e+00
2005 09 19  0600    53632   21600      0    2.93e+00    0    1.03e+00
2005 09 19  0605    53632   21900      0    2.91e+00    0    9.89e-01
2005 09 19  0610    53632   22200      0    2.94e+00    0    9.96e-01
2005 09 19  0615    53632   22500      0    2.98e+00    0    1.03e+00
2005 09 19  0620    53632   22800      0    2.94e+00    0    9.96e-01
2005 09 19  0625    53632   23100      0    2.88e+00    0    9.74e-01
2005 09 19  0630    53632   23400      0    2.96e+00    0    9.71e-01
2005 09 19  0635    53632   23700      0    2.93e+00    0    1.00e+00
2005 09 19  0640    53632   24000      0    2.87e+00    0    9.99e-01
2005 09 19  0645    53632   24300      0    2.87e+00    0    9.91e-01
2005 09 19  0650    53632   24600      0    2.94e+00    0    1.03e+00
2005 09 19  0655    53632   24900      0    2.93e+00    0    1.04e+00
2005 09 19  0700    53632   25200      0    3.02e+00    0    1.06e+00
2005 09 19  0705    53632   25500      0    2.87e+00    0    9.68e-01
2005 09 19  0710    53632   25800      0    2.90e+00    0    1.04e+00
2005 09 19  0715    53632   26100      0    2.83e+00    0    1.02e+00
2005 09 19  0720    53632   26400      0    2.88e+00    0    9.71e-01
2005 09 19  0725    53632   26700      0    2.93e+00    0    1.03e+00
2005 09 19  0730    53632   27000      0    2.97e+00    0    1.03e+00
2005 09 19  0735    53632   27300      0    2.97e+00    0    1.04e+00
2005 09 19  0740    53632   27600      0    2.95e+00    0    1.06e+00
2005 09 19  0745    53632   27900      0    2.90e+00    0    1.05e+00
2005 09 19  0750    53632   28200      0    2.85e+00    0    1.03e+00
2005 09 19  0755    53632   28500      0    2.89e+00    0    1.05e+00
2005 09 19  0800    53632   28800      0    2.96e+00    0    1.04e+00
2005 09 19  0805    53632   29100      0    2.97e+00    0    1.02e+00
2005 09 19  0810    53632   29400      0    2.93e+00    0    1.03e+00
2005 09 19  0815    53632   29700      0    2.82e+00    0    9.83e-01
2005 09 19  0820    53632   30000      0    2.80e+00    0    9.83e-01
2005 09 19  0825    53632   30300      0    2.72e+00    0    9.84e-01
2005 09 19  0830    53632   30600      0    2.79e+00    0    9.87e-01
2005 09 19  0835    53632   30900      0    2.72e+00    0    9.66e-01
2005 09 19  0840    53632   31200      0    2.84e+00    0    1.02e+00
2005 09 19  0845    53632   31500      0    2.84e+00    0    9.86e-01
2005 09 19  0850    53632   31800      0    2.86e+00    0    1.01e+00
2005 09 19  0855    53632   32100      0    2.81e+00    0    1.02e+00
2005 09 19  0900    53632   32400      0    2.78e+00    0    1.00e+00
2005 09 19  0905    53632   32700      0    2.60e+00    0    9.40e-01
2005 09 19  0910    53632   33000      0    2.76e+00    0    1.03e+00
2005 09 19  0915    53632   33300      0    2.84e+00    0    9.93e-01
2005 09 19  0920    53632   33600      0    2.78e+00    0    9.60e-01
2005 09 19  0925    53632   33900      0    2.86e+00    0    1.01e+00
2005 09 19  0930    53632   34200      0    2.79e+00    0    9.87e-01
2005 09 19  0935    53632   34500      0    2.79e+00    0    1.02e+00
2005 09 19  0940    53632   34800      0    2.82e+00    0    1.01e+00
2005 09 19  0945    53632   35100      0    2.78e+00    0    9.90e-01
2005 09 19  0950    53632   35400      0    2.81e+00    0    1.01e+00
2005 09 19  0955    53632   35700      0    2.78e+00    0    9.89e-01
2005 09 19  1000    53632   36000      0    2.74e+00    0    1.02e+00
2005 09 19  1005    53632   36300      0    2.69e+00    0    9.98e-01
2005 09 19  1010    53632   36600      0    2.70e+00    0    1.00e+00
2005 09 19  1015    53632   36900      0    2.68e+00    0    9.70e-01
2005 09 19  1020    53632   37200      0    2.68e+00    0    9.77e-01
2005 09 19  1025    53632   37500      0    2.71e+00    0    9.85e-01
2005 09 19  1030    53632   37800      0    2.73e+00    0    1.01e+00
2005 09 19  1035    53632   38100      0    2.69e+00    0    1.01e+00
2005 09 19  1040    53632   38400      0    2.65e+00    0    9.88e-01
2005 09 19  1045    53632   38700      0    2.68e+00    0    9.91e-01
2005 09 19  1050    53632   39000      0    2.63e+00    0    9.79e-01
2005 09 19  1055    53632   39300      0    2.66e+00    0    9.83e-01
2005 09 19  1100    53632   39600      0    2.65e+00    0    9.88e-01
2005 09 19  1105    53632   39900      0    2.59e+00    0    9.72e-01
2005 09 19  1110    53632   40200      0    2.54e+00    0    9.32e-01
2005 09 19  1115    53632   40500      0    2.55e+00    0    9.65e-01
2005 09 19  1120    53632   40800      0    2.61e+00    0    9.73e-01
2005 09 19  1125    53632   41100      0    2.58e+00    0    9.54e-01
2005 09 19  1130    53632   41400      0    2.59e+00    0    1.00e+00
2005 09 19  1135    53632   41700      0    2.62e+00    0    9.57e-01
2005 09 19  1140    53632   42000      0    2.66e+00    0    9.68e-01
2005 09 19  1145    53632   42300      0    2.66e+00    0    9.63e-01
2005 09 19  1150    53632   42600      0    2.69e+00    0    1.01e+00
2005 09 19  1155    53632   42900      0    2.65e+00    0    9.99e-01
2005 09 19  1200    53632   43200      0    2.60e+00    0    9.90e-01
2005 09 19  1205    53632   43500      0    2.62e+00    0    9.92e-01
2005 09 19  1210    53632   43800      0    2.71e+00    0    1.02e+00
2005 09 19  1215    53632   44100      0    2.63e+00    0    1.00e+00
2005 09 19  1220    53632   44400      0    2.61e+00    0    9.67e-01
2005 09 19  1225    53632   44700      0    2.65e+00    0    1.03e+00
2005 09 19  1230    53632   45000      0    2.58e+00    0    9.97e-01
2005 09 19  1235    53632   45300      0    2.58e+00    0    9.94e-01
2005 09 19  1240    53632   45600      0    2.56e+00    0    9.53e-01
2005 09 19  1245    53632   45900      0    2.54e+00    0    9.64e-01
2005 09 19  1250    53632   46200      0    2.50e+00    0    9.36e-01
2005 09 19  1255    53632   46500      0    2.51e+00    0    9.68e-01
2005 09 19  1300    53632   46800      0    2.51e+00    0    9.60e-01
2005 09 19  1305    53632   47100      0    2.53e+00    0    9.83e-01
2005 09 19  1310    53632   47400      0    2.50e+00    0    9.74e-01
2005 09 19  1315    53632   47700      0    2.50e+00    0    9.40e-01
2005 09 19  1320    53632   48000      0    2.50e+00    0    9.52e-01
2005 09 19  1325    53632   48300      0    2.52e+00    0    9.77e-01
2005 09 19  1330    53632   48600      0    2.48e+00    0    9.40e-01
2005 09 19  1335    53632   48900      0    2.56e+00    0    1.02e+00
2005 09 19  1340    53632   49200      0    2.54e+00    0    1.01e+00
2005 09 19  1345    53632   49500      0    2.47e+00    0    9.40e-01
2005 09 19  1350    53632   49800      0    2.55e+00    0    9.67e-01
2005 09 19  1355    53632   50100      0    2.51e+00    0    9.63e-01
2005 09 19  1400    53632   50400      0    2.36e+00    0    9.12e-01
2005 09 19  1405    53632   50700      0    2.51e+00    0    9.98e-01
2005 09 19  1410    53632   51000      0    2.53e+00    0    9.94e-01
2005 09 19  1415    53632   51300      0    2.51e+00    0    9.97e-01
2005 09 19  1420    53632   51600      0    2.49e+00    0    9.80e-01
2005 09 19  1425    53632   51900      0    2.61e+00    0    1.01e+00
2005 09 19  1430    53632   52200      0    2.49e+00    0    9.41e-01
2005 09 19  1435    53632   52500      0    2.53e+00    0    9.83e-01
2005 09 19  1440    53632   52800      0    2.53e+00    0    9.91e-01
2005 09 19  1445    53632   53100      0    2.46e+00    0    9.59e-01
2005 09 19  1450    53632   53400      0    2.51e+00    0    9.63e-01
2005 09 19  1455    53632   53700      0    2.61e+00    0    1.01e+00
2005 09 19  1500    53632   54000      0    2.63e+00    0    9.70e-01
2005 09 19  1505    53632   54300      0    2.68e+00    0    1.01e+00
2005 09 19  1510    53632   54600      0    2.66e+00    0    9.96e-01
2005 09 19  1515    53632   54900      0    2.60e+00    0    9.69e-01
2005 09 19  1520    53632   55200      0    2.64e+00    0    1.01e+00
2005 09 19  1525    53632   55500      0    2.64e+00    0    9.74e-01
2005 09 19  1530    53632   55800      0    2.63e+00    0    9.83e-01
2005 09 19  1535    53632   56100      0    2.59e+00    0    9.53e-01
2005 09 19  1540    53632   56400      0    2.57e+00    0    9.53e-01
2005 09 19  1545    53632   56700      0    2.60e+00    0    1.00e+00
2005 09 19  1550    53632   57000      0    2.60e+00    0    9.92e-01
2005 09 19  1555    53632   57300      0    2.59e+00    0    9.66e-01
2005 09 19  1600    53632   57600      0    2.61e+00    0    9.88e-01
2005 09 19  1605    53632   57900      0    2.56e+00    0    9.51e-01
2005 09 19  1610    53632   58200      0    2.60e+00    0    9.83e-01
2005 09 19  1615    53632   58500      0    2.58e+00    0    1.01e+00
2005 09 19  1620    53632   58800      0    2.57e+00    0    9.97e-01
2005 09 19  1625    53632   59100      0    2.50e+00    0    9.80e-01
2005 09 19  1630    53632   59400      0    2.39e+00    0    9.56e-01
2005 09 19  1635    53632   59700      0    2.45e+00    0    9.88e-01
2005 09 19  1640    53632   60000      0    2.54e+00    0    1.02e+00
2005 09 19  1645    53632   60300      0    2.57e+00    0    1.02e+00
2005 09 19  1650    53632   60600      0    2.54e+00    0    1.01e+00
2005 09 19  1655    53632   60900      0    2.48e+00    0    9.64e-01
2005 09 19  1700    53632   61200      0    2.46e+00    0    9.66e-01
2005 09 19  1705    53632   61500      0    2.50e+00    0    9.93e-01
2005 09 19  1710    53632   61800      0    2.52e+00    0    9.96e-01
2005 09 19  1715    53632   62100      0    2.44e+00    0    9.63e-01
2005 09 19  1720    53632   62400      0    2.41e+00    0    9.78e-01
2005 09 19  1725    53632   62700      0    2.39e+00    0    9.59e-01
2005 09 19  1730    53632   63000      0    2.41e+00    0    9.83e-01
2005 09 19  1735    53632   63300      0    2.39e+00    0    9.64e-01
2005 09 19  1740    53632   63600      0    2.37e+00    0    9.63e-01
2005 09 19  1745    53632   63900      0    2.31e+00    0    9.31e-01
2005 09 19  1750    53632   64200      0    2.38e+00    0    9.59e-01
2005 09 19  1755    53632   64500      0    2.38e+00    0    9.74e-01
2005 09 19  1800    53632   64800      0    2.50e+00    0    1.00e+00
2005 09 19  1805    53632   65100      0    2.43e+00    0    9.69e-01
2005 09 19  1810    53632   65400      0    2.39e+00    0    9.76e-01
2005 09 19  1815    53632   65700      0    2.40e+00    0    1.01e+00
2005 09 19  1820    53632   66000      0    2.39e+00    0    9.79e-01
2005 09 19  1825    53632   66300      0    2.40e+00    0    9.68e-01
2005 09 19  1830    53632   66600      0    2.43e+00    0    9.88e-01
2005 09 19  1835    53632   66900      0    2.38e+00    0    9.68e-01
2005 09 19  1840    53632   67200      0    2.41e+00    0    9.70e-01
2005 09 19  1845    53632   67500      0    2.37e+00    0    9.64e-01
2005 09 19  1850    53632   67800      0    2.38e+00    0    9.84e-01
2005 09 19  1855    53632   68100      0    2.40e+00    0    9.80e-01
2005 09 19  1900    53632   68400      0    2.44e+00    0    1.00e+00
2005 09 19  1905    53632   68700      0    2.46e+00    0    1.01e+00
2005 09 19  1910    53632   69000      0    2.35e+00    0    9.44e-01
2005 09 19  1915    53632   69300      0    2.40e+00    0    9.84e-01
2005 09 19  1920    53632   69600      0    2.39e+00    0    9.60e-01
2005 09 19  1925    53632   69900      0    2.47e+00    0    1.03e+00
2005 09 19  1930    53632   70200      0    2.39e+00    0    9.70e-01
2005 09 19  1935    53632   70500      0    2.44e+00    0    9.98e-01
2005 09 19  1940    53632   70800      0    2.42e+00    0    9.84e-01
2005 09 19  1945    53632   71100      0    2.34e+00    0    9.52e-01
2005 09 19  1950    53632   71400      0    2.39e+00    0    9.72e-01
2005 09 19  1955    53632   71700      0    2.38e+00    0    9.82e-01
2005 09 19  2000    53632   72000      0    2.39e+00    0    9.50e-01
2005 09 19  2005    53632   72300      0    2.42e+00    0    9.80e-01
2005 09 19  2010    53632   72600      0    2.40e+00    0    9.57e-01
2005 09 19  2015    53632   72900      0    2.39e+00    0    9.67e-01
2005 09 19  2020    53632   73200      0    2.44e+00    0    1.01e+00
2005 09 19  2025    53632   73500      0    2.38e+00    0    9.74e-01
2005 09 19  2030    53632   73800      0    2.34e+00    0    9.76e-01
2005 09 19  2035    53632   74100      0    2.37e+00    0    9.53e-01
2005 09 19  2040    53632   74400      0    2.37e+00    0    9.68e-01
2005 09 19  2045    53632   74700      0    2.39e+00    0    9.74e-01
2005 09 19  2050    53632   75000      0    2.33e+00    0    9.40e-01
2005 09 19  2055    53632   75300      0    2.30e+00    0    9.42e-01
2005 09 19  2100    53632   75600      0    2.25e+00    0    9.32e-01
2005 09 19  2105    53632   75900      0    2.31e+00    0    9.39e-01
2005 09 19  2110    53632   76200      0    2.32e+00    0    9.64e-01
2005 09 19  2115    53632   76500      0    2.37e+00    0    9.83e-01
2005 09 19  2120    53632   76800      0    2.33e+00    0    9.72e-01
2005 09 19  2125    53632   77100      0    2.27e+00    0    9.61e-01
2005 09 19  2130    53632   77400      0    2.26e+00    0    9.57e-01
2005 09 19  2135    53632   77700      0    2.24e+00    0    9.52e-01
2005 09 19  2140    53632   78000      0    2.21e+00    0    9.32e-01
2005 09 19  2145    53632   78300      0    2.25e+00    0    9.44e-01
2005 09 19  2150    53632   78600      0    2.26e+00    0    9.52e-01
2005 09 19  2155    53632   78900      0    2.23e+00    0    9.72e-01
2005 09 19  2200    53632   79200      0    2.21e+00    0    9.43e-01
2005 09 19  2205    53632   79500      0    2.20e+00    0    9.50e-01
2005 09 19  2210    53632   79800      0    2.20e+00    0    9.58e-01
2005 09 19  2215    53632   80100      0    2.23e+00    0    9.59e-01
2005 09 19  2220    53632   80400      0    2.21e+00    0    9.29e-01
2005 09 19  2225    53632   80700      0    2.22e+00    0    9.37e-01
2005 09 19  2230    53632   81000      0    2.26e+00    0    9.63e-01
2005 09 19  2235    53632   81300      0    2.27e+00    0    9.67e-01
2005 09 19  2240    53632   81600      0    2.24e+00    0    9.53e-01
2005 09 19  2245    53632   81900      0    2.15e+00    0    9.12e-01
2005 09 19  2250    53632   82200      0    2.27e+00    0    9.71e-01
2005 09 19  2255    53632   82500      0    2.22e+00    0    9.14e-01
2005 09 19  2300    53632   82800      0    2.24e+00    0    9.50e-01
2005 09 19  2305    53632   83100      0    2.27e+00    0    9.69e-01
2005 09 19  2310    53632   83400      0    2.21e+00    0    9.67e-01
2005 09 19  2315    53632   83700      0    2.25e+00    0    9.73e-01
2005 09 19  2320    53632   84000      0    2.19e+00    0    9.51e-01
2005 09 19  2325    53632   84300      0    2.19e+00    0    9.33e-01
2005 09 19  2330    53632   84600      0    2.22e+00    0    9.50e-01
2005 09 19  2335    53632   84900      0    2.22e+00    0    9.43e-01
2005 09 19  2340    53632   85200      0    2.23e+00    0    9.47e-01
2005 09 19  2345    53632   85500      0    2.20e+00    0    9.39e-01
2005 09 19  2350    53632   85800      0    2.24e+00    0    9.63e-01
2005 09 19  2355    53632   86100      0    2.20e+00    0    9.53e-01
