:Data_list: 20050124_ace_sis_5m.txt
:Created: 2005 Jan 25 0011 UT
# Prepared by the U.S. Dept. of Commerce, NOAA, Space Environment Center.
# Please send comments and suggestions to SEC.Webmaster@noaa.gov 
# 
# Units: proton flux p/cs2-sec-ster
# Status(S): 0 = nominal data, 1 to 8 = bad data record, 9 = no data
# Missing data values: -1.00e+05
# Source: ACE Satellite - Solar Isotope Spectrometer
#
# 5-minute averaged Real-time Integral Flux of High-energy Solar Protons
# 
#                 Modified Seconds
# UT Date   Time   Julian  of the      ---- Integral Proton Flux ----
# YR MO DA  HHMM     Day     Day       S    > 10 MeV    S    > 30 MeV
#--------------------------------------------------------------------
2005 01 24  0000    53394       0      0    3.53e+00    0    1.68e+00
2005 01 24  0005    53394     300      0    3.51e+00    0    1.66e+00
2005 01 24  0010    53394     600      0    3.49e+00    0    1.65e+00
2005 01 24  0015    53394     900      0    3.48e+00    0    1.64e+00
2005 01 24  0020    53394    1200      0    3.51e+00    0    1.65e+00
2005 01 24  0025    53394    1500      0    3.48e+00    0    1.63e+00
2005 01 24  0030    53394    1800      0    3.42e+00    0    1.61e+00
2005 01 24  0035    53394    2100      0    3.53e+00    0    1.66e+00
2005 01 24  0040    53394    2400      0    3.52e+00    0    1.64e+00
2005 01 24  0045    53394    2700      0    3.57e+00    0    1.67e+00
2005 01 24  0050    53394    3000      0    3.52e+00    0    1.67e+00
2005 01 24  0055    53394    3300      0    3.39e+00    0    1.61e+00
2005 01 24  0100    53394    3600      0    3.38e+00    0    1.62e+00
2005 01 24  0105    53394    3900      0    3.35e+00    0    1.61e+00
2005 01 24  0110    53394    4200      0    3.41e+00    0    1.66e+00
2005 01 24  0115    53394    4500      0    3.31e+00    0    1.59e+00
2005 01 24  0120    53394    4800      0    3.37e+00    0    1.63e+00
2005 01 24  0125    53394    5100      0    3.27e+00    0    1.58e+00
2005 01 24  0130    53394    5400      0    3.31e+00    0    1.61e+00
2005 01 24  0135    53394    5700      0    3.33e+00    0    1.59e+00
2005 01 24  0140    53394    6000      0    3.31e+00    0    1.57e+00
2005 01 24  0145    53394    6300      0    3.31e+00    0    1.59e+00
2005 01 24  0150    53394    6600      0    3.30e+00    0    1.57e+00
2005 01 24  0155    53394    6900      0    3.22e+00    0    1.54e+00
2005 01 24  0200    53394    7200      0    3.26e+00    0    1.57e+00
2005 01 24  0205    53394    7500      0    3.25e+00    0    1.54e+00
2005 01 24  0210    53394    7800      0    3.22e+00    0    1.59e+00
2005 01 24  0215    53394    8100      0    3.18e+00    0    1.56e+00
2005 01 24  0220    53394    8400      0    3.18e+00    0    1.57e+00
2005 01 24  0225    53394    8700      0    3.19e+00    0    1.57e+00
2005 01 24  0230    53394    9000      0    3.20e+00    0    1.59e+00
2005 01 24  0235    53394    9300      0    3.15e+00    0    1.56e+00
2005 01 24  0240    53394    9600      0    3.17e+00    0    1.54e+00
2005 01 24  0245    53394    9900      0    3.22e+00    0    1.59e+00
2005 01 24  0250    53394   10200      0    3.15e+00    0    1.54e+00
2005 01 24  0255    53394   10500      0    3.17e+00    0    1.55e+00
2005 01 24  0300    53394   10800      0    3.17e+00    0    1.53e+00
2005 01 24  0305    53394   11100      0    3.12e+00    0    1.52e+00
2005 01 24  0310    53394   11400      0    3.13e+00    0    1.55e+00
2005 01 24  0315    53394   11700      0    3.12e+00    0    1.52e+00
2005 01 24  0320    53394   12000      0    3.12e+00    0    1.52e+00
2005 01 24  0325    53394   12300      0    3.11e+00    0    1.53e+00
2005 01 24  0330    53394   12600      0    3.06e+00    0    1.50e+00
2005 01 24  0335    53394   12900      0    3.07e+00    0    1.51e+00
2005 01 24  0340    53394   13200      0    3.04e+00    0    1.50e+00
2005 01 24  0345    53394   13500      0    3.10e+00    0    1.55e+00
2005 01 24  0350    53394   13800      0    3.04e+00    0    1.51e+00
2005 01 24  0355    53394   14100      0    3.04e+00    0    1.50e+00
2005 01 24  0400    53394   14400      0    3.06e+00    0    1.52e+00
2005 01 24  0405    53394   14700      0    3.03e+00    0    1.49e+00
2005 01 24  0410    53394   15000      0    3.03e+00    0    1.50e+00
2005 01 24  0415    53394   15300      0    3.04e+00    0    1.50e+00
2005 01 24  0420    53394   15600      0    2.97e+00    0    1.46e+00
2005 01 24  0425    53394   15900      0    2.89e+00    0    1.36e+00
2005 01 24  0430    53394   16200      0    2.99e+00    0    1.45e+00
2005 01 24  0435    53394   16500      0    3.01e+00    0    1.49e+00
2005 01 24  0440    53394   16800      0    3.04e+00    0    1.49e+00
2005 01 24  0445    53394   17100      0    2.98e+00    0    1.49e+00
2005 01 24  0450    53394   17400      0    2.99e+00    0    1.50e+00
2005 01 24  0455    53394   17700      0    3.01e+00    0    1.50e+00
2005 01 24  0500    53394   18000      0    2.88e+00    0    1.44e+00
2005 01 24  0505    53394   18300      0    2.92e+00    0    1.49e+00
2005 01 24  0510    53394   18600      0    2.89e+00    0    1.45e+00
2005 01 24  0515    53394   18900      0    2.92e+00    0    1.46e+00
2005 01 24  0520    53394   19200      0    2.95e+00    0    1.46e+00
2005 01 24  0525    53394   19500      0    2.91e+00    0    1.47e+00
2005 01 24  0530    53394   19800      0    2.84e+00    0    1.43e+00
2005 01 24  0535    53394   20100      0    2.88e+00    0    1.43e+00
2005 01 24  0540    53394   20400      0    2.89e+00    0    1.44e+00
2005 01 24  0545    53394   20700      0    2.92e+00    0    1.48e+00
2005 01 24  0550    53394   21000      0    2.80e+00    0    1.42e+00
2005 01 24  0555    53394   21300      0    2.87e+00    0    1.46e+00
2005 01 24  0600    53394   21600      0    2.88e+00    0    1.47e+00
2005 01 24  0605    53394   21900      0    2.83e+00    0    1.41e+00
2005 01 24  0610    53394   22200      0    2.84e+00    0    1.42e+00
2005 01 24  0615    53394   22500      0    2.79e+00    0    1.42e+00
2005 01 24  0620    53394   22800      0    2.80e+00    0    1.43e+00
2005 01 24  0625    53394   23100      0    2.84e+00    0    1.47e+00
2005 01 24  0630    53394   23400      0    2.82e+00    0    1.43e+00
2005 01 24  0635    53394   23700      0    2.82e+00    0    1.43e+00
2005 01 24  0640    53394   24000      0    2.83e+00    0    1.45e+00
2005 01 24  0645    53394   24300      0    2.79e+00    0    1.44e+00
2005 01 24  0650    53394   24600      0    2.82e+00    0    1.47e+00
2005 01 24  0655    53394   24900      0    2.77e+00    0    1.38e+00
2005 01 24  0700    53394   25200      0    2.81e+00    0    1.42e+00
2005 01 24  0705    53394   25500      0    2.85e+00    0    1.43e+00
2005 01 24  0710    53394   25800      0    2.87e+00    0    1.45e+00
2005 01 24  0715    53394   26100      0    2.87e+00    0    1.46e+00
2005 01 24  0720    53394   26400      0    2.86e+00    0    1.44e+00
2005 01 24  0725    53394   26700      0    2.84e+00    0    1.45e+00
2005 01 24  0730    53394   27000      0    2.87e+00    0    1.42e+00
2005 01 24  0735    53394   27300      0    2.83e+00    0    1.44e+00
2005 01 24  0740    53394   27600      0    2.78e+00    0    1.40e+00
2005 01 24  0745    53394   27900      0    2.84e+00    0    1.43e+00
2005 01 24  0750    53394   28200      0    2.82e+00    0    1.44e+00
2005 01 24  0755    53394   28500      0    2.85e+00    0    1.44e+00
2005 01 24  0800    53394   28800      0    2.81e+00    0    1.46e+00
2005 01 24  0805    53394   29100      0    2.84e+00    0    1.46e+00
2005 01 24  0810    53394   29400      0    2.84e+00    0    1.43e+00
2005 01 24  0815    53394   29700      0    2.84e+00    0    1.43e+00
2005 01 24  0820    53394   30000      0    2.80e+00    0    1.43e+00
2005 01 24  0825    53394   30300      0    2.87e+00    0    1.46e+00
2005 01 24  0830    53394   30600      0    2.81e+00    0    1.42e+00
2005 01 24  0835    53394   30900      0    2.80e+00    0    1.40e+00
2005 01 24  0840    53394   31200      0    2.80e+00    0    1.39e+00
2005 01 24  0845    53394   31500      0    2.79e+00    0    1.43e+00
2005 01 24  0850    53394   31800      0    2.79e+00    0    1.41e+00
2005 01 24  0855    53394   32100      0    2.76e+00    0    1.41e+00
2005 01 24  0900    53394   32400      0    2.78e+00    0    1.40e+00
2005 01 24  0905    53394   32700      0    2.83e+00    0    1.44e+00
2005 01 24  0910    53394   33000      0    2.78e+00    0    1.40e+00
2005 01 24  0915    53394   33300      0    2.81e+00    0    1.41e+00
2005 01 24  0920    53394   33600      0    2.74e+00    0    1.36e+00
2005 01 24  0925    53394   33900      0    2.77e+00    0    1.40e+00
2005 01 24  0930    53394   34200      0    2.78e+00    0    1.41e+00
2005 01 24  0935    53394   34500      0    2.77e+00    0    1.40e+00
2005 01 24  0940    53394   34800      0    2.74e+00    0    1.38e+00
2005 01 24  0945    53394   35100      0    2.81e+00    0    1.43e+00
2005 01 24  0950    53394   35400      0    2.74e+00    0    1.39e+00
2005 01 24  0955    53394   35700      0    2.75e+00    0    1.40e+00
2005 01 24  1000    53394   36000      0    2.77e+00    0    1.40e+00
2005 01 24  1005    53394   36300      0    2.72e+00    0    1.39e+00
2005 01 24  1010    53394   36600      0    2.70e+00    0    1.36e+00
2005 01 24  1015    53394   36900      0    2.74e+00    0    1.44e+00
2005 01 24  1020    53394   37200      0    2.63e+00    0    1.37e+00
2005 01 24  1025    53394   37500      0    2.58e+00    0    1.34e+00
2005 01 24  1030    53394   37800      0    2.65e+00    0    1.41e+00
2005 01 24  1035    53394   38100      0    2.60e+00    0    1.34e+00
2005 01 24  1040    53394   38400      0    2.65e+00    0    1.37e+00
2005 01 24  1045    53394   38700      0    2.64e+00    0    1.37e+00
2005 01 24  1050    53394   39000      0    2.63e+00    0    1.37e+00
2005 01 24  1055    53394   39300      0    2.64e+00    0    1.37e+00
2005 01 24  1100    53394   39600      0    2.60e+00    0    1.33e+00
2005 01 24  1105    53394   39900      0    2.65e+00    0    1.36e+00
2005 01 24  1110    53394   40200      0    2.67e+00    0    1.37e+00
2005 01 24  1115    53394   40500      0    2.66e+00    0    1.38e+00
2005 01 24  1120    53394   40800      0    2.58e+00    0    1.31e+00
2005 01 24  1125    53394   41100      0    2.61e+00    0    1.35e+00
2005 01 24  1130    53394   41400      0    2.62e+00    0    1.36e+00
2005 01 24  1135    53394   41700      0    2.63e+00    0    1.37e+00
2005 01 24  1140    53394   42000      0    2.61e+00    0    1.34e+00
2005 01 24  1145    53394   42300      0    2.60e+00    0    1.36e+00
2005 01 24  1150    53394   42600      0    2.62e+00    0    1.39e+00
2005 01 24  1155    53394   42900      0    2.62e+00    0    1.36e+00
2005 01 24  1200    53394   43200      0    2.61e+00    0    1.37e+00
2005 01 24  1205    53394   43500      0    2.66e+00    0    1.39e+00
2005 01 24  1210    53394   43800      0    2.62e+00    0    1.35e+00
2005 01 24  1215    53394   44100      0    2.62e+00    0    1.36e+00
2005 01 24  1220    53394   44400      0    2.65e+00    0    1.37e+00
2005 01 24  1225    53394   44700      0    2.66e+00    0    1.38e+00
2005 01 24  1230    53394   45000      0    2.64e+00    0    1.36e+00
2005 01 24  1235    53394   45300      0    2.56e+00    0    1.28e+00
2005 01 24  1240    53394   45600      0    2.64e+00    0    1.39e+00
2005 01 24  1245    53394   45900      0    2.67e+00    0    1.37e+00
2005 01 24  1250    53394   46200      0    2.62e+00    0    1.33e+00
2005 01 24  1255    53394   46500      0    2.58e+00    0    1.32e+00
2005 01 24  1300    53394   46800      0    2.59e+00    0    1.33e+00
2005 01 24  1305    53394   47100      0    2.60e+00    0    1.32e+00
2005 01 24  1310    53394   47400      0    2.61e+00    0    1.34e+00
2005 01 24  1315    53394   47700      0    2.57e+00    0    1.33e+00
2005 01 24  1320    53394   48000      0    2.60e+00    0    1.34e+00
2005 01 24  1325    53394   48300      0    2.62e+00    0    1.35e+00
2005 01 24  1330    53394   48600      0    2.63e+00    0    1.35e+00
2005 01 24  1335    53394   48900      0    2.57e+00    0    1.31e+00
2005 01 24  1340    53394   49200      0    2.59e+00    0    1.34e+00
2005 01 24  1345    53394   49500      0    2.61e+00    0    1.34e+00
2005 01 24  1350    53394   49800      0    2.62e+00    0    1.33e+00
2005 01 24  1355    53394   50100      0    2.63e+00    0    1.36e+00
2005 01 24  1400    53394   50400      0    2.67e+00    0    1.37e+00
2005 01 24  1405    53394   50700      0    2.62e+00    0    1.34e+00
2005 01 24  1410    53394   51000      0    2.66e+00    0    1.37e+00
2005 01 24  1415    53394   51300      0    2.59e+00    0    1.34e+00
2005 01 24  1420    53394   51600      0    2.57e+00    0    1.33e+00
2005 01 24  1425    53394   51900      0    2.64e+00    0    1.37e+00
2005 01 24  1430    53394   52200      0    2.58e+00    0    1.35e+00
2005 01 24  1435    53394   52500      0    2.57e+00    0    1.33e+00
2005 01 24  1440    53394   52800      0    2.55e+00    0    1.34e+00
2005 01 24  1445    53394   53100      0    2.57e+00    0    1.33e+00
2005 01 24  1450    53394   53400      0    2.56e+00    0    1.34e+00
2005 01 24  1455    53394   53700      0    2.53e+00    0    1.31e+00
2005 01 24  1500    53394   54000      0    2.53e+00    0    1.30e+00
2005 01 24  1505    53394   54300      0    2.53e+00    0    1.33e+00
2005 01 24  1510    53394   54600      0    2.55e+00    0    1.35e+00
2005 01 24  1515    53394   54900      0    2.47e+00    0    1.27e+00
2005 01 24  1520    53394   55200      0    2.49e+00    0    1.29e+00
2005 01 24  1525    53394   55500      0    2.53e+00    0    1.30e+00
2005 01 24  1530    53394   55800      0    2.46e+00    0    1.26e+00
2005 01 24  1535    53394   56100      0    2.46e+00    0    1.28e+00
2005 01 24  1540    53394   56400      0    2.52e+00    0    1.32e+00
2005 01 24  1545    53394   56700      0    2.48e+00    0    1.29e+00
2005 01 24  1550    53394   57000      0    2.40e+00    0    1.26e+00
2005 01 24  1555    53394   57300      0    2.40e+00    0    1.28e+00
2005 01 24  1600    53394   57600      0    2.40e+00    0    1.27e+00
2005 01 24  1605    53394   57900      0    2.41e+00    0    1.27e+00
2005 01 24  1610    53394   58200      0    2.40e+00    0    1.26e+00
2005 01 24  1615    53394   58500      0    2.38e+00    0    1.26e+00
2005 01 24  1620    53394   58800      0    2.36e+00    0    1.25e+00
2005 01 24  1625    53394   59100      0    2.41e+00    0    1.29e+00
2005 01 24  1630    53394   59400      0    2.38e+00    0    1.26e+00
2005 01 24  1635    53394   59700      0    2.42e+00    0    1.28e+00
2005 01 24  1640    53394   60000      0    2.44e+00    0    1.29e+00
2005 01 24  1645    53394   60300      0    2.42e+00    0    1.27e+00
2005 01 24  1650    53394   60600      0    2.44e+00    0    1.30e+00
2005 01 24  1655    53394   60900      0    2.34e+00    0    1.21e+00
2005 01 24  1700    53394   61200      0    2.37e+00    0    1.25e+00
2005 01 24  1705    53394   61500      0    2.33e+00    0    1.22e+00
2005 01 24  1710    53394   61800      0    2.37e+00    0    1.26e+00
2005 01 24  1715    53394   62100      0    2.36e+00    0    1.26e+00
2005 01 24  1720    53394   62400      0    2.36e+00    0    1.26e+00
2005 01 24  1725    53394   62700      0    2.33e+00    0    1.25e+00
2005 01 24  1730    53394   63000      0    2.34e+00    0    1.26e+00
2005 01 24  1735    53394   63300      0    2.28e+00    0    1.22e+00
2005 01 24  1740    53394   63600      0    2.31e+00    0    1.23e+00
2005 01 24  1745    53394   63900      0    2.33e+00    0    1.24e+00
2005 01 24  1750    53394   64200      0    2.36e+00    0    1.25e+00
2005 01 24  1755    53394   64500      0    2.33e+00    0    1.23e+00
2005 01 24  1800    53394   64800      0    2.38e+00    0    1.25e+00
2005 01 24  1805    53394   65100      0    2.34e+00    0    1.24e+00
2005 01 24  1810    53394   65400      0    2.37e+00    0    1.24e+00
2005 01 24  1815    53394   65700      0    2.35e+00    0    1.22e+00
2005 01 24  1820    53394   66000      0    2.38e+00    0    1.25e+00
2005 01 24  1825    53394   66300      0    2.35e+00    0    1.24e+00
2005 01 24  1830    53394   66600      0    2.36e+00    0    1.26e+00
2005 01 24  1835    53394   66900      0    2.36e+00    0    1.26e+00
2005 01 24  1840    53394   67200      0    2.31e+00    0    1.23e+00
2005 01 24  1845    53394   67500      0    2.39e+00    0    1.28e+00
2005 01 24  1850    53394   67800      0    2.36e+00    0    1.27e+00
2005 01 24  1855    53394   68100      0    2.35e+00    0    1.25e+00
2005 01 24  1900    53394   68400      0    2.36e+00    0    1.24e+00
2005 01 24  1905    53394   68700      0    2.33e+00    0    1.24e+00
2005 01 24  1910    53394   69000      0    2.39e+00    0    1.26e+00
2005 01 24  1915    53394   69300      0    2.34e+00    0    1.25e+00
2005 01 24  1920    53394   69600      0    2.32e+00    0    1.22e+00
2005 01 24  1925    53394   69900      0    2.34e+00    0    1.25e+00
2005 01 24  1930    53394   70200      0    2.30e+00    0    1.23e+00
2005 01 24  1935    53394   70500      0    2.35e+00    0    1.26e+00
2005 01 24  1940    53394   70800      0    2.19e+00    0    1.17e+00
2005 01 24  1945    53394   71100      0    2.30e+00    0    1.23e+00
2005 01 24  1950    53394   71400      0    2.27e+00    0    1.22e+00
2005 01 24  1955    53394   71700      0    2.29e+00    0    1.23e+00
2005 01 24  2000    53394   72000      0    2.31e+00    0    1.25e+00
2005 01 24  2005    53394   72300      0    2.31e+00    0    1.22e+00
2005 01 24  2010    53394   72600      0    2.27e+00    0    1.23e+00
2005 01 24  2015    53394   72900      0    2.27e+00    0    1.22e+00
2005 01 24  2020    53394   73200      0    2.22e+00    0    1.19e+00
2005 01 24  2025    53394   73500      0    2.29e+00    0    1.24e+00
2005 01 24  2030    53394   73800      0    2.28e+00    0    1.22e+00
2005 01 24  2035    53394   74100      0    2.25e+00    0    1.21e+00
2005 01 24  2040    53394   74400      0    2.25e+00    0    1.22e+00
2005 01 24  2045    53394   74700      0    2.25e+00    0    1.21e+00
2005 01 24  2050    53394   75000      0    2.28e+00    0    1.25e+00
2005 01 24  2055    53394   75300      0    2.20e+00    0    1.18e+00
2005 01 24  2100    53394   75600      0    2.25e+00    0    1.23e+00
2005 01 24  2105    53394   75900      0    2.25e+00    0    1.21e+00
2005 01 24  2110    53394   76200      0    2.25e+00    0    1.21e+00
2005 01 24  2115    53394   76500      0    2.21e+00    0    1.19e+00
2005 01 24  2120    53394   76800      0    2.23e+00    0    1.20e+00
2005 01 24  2125    53394   77100      0    2.24e+00    0    1.19e+00
2005 01 24  2130    53394   77400      0    2.21e+00    0    1.19e+00
2005 01 24  2135    53394   77700      0    2.26e+00    0    1.23e+00
2005 01 24  2140    53394   78000      0    2.24e+00    0    1.21e+00
2005 01 24  2145    53394   78300      0    2.16e+00    0    1.17e+00
2005 01 24  2150    53394   78600      0    2.19e+00    0    1.19e+00
2005 01 24  2155    53394   78900      0    2.18e+00    0    1.20e+00
2005 01 24  2200    53394   79200      0    2.21e+00    0    1.20e+00
2005 01 24  2205    53394   79500      0    2.21e+00    0    1.21e+00
2005 01 24  2210    53394   79800      0    2.20e+00    0    1.21e+00
2005 01 24  2215    53394   80100      0    2.17e+00    0    1.19e+00
2005 01 24  2220    53394   80400      0    2.15e+00    0    1.18e+00
2005 01 24  2225    53394   80700      0    2.16e+00    0    1.18e+00
2005 01 24  2230    53394   81000      0    2.15e+00    0    1.19e+00
2005 01 24  2235    53394   81300      0    2.11e+00    0    1.14e+00
2005 01 24  2240    53394   81600      0    2.17e+00    0    1.19e+00
2005 01 24  2245    53394   81900      0    2.17e+00    0    1.17e+00
2005 01 24  2250    53394   82200      0    2.15e+00    0    1.18e+00
2005 01 24  2255    53394   82500      0    2.13e+00    0    1.18e+00
2005 01 24  2300    53394   82800      0    2.18e+00    0    1.20e+00
2005 01 24  2305    53394   83100      0    2.15e+00    0    1.19e+00
2005 01 24  2310    53394   83400      0    2.12e+00    0    1.17e+00
2005 01 24  2315    53394   83700      0    2.10e+00    0    1.16e+00
2005 01 24  2320    53394   84000      0    2.12e+00    0    1.16e+00
2005 01 24  2325    53394   84300      0    2.11e+00    0    1.17e+00
2005 01 24  2330    53394   84600      0    2.15e+00    0    1.20e+00
2005 01 24  2335    53394   84900      0    2.14e+00    0    1.17e+00
2005 01 24  2340    53394   85200      0    2.15e+00    0    1.20e+00
2005 01 24  2345    53394   85500      0    2.14e+00    0    1.18e+00
2005 01 24  2350    53394   85800      0    2.13e+00    0    1.18e+00
2005 01 24  2355    53394   86100      0    2.13e+00    0    1.17e+00
