:Data_list: 20051129_ace_sis_5m.txt
:Created: 2005 Nov 30 0011 UT
# Prepared by the U.S. Dept. of Commerce, NOAA, Space Environment Center.
# Please send comments and suggestions to SEC.Webmaster@noaa.gov 
# 
# Units: proton flux p/cs2-sec-ster
# Status(S): 0 = nominal data, 1 to 8 = bad data record, 9 = no data
# Missing data values: -1.00e+05
# Source: ACE Satellite - Solar Isotope Spectrometer
#
# 5-minute averaged Real-time Integral Flux of High-energy Solar Protons
# 
#                 Modified Seconds
# UT Date   Time   Julian  of the      ---- Integral Proton Flux ----
# YR MO DA  HHMM     Day     Day       S    > 10 MeV    S    > 30 MeV
#--------------------------------------------------------------------
2005 11 29  0000    53703       0      9   -1.00e+05    9   -1.00e+05
2005 11 29  0005    53703     300      9   -1.00e+05    9   -1.00e+05
2005 11 29  0010    53703     600      0    1.41e+00    0    9.92e-01
2005 11 29  0015    53703     900      0    1.34e+00    0    9.37e-01
2005 11 29  0020    53703    1200      0    1.43e+00    0    1.01e+00
2005 11 29  0025    53703    1500      0    1.40e+00    0    9.84e-01
2005 11 29  0030    53703    1800      0    1.40e+00    0    9.87e-01
2005 11 29  0035    53703    2100      0    1.40e+00    0    9.88e-01
2005 11 29  0040    53703    2400      0    1.38e+00    0    9.64e-01
2005 11 29  0045    53703    2700      0    1.39e+00    0    9.83e-01
2005 11 29  0050    53703    3000      0    1.40e+00    0    9.85e-01
2005 11 29  0055    53703    3300      0    1.37e+00    0    9.70e-01
2005 11 29  0100    53703    3600      0    1.38e+00    0    9.72e-01
2005 11 29  0105    53703    3900      0    1.36e+00    0    9.59e-01
2005 11 29  0110    53703    4200      0    1.39e+00    0    9.67e-01
2005 11 29  0115    53703    4500      0    1.43e+00    0    1.00e+00
2005 11 29  0120    53703    4800      0    1.40e+00    0    9.90e-01
2005 11 29  0125    53703    5100      0    1.37e+00    0    9.57e-01
2005 11 29  0130    53703    5400      0    1.38e+00    0    9.75e-01
2005 11 29  0135    53703    5700      0    1.42e+00    0    9.89e-01
2005 11 29  0140    53703    6000      0    1.41e+00    0    9.88e-01
2005 11 29  0145    53703    6300      0    1.43e+00    0    9.94e-01
2005 11 29  0150    53703    6600      0    1.39e+00    0    9.62e-01
2005 11 29  0155    53703    6900      0    1.39e+00    0    9.75e-01
2005 11 29  0200    53703    7200      0    1.37e+00    0    9.68e-01
2005 11 29  0205    53703    7500      0    1.40e+00    0    9.78e-01
2005 11 29  0210    53703    7800      0    1.39e+00    0    9.82e-01
2005 11 29  0215    53703    8100      0    1.42e+00    0    1.00e+00
2005 11 29  0220    53703    8400      0    1.40e+00    0    9.80e-01
2005 11 29  0225    53703    8700      0    1.41e+00    0    9.94e-01
2005 11 29  0230    53703    9000      0    1.39e+00    0    9.67e-01
2005 11 29  0235    53703    9300      0    1.40e+00    0    9.88e-01
2005 11 29  0240    53703    9600      0    1.38e+00    0    9.77e-01
2005 11 29  0245    53703    9900      0    1.39e+00    0    9.71e-01
2005 11 29  0250    53703   10200      0    1.39e+00    0    9.78e-01
2005 11 29  0255    53703   10500      0    1.43e+00    0    1.01e+00
2005 11 29  0300    53703   10800      0    1.41e+00    0    9.84e-01
2005 11 29  0305    53703   11100      0    1.42e+00    0    9.92e-01
2005 11 29  0310    53703   11400      0    1.39e+00    0    9.72e-01
2005 11 29  0315    53703   11700      0    1.41e+00    0    9.85e-01
2005 11 29  0320    53703   12000      0    1.40e+00    0    9.69e-01
2005 11 29  0325    53703   12300      0    1.41e+00    0    9.81e-01
2005 11 29  0330    53703   12600      0    1.37e+00    0    9.55e-01
2005 11 29  0335    53703   12900      0    1.41e+00    0    9.87e-01
2005 11 29  0340    53703   13200      0    1.39e+00    0    9.69e-01
2005 11 29  0345    53703   13500      0    1.38e+00    0    9.71e-01
2005 11 29  0350    53703   13800      0    1.40e+00    0    9.82e-01
2005 11 29  0355    53703   14100      0    1.41e+00    0    9.89e-01
2005 11 29  0400    53703   14400      0    1.39e+00    0    9.79e-01
2005 11 29  0405    53703   14700      0    1.37e+00    0    9.52e-01
2005 11 29  0410    53703   15000      0    1.40e+00    0    9.73e-01
2005 11 29  0415    53703   15300      0    1.46e+00    0    1.04e+00
2005 11 29  0420    53703   15600      0    1.37e+00    0    9.63e-01
2005 11 29  0425    53703   15900      0    1.39e+00    0    9.69e-01
2005 11 29  0430    53703   16200      0    1.41e+00    0    9.77e-01
2005 11 29  0435    53703   16500      0    1.38e+00    0    9.67e-01
2005 11 29  0440    53703   16800      0    1.41e+00    0    9.88e-01
2005 11 29  0445    53703   17100      0    1.38e+00    0    9.59e-01
2005 11 29  0450    53703   17400      0    1.39e+00    0    9.75e-01
2005 11 29  0455    53703   17700      0    1.43e+00    0    1.00e+00
2005 11 29  0500    53703   18000      0    1.37e+00    0    9.66e-01
2005 11 29  0505    53703   18300      0    1.40e+00    0    9.84e-01
2005 11 29  0510    53703   18600      0    1.42e+00    0    9.92e-01
2005 11 29  0515    53703   18900      0    1.38e+00    0    9.67e-01
2005 11 29  0520    53703   19200      0    1.40e+00    0    9.82e-01
2005 11 29  0525    53703   19500      0    1.38e+00    0    9.71e-01
2005 11 29  0530    53703   19800      0    1.41e+00    0    9.96e-01
2005 11 29  0535    53703   20100      0    1.37e+00    0    9.61e-01
2005 11 29  0540    53703   20400      0    1.38e+00    0    9.67e-01
2005 11 29  0545    53703   20700      0    1.39e+00    0    9.83e-01
2005 11 29  0550    53703   21000      0    1.40e+00    0    9.68e-01
2005 11 29  0555    53703   21300      0    1.38e+00    0    9.67e-01
2005 11 29  0600    53703   21600      0    1.40e+00    0    9.77e-01
2005 11 29  0605    53703   21900      0    1.35e+00    0    9.46e-01
2005 11 29  0610    53703   22200      0    1.39e+00    0    9.75e-01
2005 11 29  0615    53703   22500      0    1.34e+00    0    9.41e-01
2005 11 29  0620    53703   22800      0    1.37e+00    0    9.61e-01
2005 11 29  0625    53703   23100      0    1.40e+00    0    9.89e-01
2005 11 29  0630    53703   23400      0    1.42e+00    0    9.94e-01
2005 11 29  0635    53703   23700      0    1.41e+00    0    9.77e-01
2005 11 29  0640    53703   24000      0    1.38e+00    0    9.67e-01
2005 11 29  0645    53703   24300      0    1.39e+00    0    9.79e-01
2005 11 29  0650    53703   24600      0    1.39e+00    0    9.79e-01
2005 11 29  0655    53703   24900      0    1.39e+00    0    9.76e-01
2005 11 29  0700    53703   25200      0    1.40e+00    0    9.80e-01
2005 11 29  0705    53703   25500      0    1.36e+00    0    9.66e-01
2005 11 29  0710    53703   25800      0    1.36e+00    0    9.65e-01
2005 11 29  0715    53703   26100      9   -1.00e+05    9   -1.00e+05
2005 11 29  0720    53703   26400      9   -1.00e+05    9   -1.00e+05
2005 11 29  0725    53703   26700      0    1.39e+00    0    9.80e-01
2005 11 29  0730    53703   27000      0    1.39e+00    0    9.73e-01
2005 11 29  0735    53703   27300      0    1.39e+00    0    9.73e-01
2005 11 29  0740    53703   27600      0    1.34e+00    0    9.43e-01
2005 11 29  0745    53703   27900      0    1.40e+00    0    9.89e-01
2005 11 29  0750    53703   28200      0    1.40e+00    0    9.94e-01
2005 11 29  0755    53703   28500      0    1.40e+00    0    9.77e-01
2005 11 29  0800    53703   28800      0    1.37e+00    0    9.60e-01
2005 11 29  0805    53703   29100      0    1.39e+00    0    9.78e-01
2005 11 29  0810    53703   29400      0    1.40e+00    0    9.87e-01
2005 11 29  0815    53703   29700      0    1.39e+00    0    9.71e-01
2005 11 29  0820    53703   30000      0    1.39e+00    0    9.83e-01
2005 11 29  0825    53703   30300      0    1.36e+00    0    9.61e-01
2005 11 29  0830    53703   30600      0    1.39e+00    0    9.84e-01
2005 11 29  0835    53703   30900      0    1.38e+00    0    9.84e-01
2005 11 29  0840    53703   31200      0    1.38e+00    0    9.70e-01
2005 11 29  0845    53703   31500      0    1.41e+00    0    9.94e-01
2005 11 29  0850    53703   31800      0    1.42e+00    0    9.80e-01
2005 11 29  0855    53703   32100      0    1.41e+00    0    9.87e-01
2005 11 29  0900    53703   32400      0    1.38e+00    0    9.73e-01
2005 11 29  0905    53703   32700      0    1.44e+00    0    1.00e+00
2005 11 29  0910    53703   33000      0    1.39e+00    0    9.73e-01
2005 11 29  0915    53703   33300      0    1.41e+00    0    9.98e-01
2005 11 29  0920    53703   33600      0    1.41e+00    0    1.00e+00
2005 11 29  0925    53703   33900      0    1.41e+00    0    9.88e-01
2005 11 29  0930    53703   34200      0    1.40e+00    0    9.74e-01
2005 11 29  0935    53703   34500      0    1.38e+00    0    9.69e-01
2005 11 29  0940    53703   34800      0    1.39e+00    0    9.83e-01
2005 11 29  0945    53703   35100      0    1.44e+00    0    1.01e+00
2005 11 29  0950    53703   35400      0    1.37e+00    0    9.54e-01
2005 11 29  0955    53703   35700      0    1.39e+00    0    9.70e-01
2005 11 29  1000    53703   36000      0    1.36e+00    0    9.53e-01
2005 11 29  1005    53703   36300      0    1.35e+00    0    9.50e-01
2005 11 29  1010    53703   36600      9   -1.00e+05    9   -1.00e+05
2005 11 29  1015    53703   36900      0    1.41e+00    0    9.83e-01
2005 11 29  1020    53703   37200      0    1.41e+00    0    1.00e+00
2005 11 29  1025    53703   37500      0    1.38e+00    0    9.71e-01
2005 11 29  1030    53703   37800      0    1.41e+00    0    9.82e-01
2005 11 29  1035    53703   38100      0    1.40e+00    0    9.81e-01
2005 11 29  1040    53703   38400      0    1.40e+00    0    9.82e-01
2005 11 29  1045    53703   38700      0    1.42e+00    0    9.97e-01
2005 11 29  1050    53703   39000      0    1.37e+00    0    9.57e-01
2005 11 29  1055    53703   39300      0    1.40e+00    0    9.78e-01
2005 11 29  1100    53703   39600      0    1.40e+00    0    9.78e-01
2005 11 29  1105    53703   39900      0    1.41e+00    0    9.81e-01
2005 11 29  1110    53703   40200      0    1.41e+00    0    9.86e-01
2005 11 29  1115    53703   40500      0    1.39e+00    0    9.80e-01
2005 11 29  1120    53703   40800      0    1.39e+00    0    9.62e-01
2005 11 29  1125    53703   41100      0    1.42e+00    0    1.00e+00
2005 11 29  1130    53703   41400      0    1.43e+00    0    9.99e-01
2005 11 29  1135    53703   41700      0    1.36e+00    0    9.46e-01
2005 11 29  1140    53703   42000      0    1.39e+00    0    9.77e-01
2005 11 29  1145    53703   42300      0    1.37e+00    0    9.61e-01
2005 11 29  1150    53703   42600      0    1.37e+00    0    9.61e-01
2005 11 29  1155    53703   42900      0    1.39e+00    0    9.72e-01
2005 11 29  1200    53703   43200      0    1.43e+00    0    1.00e+00
2005 11 29  1205    53703   43500      0    1.40e+00    0    9.64e-01
2005 11 29  1210    53703   43800      0    1.43e+00    0    9.98e-01
2005 11 29  1215    53703   44100      0    1.38e+00    0    9.78e-01
2005 11 29  1220    53703   44400      0    1.37e+00    0    9.58e-01
2005 11 29  1225    53703   44700      0    1.41e+00    0    9.81e-01
2005 11 29  1230    53703   45000      0    1.41e+00    0    9.97e-01
2005 11 29  1235    53703   45300      0    1.41e+00    0    9.91e-01
2005 11 29  1240    53703   45600      0    1.40e+00    0    9.77e-01
2005 11 29  1245    53703   45900      0    1.39e+00    0    9.72e-01
2005 11 29  1250    53703   46200      0    1.41e+00    0    9.92e-01
2005 11 29  1255    53703   46500      0    1.41e+00    0    9.77e-01
2005 11 29  1300    53703   46800      0    1.39e+00    0    9.72e-01
2005 11 29  1305    53703   47100      0    1.42e+00    0    1.00e+00
2005 11 29  1310    53703   47400      0    1.37e+00    0    9.69e-01
2005 11 29  1315    53703   47700      0    1.42e+00    0    9.99e-01
2005 11 29  1320    53703   48000      0    1.38e+00    0    9.78e-01
2005 11 29  1325    53703   48300      0    1.40e+00    0    9.93e-01
2005 11 29  1330    53703   48600      0    1.40e+00    0    9.74e-01
2005 11 29  1335    53703   48900      0    1.40e+00    0    9.89e-01
2005 11 29  1340    53703   49200      0    1.39e+00    0    9.74e-01
2005 11 29  1345    53703   49500      0    1.41e+00    0    9.92e-01
2005 11 29  1350    53703   49800      0    1.42e+00    0    1.00e+00
2005 11 29  1355    53703   50100      0    1.40e+00    0    9.82e-01
2005 11 29  1400    53703   50400      0    1.40e+00    0    9.76e-01
2005 11 29  1405    53703   50700      0    1.37e+00    0    9.51e-01
2005 11 29  1410    53703   51000      0    1.39e+00    0    9.71e-01
2005 11 29  1415    53703   51300      0    1.40e+00    0    9.79e-01
2005 11 29  1420    53703   51600      0    1.43e+00    0    9.94e-01
2005 11 29  1425    53703   51900      0    1.38e+00    0    9.79e-01
2005 11 29  1430    53703   52200      0    1.37e+00    0    9.65e-01
2005 11 29  1435    53703   52500      0    1.40e+00    0    9.69e-01
2005 11 29  1440    53703   52800      0    1.42e+00    0    1.00e+00
2005 11 29  1445    53703   53100      0    1.43e+00    0    9.99e-01
2005 11 29  1450    53703   53400      0    1.41e+00    0    9.82e-01
2005 11 29  1455    53703   53700      0    1.39e+00    0    9.93e-01
2005 11 29  1500    53703   54000      0    1.42e+00    0    9.94e-01
2005 11 29  1505    53703   54300      0    1.40e+00    0    9.87e-01
2005 11 29  1510    53703   54600      0    1.39e+00    0    9.74e-01
2005 11 29  1515    53703   54900      0    1.42e+00    0    9.98e-01
2005 11 29  1520    53703   55200      0    1.40e+00    0    9.85e-01
2005 11 29  1525    53703   55500      0    1.39e+00    0    9.77e-01
2005 11 29  1530    53703   55800      0    1.40e+00    0    9.73e-01
2005 11 29  1535    53703   56100      0    1.37e+00    0    9.54e-01
2005 11 29  1540    53703   56400      0    1.40e+00    0    9.92e-01
2005 11 29  1545    53703   56700      0    1.36e+00    0    9.64e-01
2005 11 29  1550    53703   57000      0    1.38e+00    0    9.72e-01
2005 11 29  1555    53703   57300      0    1.42e+00    0    9.98e-01
2005 11 29  1600    53703   57600      0    1.46e+00    0    1.02e+00
2005 11 29  1605    53703   57900      0    1.45e+00    0    1.01e+00
2005 11 29  1610    53703   58200      0    1.40e+00    0    9.70e-01
2005 11 29  1615    53703   58500      0    1.45e+00    0    1.00e+00
2005 11 29  1620    53703   58800      0    1.39e+00    0    9.72e-01
2005 11 29  1625    53703   59100      0    1.40e+00    0    9.72e-01
2005 11 29  1630    53703   59400      0    1.39e+00    0    9.87e-01
2005 11 29  1635    53703   59700      0    1.34e+00    0    9.47e-01
2005 11 29  1640    53703   60000      0    1.40e+00    0    9.79e-01
2005 11 29  1645    53703   60300      0    1.41e+00    0    9.87e-01
2005 11 29  1650    53703   60600      0    1.37e+00    0    9.70e-01
2005 11 29  1655    53703   60900      0    1.38e+00    0    9.71e-01
2005 11 29  1700    53703   61200      0    1.42e+00    0    1.01e+00
2005 11 29  1705    53703   61500      0    1.39e+00    0    9.77e-01
2005 11 29  1710    53703   61800      0    1.41e+00    0    9.83e-01
2005 11 29  1715    53703   62100      0    1.41e+00    0    9.72e-01
2005 11 29  1720    53703   62400      0    1.41e+00    0    9.92e-01
2005 11 29  1725    53703   62700      0    1.41e+00    0    9.98e-01
2005 11 29  1730    53703   63000      0    1.38e+00    0    9.67e-01
2005 11 29  1735    53703   63300      0    1.43e+00    0    9.99e-01
2005 11 29  1740    53703   63600      0    1.40e+00    0    9.78e-01
2005 11 29  1745    53703   63900      0    1.40e+00    0    9.84e-01
2005 11 29  1750    53703   64200      0    1.40e+00    0    9.77e-01
2005 11 29  1755    53703   64500      0    1.40e+00    0    9.89e-01
2005 11 29  1800    53703   64800      0    1.38e+00    0    9.73e-01
2005 11 29  1805    53703   65100      0    1.41e+00    0    9.87e-01
2005 11 29  1810    53703   65400      0    1.41e+00    0    9.90e-01
2005 11 29  1815    53703   65700      0    1.42e+00    0    1.00e+00
2005 11 29  1820    53703   66000      0    1.44e+00    0    9.99e-01
2005 11 29  1825    53703   66300      0    1.43e+00    0    1.01e+00
2005 11 29  1830    53703   66600      0    1.41e+00    0    9.86e-01
2005 11 29  1835    53703   66900      0    1.42e+00    0    9.93e-01
2005 11 29  1840    53703   67200      0    1.42e+00    0    9.96e-01
2005 11 29  1845    53703   67500      0    1.39e+00    0    9.70e-01
2005 11 29  1850    53703   67800      0    1.44e+00    0    1.00e+00
2005 11 29  1855    53703   68100      0    1.40e+00    0    9.83e-01
2005 11 29  1900    53703   68400      0    1.40e+00    0    9.74e-01
2005 11 29  1905    53703   68700      0    1.42e+00    0    9.90e-01
2005 11 29  1910    53703   69000      0    1.40e+00    0    9.66e-01
2005 11 29  1915    53703   69300      0    1.42e+00    0    1.01e+00
2005 11 29  1920    53703   69600      0    1.41e+00    0    9.78e-01
2005 11 29  1925    53703   69900      0    1.43e+00    0    9.99e-01
2005 11 29  1930    53703   70200      0    1.42e+00    0    9.93e-01
2005 11 29  1935    53703   70500      0    1.41e+00    0    1.00e+00
2005 11 29  1940    53703   70800      0    1.43e+00    0    1.00e+00
2005 11 29  1945    53703   71100      0    1.34e+00    0    9.30e-01
2005 11 29  1950    53703   71400      0    1.41e+00    0    9.86e-01
2005 11 29  1955    53703   71700      0    1.41e+00    0    9.74e-01
2005 11 29  2000    53703   72000      0    1.44e+00    0    9.97e-01
2005 11 29  2005    53703   72300      0    1.39e+00    0    9.62e-01
2005 11 29  2010    53703   72600      0    1.43e+00    0    9.96e-01
2005 11 29  2015    53703   72900      0    1.41e+00    0    9.82e-01
2005 11 29  2020    53703   73200      0    1.39e+00    0    9.69e-01
2005 11 29  2025    53703   73500      0    1.41e+00    0    9.80e-01
2005 11 29  2030    53703   73800      0    1.40e+00    0    9.71e-01
2005 11 29  2035    53703   74100      0    1.45e+00    0    1.01e+00
2005 11 29  2040    53703   74400      0    1.41e+00    0    9.73e-01
2005 11 29  2045    53703   74700      0    1.40e+00    0    9.61e-01
2005 11 29  2050    53703   75000      0    1.42e+00    0    9.87e-01
2005 11 29  2055    53703   75300      0    1.44e+00    0    1.01e+00
2005 11 29  2100    53703   75600      0    1.43e+00    0    9.87e-01
2005 11 29  2105    53703   75900      0    1.43e+00    0    9.91e-01
2005 11 29  2110    53703   76200      0    1.43e+00    0    9.94e-01
2005 11 29  2115    53703   76500      0    1.48e+00    0    1.02e+00
2005 11 29  2120    53703   76800      0    1.41e+00    0    9.74e-01
2005 11 29  2125    53703   77100      0    1.42e+00    0    9.77e-01
2005 11 29  2130    53703   77400      0    1.43e+00    0    9.81e-01
2005 11 29  2135    53703   77700      0    1.44e+00    0    9.91e-01
2005 11 29  2140    53703   78000      0    1.46e+00    0    1.01e+00
2005 11 29  2145    53703   78300      0    1.47e+00    0    1.01e+00
2005 11 29  2150    53703   78600      0    1.48e+00    0    1.03e+00
2005 11 29  2155    53703   78900      0    1.49e+00    0    1.02e+00
2005 11 29  2200    53703   79200      0    1.51e+00    0    1.03e+00
2005 11 29  2205    53703   79500      0    1.45e+00    0    1.01e+00
2005 11 29  2210    53703   79800      0    1.43e+00    0    9.78e-01
2005 11 29  2215    53703   80100      0    1.42e+00    0    9.72e-01
2005 11 29  2220    53703   80400      0    1.42e+00    0    9.83e-01
2005 11 29  2225    53703   80700      0    1.41e+00    0    9.81e-01
2005 11 29  2230    53703   81000      0    1.41e+00    0    9.72e-01
2005 11 29  2235    53703   81300      0    1.44e+00    0    1.00e+00
2005 11 29  2240    53703   81600      0    1.46e+00    0    1.00e+00
2005 11 29  2245    53703   81900      0    1.48e+00    0    1.00e+00
2005 11 29  2250    53703   82200      0    1.50e+00    0    1.01e+00
2005 11 29  2255    53703   82500      0    1.48e+00    0    1.00e+00
2005 11 29  2300    53703   82800      0    1.49e+00    0    1.01e+00
2005 11 29  2305    53703   83100      0    1.47e+00    0    1.00e+00
2005 11 29  2310    53703   83400      0    1.46e+00    0    9.95e-01
2005 11 29  2315    53703   83700      0    1.45e+00    0    9.90e-01
2005 11 29  2320    53703   84000      0    1.45e+00    0    1.01e+00
2005 11 29  2325    53703   84300      0    1.46e+00    0    1.01e+00
2005 11 29  2330    53703   84600      0    1.43e+00    0    9.86e-01
2005 11 29  2335    53703   84900      0    1.45e+00    0    9.93e-01
2005 11 29  2340    53703   85200      0    1.45e+00    0    1.00e+00
2005 11 29  2345    53703   85500      0    1.40e+00    0    9.64e-01
2005 11 29  2350    53703   85800      0    1.43e+00    0    9.90e-01
2005 11 29  2355    53703   86100      0    1.44e+00    0    1.00e+00
