:Data_list: 20060616_ace_sis_5m.txt
:Created: 2006 Jun 17 0011 UT
# Prepared by the U.S. Dept. of Commerce, NOAA, Space Environment Center.
# Please send comments and suggestions to SEC.Webmaster@noaa.gov 
# 
# Units: proton flux p/cs2-sec-ster
# Status(S): 0 = nominal data, 1 to 8 = bad data record, 9 = no data
# Missing data values: -1.00e+05
# Source: ACE Satellite - Solar Isotope Spectrometer
#
# 5-minute averaged Real-time Integral Flux of High-energy Solar Protons
# 
#                 Modified Seconds
# UT Date   Time   Julian  of the      ---- Integral Proton Flux ----
# YR MO DA  HHMM     Day     Day       S    > 10 MeV    S    > 30 MeV
#--------------------------------------------------------------------
2006 06 16  0000    53902       0      0    1.63e+00    0    1.14e+00
2006 06 16  0005    53902     300      0    1.61e+00    0    1.13e+00
2006 06 16  0010    53902     600      0    1.60e+00    0    1.12e+00
2006 06 16  0015    53902     900      0    1.68e+00    0    1.18e+00
2006 06 16  0020    53902    1200      0    1.64e+00    0    1.15e+00
2006 06 16  0025    53902    1500      0    1.62e+00    0    1.14e+00
2006 06 16  0030    53902    1800      0    1.64e+00    0    1.14e+00
2006 06 16  0035    53902    2100      0    1.65e+00    0    1.16e+00
2006 06 16  0040    53902    2400      0    1.63e+00    0    1.14e+00
2006 06 16  0045    53902    2700      0    1.61e+00    0    1.13e+00
2006 06 16  0050    53902    3000      0    1.64e+00    0    1.14e+00
2006 06 16  0055    53902    3300      0    1.65e+00    0    1.14e+00
2006 06 16  0100    53902    3600      0    1.65e+00    0    1.17e+00
2006 06 16  0105    53902    3900      0    1.63e+00    0    1.15e+00
2006 06 16  0110    53902    4200      0    1.60e+00    0    1.12e+00
2006 06 16  0115    53902    4500      0    1.67e+00    0    1.17e+00
2006 06 16  0120    53902    4800      0    1.61e+00    0    1.11e+00
2006 06 16  0125    53902    5100      0    1.61e+00    0    1.13e+00
2006 06 16  0130    53902    5400      0    1.65e+00    0    1.15e+00
2006 06 16  0135    53902    5700      0    1.62e+00    0    1.14e+00
2006 06 16  0140    53902    6000      0    1.62e+00    0    1.13e+00
2006 06 16  0145    53902    6300      0    1.63e+00    0    1.15e+00
2006 06 16  0150    53902    6600      0    1.61e+00    0    1.12e+00
2006 06 16  0155    53902    6900      0    1.65e+00    0    1.15e+00
2006 06 16  0200    53902    7200      0    1.67e+00    0    1.18e+00
2006 06 16  0205    53902    7500      0    1.70e+00    0    1.18e+00
2006 06 16  0210    53902    7800      0    1.65e+00    0    1.15e+00
2006 06 16  0215    53902    8100      0    1.64e+00    0    1.15e+00
2006 06 16  0220    53902    8400      0    1.61e+00    0    1.14e+00
2006 06 16  0225    53902    8700      0    1.65e+00    0    1.16e+00
2006 06 16  0230    53902    9000      0    1.63e+00    0    1.15e+00
2006 06 16  0235    53902    9300      0    1.61e+00    0    1.14e+00
2006 06 16  0240    53902    9600      0    1.63e+00    0    1.15e+00
2006 06 16  0245    53902    9900      0    1.61e+00    0    1.13e+00
2006 06 16  0250    53902   10200      0    1.63e+00    0    1.14e+00
2006 06 16  0255    53902   10500      0    1.63e+00    0    1.14e+00
2006 06 16  0300    53902   10800      0    1.64e+00    0    1.14e+00
2006 06 16  0305    53902   11100      0    1.65e+00    0    1.16e+00
2006 06 16  0310    53902   11400      0    1.62e+00    0    1.13e+00
2006 06 16  0315    53902   11700      0    1.65e+00    0    1.17e+00
2006 06 16  0320    53902   12000      0    1.69e+00    0    1.20e+00
2006 06 16  0325    53902   12300      0    1.64e+00    0    1.15e+00
2006 06 16  0330    53902   12600      0    1.63e+00    0    1.14e+00
2006 06 16  0335    53902   12900      0    1.53e+00    0    1.09e+00
2006 06 16  0340    53902   13200      0    1.61e+00    0    1.12e+00
2006 06 16  0345    53902   13500      0    1.64e+00    0    1.15e+00
2006 06 16  0350    53902   13800      0    1.63e+00    0    1.14e+00
2006 06 16  0355    53902   14100      0    1.60e+00    0    1.13e+00
2006 06 16  0400    53902   14400      0    1.62e+00    0    1.13e+00
2006 06 16  0405    53902   14700      0    1.63e+00    0    1.14e+00
2006 06 16  0410    53902   15000      0    1.65e+00    0    1.16e+00
2006 06 16  0415    53902   15300      0    1.68e+00    0    1.18e+00
2006 06 16  0420    53902   15600      0    1.64e+00    0    1.14e+00
2006 06 16  0425    53902   15900      0    1.64e+00    0    1.15e+00
2006 06 16  0430    53902   16200      0    1.68e+00    0    1.18e+00
2006 06 16  0435    53902   16500      0    1.66e+00    0    1.18e+00
2006 06 16  0440    53902   16800      0    1.61e+00    0    1.12e+00
2006 06 16  0445    53902   17100      0    1.61e+00    0    1.12e+00
2006 06 16  0450    53902   17400      0    1.60e+00    0    1.11e+00
2006 06 16  0455    53902   17700      0    1.66e+00    0    1.17e+00
2006 06 16  0500    53902   18000      0    1.64e+00    0    1.15e+00
2006 06 16  0505    53902   18300      0    1.64e+00    0    1.14e+00
2006 06 16  0510    53902   18600      0    1.62e+00    0    1.14e+00
2006 06 16  0515    53902   18900      0    1.59e+00    0    1.12e+00
2006 06 16  0520    53902   19200      0    1.66e+00    0    1.15e+00
2006 06 16  0525    53902   19500      0    1.65e+00    0    1.17e+00
2006 06 16  0530    53902   19800      0    1.63e+00    0    1.14e+00
2006 06 16  0535    53902   20100      0    1.63e+00    0    1.15e+00
2006 06 16  0540    53902   20400      0    1.63e+00    0    1.15e+00
2006 06 16  0545    53902   20700      0    1.66e+00    0    1.15e+00
2006 06 16  0550    53902   21000      0    1.64e+00    0    1.14e+00
2006 06 16  0555    53902   21300      0    1.69e+00    0    1.19e+00
2006 06 16  0600    53902   21600      0    1.62e+00    0    1.13e+00
2006 06 16  0605    53902   21900      0    1.61e+00    0    1.12e+00
2006 06 16  0610    53902   22200      0    1.61e+00    0    1.14e+00
2006 06 16  0615    53902   22500      0    1.63e+00    0    1.14e+00
2006 06 16  0620    53902   22800      0    1.65e+00    0    1.15e+00
2006 06 16  0625    53902   23100      0    1.64e+00    0    1.15e+00
2006 06 16  0630    53902   23400      0    1.67e+00    0    1.17e+00
2006 06 16  0635    53902   23700      0    1.64e+00    0    1.15e+00
2006 06 16  0640    53902   24000      0    1.68e+00    0    1.17e+00
2006 06 16  0645    53902   24300      0    1.64e+00    0    1.15e+00
2006 06 16  0650    53902   24600      0    1.63e+00    0    1.14e+00
2006 06 16  0655    53902   24900      0    1.64e+00    0    1.15e+00
2006 06 16  0700    53902   25200      0    1.64e+00    0    1.15e+00
2006 06 16  0705    53902   25500      0    1.65e+00    0    1.16e+00
2006 06 16  0710    53902   25800      0    1.65e+00    0    1.15e+00
2006 06 16  0715    53902   26100      0    1.62e+00    0    1.14e+00
2006 06 16  0720    53902   26400      0    1.61e+00    0    1.14e+00
2006 06 16  0725    53902   26700      0    1.62e+00    0    1.15e+00
2006 06 16  0730    53902   27000      0    1.65e+00    0    1.15e+00
2006 06 16  0735    53902   27300      0    1.64e+00    0    1.16e+00
2006 06 16  0740    53902   27600      0    1.66e+00    0    1.16e+00
2006 06 16  0745    53902   27900      0    1.63e+00    0    1.15e+00
2006 06 16  0750    53902   28200      0    1.63e+00    0    1.14e+00
2006 06 16  0755    53902   28500      0    1.65e+00    0    1.16e+00
2006 06 16  0800    53902   28800      0    1.66e+00    0    1.16e+00
2006 06 16  0805    53902   29100      0    1.65e+00    0    1.15e+00
2006 06 16  0810    53902   29400      0    1.62e+00    0    1.14e+00
2006 06 16  0815    53902   29700      0    1.62e+00    0    1.13e+00
2006 06 16  0820    53902   30000      0    1.65e+00    0    1.16e+00
2006 06 16  0825    53902   30300      0    1.64e+00    0    1.15e+00
2006 06 16  0830    53902   30600      0    1.64e+00    0    1.15e+00
2006 06 16  0835    53902   30900      0    1.61e+00    0    1.13e+00
2006 06 16  0840    53902   31200      0    1.63e+00    0    1.14e+00
2006 06 16  0845    53902   31500      0    1.66e+00    0    1.17e+00
2006 06 16  0850    53902   31800      0    1.63e+00    0    1.14e+00
2006 06 16  0855    53902   32100      0    1.65e+00    0    1.14e+00
2006 06 16  0900    53902   32400      0    1.66e+00    0    1.15e+00
2006 06 16  0905    53902   32700      0    1.64e+00    0    1.14e+00
2006 06 16  0910    53902   33000      0    1.61e+00    0    1.12e+00
2006 06 16  0915    53902   33300      0    1.62e+00    0    1.14e+00
2006 06 16  0920    53902   33600      0    1.61e+00    0    1.13e+00
2006 06 16  0925    53902   33900      0    1.64e+00    0    1.15e+00
2006 06 16  0930    53902   34200      0    1.66e+00    0    1.16e+00
2006 06 16  0935    53902   34500      0    1.60e+00    0    1.11e+00
2006 06 16  0940    53902   34800      0    1.64e+00    0    1.14e+00
2006 06 16  0945    53902   35100      0    1.65e+00    0    1.15e+00
2006 06 16  0950    53902   35400      0    1.68e+00    0    1.17e+00
2006 06 16  0955    53902   35700      0    1.65e+00    0    1.17e+00
2006 06 16  1000    53902   36000      0    1.63e+00    0    1.14e+00
2006 06 16  1005    53902   36300      0    1.65e+00    0    1.16e+00
2006 06 16  1010    53902   36600      0    1.67e+00    0    1.17e+00
2006 06 16  1015    53902   36900      0    1.65e+00    0    1.17e+00
2006 06 16  1020    53902   37200      0    1.65e+00    0    1.16e+00
2006 06 16  1025    53902   37500      0    1.63e+00    0    1.15e+00
2006 06 16  1030    53902   37800      0    1.61e+00    0    1.13e+00
2006 06 16  1035    53902   38100      0    1.61e+00    0    1.12e+00
2006 06 16  1040    53902   38400      0    1.61e+00    0    1.11e+00
2006 06 16  1045    53902   38700      0    1.60e+00    0    1.13e+00
2006 06 16  1050    53902   39000      0    1.62e+00    0    1.14e+00
2006 06 16  1055    53902   39300      0    1.68e+00    0    1.17e+00
2006 06 16  1100    53902   39600      0    1.66e+00    0    1.16e+00
2006 06 16  1105    53902   39900      0    1.64e+00    0    1.16e+00
2006 06 16  1110    53902   40200      0    1.69e+00    0    1.18e+00
2006 06 16  1115    53902   40500      0    1.63e+00    0    1.14e+00
2006 06 16  1120    53902   40800      0    1.62e+00    0    1.14e+00
2006 06 16  1125    53902   41100      0    1.63e+00    0    1.14e+00
2006 06 16  1130    53902   41400      0    1.64e+00    0    1.16e+00
2006 06 16  1135    53902   41700      0    1.64e+00    0    1.14e+00
2006 06 16  1140    53902   42000      0    1.62e+00    0    1.13e+00
2006 06 16  1145    53902   42300      0    1.64e+00    0    1.16e+00
2006 06 16  1150    53902   42600      0    1.62e+00    0    1.12e+00
2006 06 16  1155    53902   42900      0    1.62e+00    0    1.12e+00
2006 06 16  1200    53902   43200      0    1.63e+00    0    1.14e+00
2006 06 16  1205    53902   43500      0    1.64e+00    0    1.15e+00
2006 06 16  1210    53902   43800      0    1.62e+00    0    1.14e+00
2006 06 16  1215    53902   44100      0    1.63e+00    0    1.14e+00
2006 06 16  1220    53902   44400      0    1.61e+00    0    1.11e+00
2006 06 16  1225    53902   44700      0    1.62e+00    0    1.13e+00
2006 06 16  1230    53902   45000      0    1.65e+00    0    1.15e+00
2006 06 16  1235    53902   45300      0    1.63e+00    0    1.15e+00
2006 06 16  1240    53902   45600      0    1.57e+00    0    1.11e+00
2006 06 16  1245    53902   45900      0    1.64e+00    0    1.14e+00
2006 06 16  1250    53902   46200      0    1.64e+00    0    1.15e+00
2006 06 16  1255    53902   46500      0    1.64e+00    0    1.17e+00
2006 06 16  1300    53902   46800      0    1.62e+00    0    1.14e+00
2006 06 16  1305    53902   47100      0    1.61e+00    0    1.13e+00
2006 06 16  1310    53902   47400      0    1.62e+00    0    1.13e+00
2006 06 16  1315    53902   47700      0    1.62e+00    0    1.14e+00
2006 06 16  1320    53902   48000      0    1.62e+00    0    1.13e+00
2006 06 16  1325    53902   48300      0    1.63e+00    0    1.14e+00
2006 06 16  1330    53902   48600      0    1.60e+00    0    1.12e+00
2006 06 16  1335    53902   48900      0    1.63e+00    0    1.14e+00
2006 06 16  1340    53902   49200      0    1.66e+00    0    1.18e+00
2006 06 16  1345    53902   49500      0    1.62e+00    0    1.13e+00
2006 06 16  1350    53902   49800      0    1.60e+00    0    1.13e+00
2006 06 16  1355    53902   50100      0    1.62e+00    0    1.13e+00
2006 06 16  1400    53902   50400      0    1.64e+00    0    1.15e+00
2006 06 16  1405    53902   50700      0    1.62e+00    0    1.13e+00
2006 06 16  1410    53902   51000      0    1.64e+00    0    1.15e+00
2006 06 16  1415    53902   51300      0    1.61e+00    0    1.13e+00
2006 06 16  1420    53902   51600      0    1.60e+00    0    1.11e+00
2006 06 16  1425    53902   51900      0    1.66e+00    0    1.16e+00
2006 06 16  1430    53902   52200      0    1.61e+00    0    1.13e+00
2006 06 16  1435    53902   52500      0    1.62e+00    0    1.13e+00
2006 06 16  1440    53902   52800      0    1.66e+00    0    1.17e+00
2006 06 16  1445    53902   53100      0    1.59e+00    0    1.13e+00
2006 06 16  1450    53902   53400      0    1.64e+00    0    1.16e+00
2006 06 16  1455    53902   53700      0    1.64e+00    0    1.15e+00
2006 06 16  1500    53902   54000      0    1.58e+00    0    1.10e+00
2006 06 16  1505    53902   54300      0    1.62e+00    0    1.14e+00
2006 06 16  1510    53902   54600      0    1.61e+00    0    1.13e+00
2006 06 16  1515    53902   54900      0    1.64e+00    0    1.15e+00
2006 06 16  1520    53902   55200      0    1.61e+00    0    1.13e+00
2006 06 16  1525    53902   55500      0    1.64e+00    0    1.16e+00
2006 06 16  1530    53902   55800      0    1.59e+00    0    1.13e+00
2006 06 16  1535    53902   56100      0    1.57e+00    0    1.09e+00
2006 06 16  1540    53902   56400      0    1.62e+00    0    1.13e+00
2006 06 16  1545    53902   56700      0    1.66e+00    0    1.16e+00
2006 06 16  1550    53902   57000      0    1.64e+00    0    1.16e+00
2006 06 16  1555    53902   57300      0    1.61e+00    0    1.13e+00
2006 06 16  1600    53902   57600      0    1.61e+00    0    1.12e+00
2006 06 16  1605    53902   57900      0    1.64e+00    0    1.15e+00
2006 06 16  1610    53902   58200      0    1.64e+00    0    1.16e+00
2006 06 16  1615    53902   58500      0    1.62e+00    0    1.14e+00
2006 06 16  1620    53902   58800      0    1.60e+00    0    1.12e+00
2006 06 16  1625    53902   59100      0    1.63e+00    0    1.14e+00
2006 06 16  1630    53902   59400      0    1.58e+00    0    1.10e+00
2006 06 16  1635    53902   59700      0    1.63e+00    0    1.14e+00
2006 06 16  1640    53902   60000      0    1.64e+00    0    1.16e+00
2006 06 16  1645    53902   60300      0    1.63e+00    0    1.14e+00
2006 06 16  1650    53902   60600      0    1.64e+00    0    1.15e+00
2006 06 16  1655    53902   60900      0    1.65e+00    0    1.16e+00
2006 06 16  1700    53902   61200      0    1.64e+00    0    1.15e+00
2006 06 16  1705    53902   61500      0    1.65e+00    0    1.16e+00
2006 06 16  1710    53902   61800      0    1.61e+00    0    1.14e+00
2006 06 16  1715    53902   62100      0    1.64e+00    0    1.15e+00
2006 06 16  1720    53902   62400      0    1.62e+00    0    1.13e+00
2006 06 16  1725    53902   62700      0    1.68e+00    0    1.18e+00
2006 06 16  1730    53902   63000      0    1.61e+00    0    1.14e+00
2006 06 16  1735    53902   63300      0    1.62e+00    0    1.13e+00
2006 06 16  1740    53902   63600      0    1.62e+00    0    1.14e+00
2006 06 16  1745    53902   63900      0    1.65e+00    0    1.15e+00
2006 06 16  1750    53902   64200      0    1.61e+00    0    1.12e+00
2006 06 16  1755    53902   64500      0    1.61e+00    0    1.13e+00
2006 06 16  1800    53902   64800      0    1.62e+00    0    1.15e+00
2006 06 16  1805    53902   65100      0    1.59e+00    0    1.11e+00
2006 06 16  1810    53902   65400      0    1.62e+00    0    1.15e+00
2006 06 16  1815    53902   65700      0    1.61e+00    0    1.12e+00
2006 06 16  1820    53902   66000      0    1.63e+00    0    1.14e+00
2006 06 16  1825    53902   66300      0    1.61e+00    0    1.13e+00
2006 06 16  1830    53902   66600      0    1.59e+00    0    1.11e+00
2006 06 16  1835    53902   66900      0    1.64e+00    0    1.15e+00
2006 06 16  1840    53902   67200      0    1.61e+00    0    1.14e+00
2006 06 16  1845    53902   67500      0    1.61e+00    0    1.13e+00
2006 06 16  1850    53902   67800      0    1.62e+00    0    1.14e+00
2006 06 16  1855    53902   68100      0    1.61e+00    0    1.13e+00
2006 06 16  1900    53902   68400      0    1.61e+00    0    1.12e+00
2006 06 16  1905    53902   68700      0    1.66e+00    0    1.16e+00
2006 06 16  1910    53902   69000      0    1.65e+00    0    1.16e+00
2006 06 16  1915    53902   69300      0    1.64e+00    0    1.13e+00
2006 06 16  1920    53902   69600      0    1.63e+00    0    1.13e+00
2006 06 16  1925    53902   69900      0    1.58e+00    0    1.11e+00
2006 06 16  1930    53902   70200      0    1.65e+00    0    1.15e+00
2006 06 16  1935    53902   70500      0    1.64e+00    0    1.15e+00
2006 06 16  1940    53902   70800      0    1.60e+00    0    1.12e+00
2006 06 16  1945    53902   71100      0    1.61e+00    0    1.12e+00
2006 06 16  1950    53902   71400      0    1.56e+00    0    1.09e+00
2006 06 16  1955    53902   71700      0    1.59e+00    0    1.11e+00
2006 06 16  2000    53902   72000      0    1.61e+00    0    1.14e+00
2006 06 16  2005    53902   72300      0    1.62e+00    0    1.14e+00
2006 06 16  2010    53902   72600      0    1.61e+00    0    1.12e+00
2006 06 16  2015    53902   72900      0    1.62e+00    0    1.14e+00
2006 06 16  2020    53902   73200      0    1.61e+00    0    1.13e+00
2006 06 16  2025    53902   73500      0    1.61e+00    0    1.12e+00
2006 06 16  2030    53902   73800      0    1.61e+00    0    1.14e+00
2006 06 16  2035    53902   74100      0    1.64e+00    0    1.15e+00
2006 06 16  2040    53902   74400      0    1.60e+00    0    1.12e+00
2006 06 16  2045    53902   74700      0    1.62e+00    0    1.13e+00
2006 06 16  2050    53902   75000      0    1.61e+00    0    1.13e+00
2006 06 16  2055    53902   75300      0    1.62e+00    0    1.15e+00
2006 06 16  2100    53902   75600      0    1.61e+00    0    1.12e+00
2006 06 16  2105    53902   75900      0    1.61e+00    0    1.13e+00
2006 06 16  2110    53902   76200      0    1.58e+00    0    1.11e+00
2006 06 16  2115    53902   76500      0    1.62e+00    0    1.12e+00
2006 06 16  2120    53902   76800      0    1.59e+00    0    1.10e+00
2006 06 16  2125    53902   77100      0    1.60e+00    0    1.11e+00
2006 06 16  2130    53902   77400      0    1.61e+00    0    1.12e+00
2006 06 16  2135    53902   77700      0    1.60e+00    0    1.11e+00
2006 06 16  2140    53902   78000      0    1.61e+00    0    1.12e+00
2006 06 16  2145    53902   78300      0    1.63e+00    0    1.15e+00
2006 06 16  2150    53902   78600      0    1.62e+00    0    1.13e+00
2006 06 16  2155    53902   78900      0    1.61e+00    0    1.14e+00
2006 06 16  2200    53902   79200      0    1.66e+00    0    1.16e+00
2006 06 16  2205    53902   79500      0    1.62e+00    0    1.12e+00
2006 06 16  2210    53902   79800      0    1.64e+00    0    1.16e+00
2006 06 16  2215    53902   80100      0    1.61e+00    0    1.13e+00
2006 06 16  2220    53902   80400      0    1.62e+00    0    1.14e+00
2006 06 16  2225    53902   80700      0    1.61e+00    0    1.12e+00
2006 06 16  2230    53902   81000      0    1.63e+00    0    1.15e+00
2006 06 16  2235    53902   81300      0    1.59e+00    0    1.12e+00
2006 06 16  2240    53902   81600      0    1.62e+00    0    1.13e+00
2006 06 16  2245    53902   81900      0    1.63e+00    0    1.13e+00
2006 06 16  2250    53902   82200      0    1.58e+00    0    1.10e+00
2006 06 16  2255    53902   82500      0    1.64e+00    0    1.15e+00
2006 06 16  2300    53902   82800      0    1.61e+00    0    1.13e+00
2006 06 16  2305    53902   83100      0    1.59e+00    0    1.12e+00
2006 06 16  2310    53902   83400      0    1.60e+00    0    1.13e+00
2006 06 16  2315    53902   83700      0    1.62e+00    0    1.14e+00
2006 06 16  2320    53902   84000      0    1.62e+00    0    1.13e+00
2006 06 16  2325    53902   84300      0    1.60e+00    0    1.11e+00
2006 06 16  2330    53902   84600      0    1.60e+00    0    1.12e+00
2006 06 16  2335    53902   84900      0    1.60e+00    0    1.13e+00
2006 06 16  2340    53902   85200      0    1.62e+00    0    1.15e+00
2006 06 16  2345    53902   85500      0    1.58e+00    0    1.11e+00
2006 06 16  2350    53902   85800      0    1.61e+00    0    1.13e+00
2006 06 16  2355    53902   86100      0    1.60e+00    0    1.13e+00
