:Data_list: 20060113_ace_sis_5m.txt
:Created: 2006 Jan 14 0011 UT
# Prepared by the U.S. Dept. of Commerce, NOAA, Space Environment Center.
# Please send comments and suggestions to SEC.Webmaster@noaa.gov 
# 
# Units: proton flux p/cs2-sec-ster
# Status(S): 0 = nominal data, 1 to 8 = bad data record, 9 = no data
# Missing data values: -1.00e+05
# Source: ACE Satellite - Solar Isotope Spectrometer
#
# 5-minute averaged Real-time Integral Flux of High-energy Solar Protons
# 
#                 Modified Seconds
# UT Date   Time   Julian  of the      ---- Integral Proton Flux ----
# YR MO DA  HHMM     Day     Day       S    > 10 MeV    S    > 30 MeV
#--------------------------------------------------------------------
2006 01 13  0000    53748       0      0    1.40e+00    0    9.84e-01
2006 01 13  0005    53748     300      0    1.36e+00    0    9.54e-01
2006 01 13  0010    53748     600      0    1.39e+00    0    9.76e-01
2006 01 13  0015    53748     900      0    1.40e+00    0    9.95e-01
2006 01 13  0020    53748    1200      0    1.41e+00    0    9.92e-01
2006 01 13  0025    53748    1500      0    1.40e+00    0    9.86e-01
2006 01 13  0030    53748    1800      0    1.40e+00    0    9.84e-01
2006 01 13  0035    53748    2100      0    1.41e+00    0    9.90e-01
2006 01 13  0040    53748    2400      0    1.41e+00    0    9.88e-01
2006 01 13  0045    53748    2700      0    1.44e+00    0    1.00e+00
2006 01 13  0050    53748    3000      0    1.42e+00    0    1.00e+00
2006 01 13  0055    53748    3300      0    1.43e+00    0    1.01e+00
2006 01 13  0100    53748    3600      0    1.43e+00    0    1.01e+00
2006 01 13  0105    53748    3900      0    1.39e+00    0    9.62e-01
2006 01 13  0110    53748    4200      0    1.41e+00    0    9.93e-01
2006 01 13  0115    53748    4500      0    1.39e+00    0    9.68e-01
2006 01 13  0120    53748    4800      0    1.41e+00    0    9.93e-01
2006 01 13  0125    53748    5100      0    1.38e+00    0    9.71e-01
2006 01 13  0130    53748    5400      0    1.39e+00    0    9.71e-01
2006 01 13  0135    53748    5700      0    1.41e+00    0    9.99e-01
2006 01 13  0140    53748    6000      0    1.39e+00    0    9.77e-01
2006 01 13  0145    53748    6300      0    1.38e+00    0    9.78e-01
2006 01 13  0150    53748    6600      0    1.38e+00    0    9.76e-01
2006 01 13  0155    53748    6900      0    1.37e+00    0    9.71e-01
2006 01 13  0200    53748    7200      0    1.36e+00    0    9.56e-01
2006 01 13  0205    53748    7500      0    1.39e+00    0    9.77e-01
2006 01 13  0210    53748    7800      0    1.42e+00    0    9.83e-01
2006 01 13  0215    53748    8100      0    1.38e+00    0    9.72e-01
2006 01 13  0220    53748    8400      0    1.42e+00    0    1.00e+00
2006 01 13  0225    53748    8700      0    1.37e+00    0    9.59e-01
2006 01 13  0230    53748    9000      0    1.40e+00    0    9.73e-01
2006 01 13  0235    53748    9300      0    1.41e+00    0    1.00e+00
2006 01 13  0240    53748    9600      0    1.38e+00    0    9.75e-01
2006 01 13  0245    53748    9900      0    1.39e+00    0    9.76e-01
2006 01 13  0250    53748   10200      0    1.41e+00    0    9.89e-01
2006 01 13  0255    53748   10500      0    1.43e+00    0    9.98e-01
2006 01 13  0300    53748   10800      0    1.39e+00    0    9.63e-01
2006 01 13  0305    53748   11100      0    1.38e+00    0    9.72e-01
2006 01 13  0310    53748   11400      0    1.43e+00    0    1.00e+00
2006 01 13  0315    53748   11700      0    1.44e+00    0    1.02e+00
2006 01 13  0320    53748   12000      0    1.43e+00    0    1.01e+00
2006 01 13  0325    53748   12300      0    1.41e+00    0    9.96e-01
2006 01 13  0330    53748   12600      0    1.42e+00    0    9.94e-01
2006 01 13  0335    53748   12900      0    1.41e+00    0    9.86e-01
2006 01 13  0340    53748   13200      0    1.41e+00    0    9.99e-01
2006 01 13  0345    53748   13500      0    1.40e+00    0    9.82e-01
2006 01 13  0350    53748   13800      0    1.43e+00    0    1.01e+00
2006 01 13  0355    53748   14100      0    1.44e+00    0    1.02e+00
2006 01 13  0400    53748   14400      0    1.41e+00    0    9.98e-01
2006 01 13  0405    53748   14700      0    1.39e+00    0    9.78e-01
2006 01 13  0410    53748   15000      0    1.40e+00    0    9.89e-01
2006 01 13  0415    53748   15300      0    1.41e+00    0    9.96e-01
2006 01 13  0420    53748   15600      0    1.42e+00    0    9.99e-01
2006 01 13  0425    53748   15900      0    1.38e+00    0    9.78e-01
2006 01 13  0430    53748   16200      0    1.40e+00    0    9.84e-01
2006 01 13  0435    53748   16500      0    1.41e+00    0    9.92e-01
2006 01 13  0440    53748   16800      0    1.40e+00    0    9.92e-01
2006 01 13  0445    53748   17100      0    1.37e+00    0    9.59e-01
2006 01 13  0450    53748   17400      0    1.38e+00    0    9.81e-01
2006 01 13  0455    53748   17700      0    1.43e+00    0    1.00e+00
2006 01 13  0500    53748   18000      0    1.39e+00    0    9.73e-01
2006 01 13  0505    53748   18300      0    1.42e+00    0    9.90e-01
2006 01 13  0510    53748   18600      0    1.42e+00    0    9.98e-01
2006 01 13  0515    53748   18900      0    1.46e+00    0    1.04e+00
2006 01 13  0520    53748   19200      0    1.41e+00    0    9.94e-01
2006 01 13  0525    53748   19500      0    1.39e+00    0    9.76e-01
2006 01 13  0530    53748   19800      0    1.42e+00    0    9.84e-01
2006 01 13  0535    53748   20100      0    1.42e+00    0    1.01e+00
2006 01 13  0540    53748   20400      0    1.41e+00    0    9.91e-01
2006 01 13  0545    53748   20700      0    1.44e+00    0    1.01e+00
2006 01 13  0550    53748   21000      0    1.41e+00    0    9.94e-01
2006 01 13  0555    53748   21300      0    1.38e+00    0    9.64e-01
2006 01 13  0600    53748   21600      0    1.40e+00    0    9.89e-01
2006 01 13  0605    53748   21900      0    1.45e+00    0    1.02e+00
2006 01 13  0610    53748   22200      0    1.38e+00    0    9.78e-01
2006 01 13  0615    53748   22500      0    1.42e+00    0    9.98e-01
2006 01 13  0620    53748   22800      0    1.43e+00    0    1.00e+00
2006 01 13  0625    53748   23100      0    1.41e+00    0    9.97e-01
2006 01 13  0630    53748   23400      0    1.39e+00    0    9.73e-01
2006 01 13  0635    53748   23700      0    1.34e+00    0    9.44e-01
2006 01 13  0640    53748   24000      0    1.41e+00    0    9.92e-01
2006 01 13  0645    53748   24300      0    1.39e+00    0    9.68e-01
2006 01 13  0650    53748   24600      0    1.38e+00    0    9.58e-01
2006 01 13  0655    53748   24900      0    1.41e+00    0    9.95e-01
2006 01 13  0700    53748   25200      0    1.40e+00    0    9.87e-01
2006 01 13  0705    53748   25500      0    1.40e+00    0    9.86e-01
2006 01 13  0710    53748   25800      0    1.40e+00    0    9.89e-01
2006 01 13  0715    53748   26100      0    1.41e+00    0    9.83e-01
2006 01 13  0720    53748   26400      0    1.40e+00    0    9.88e-01
2006 01 13  0725    53748   26700      0    1.41e+00    0    9.86e-01
2006 01 13  0730    53748   27000      0    1.42e+00    0    9.97e-01
2006 01 13  0735    53748   27300      0    1.38e+00    0    9.82e-01
2006 01 13  0740    53748   27600      0    1.43e+00    0    1.01e+00
2006 01 13  0745    53748   27900      0    1.38e+00    0    9.76e-01
2006 01 13  0750    53748   28200      0    1.40e+00    0    9.78e-01
2006 01 13  0755    53748   28500      0    1.40e+00    0    9.79e-01
2006 01 13  0800    53748   28800      0    1.39e+00    0    9.82e-01
2006 01 13  0805    53748   29100      0    1.42e+00    0    9.94e-01
2006 01 13  0810    53748   29400      0    1.42e+00    0    9.93e-01
2006 01 13  0815    53748   29700      0    1.41e+00    0    9.97e-01
2006 01 13  0820    53748   30000      0    1.42e+00    0    9.97e-01
2006 01 13  0825    53748   30300      0    1.37e+00    0    9.60e-01
2006 01 13  0830    53748   30600      0    1.42e+00    0    9.96e-01
2006 01 13  0835    53748   30900      0    1.41e+00    0    9.92e-01
2006 01 13  0840    53748   31200      0    1.39e+00    0    9.73e-01
2006 01 13  0845    53748   31500      0    1.39e+00    0    9.67e-01
2006 01 13  0850    53748   31800      0    1.42e+00    0    9.97e-01
2006 01 13  0855    53748   32100      0    1.43e+00    0    9.95e-01
2006 01 13  0900    53748   32400      0    1.42e+00    0    9.96e-01
2006 01 13  0905    53748   32700      0    1.40e+00    0    9.78e-01
2006 01 13  0910    53748   33000      0    1.40e+00    0    9.79e-01
2006 01 13  0915    53748   33300      0    1.38e+00    0    9.66e-01
2006 01 13  0920    53748   33600      0    1.39e+00    0    9.72e-01
2006 01 13  0925    53748   33900      0    1.37e+00    0    9.74e-01
2006 01 13  0930    53748   34200      0    1.42e+00    0    1.01e+00
2006 01 13  0935    53748   34500      0    1.39e+00    0    9.77e-01
2006 01 13  0940    53748   34800      0    1.40e+00    0    9.83e-01
2006 01 13  0945    53748   35100      0    1.38e+00    0    9.72e-01
2006 01 13  0950    53748   35400      0    1.43e+00    0    1.00e+00
2006 01 13  0955    53748   35700      0    1.43e+00    0    1.00e+00
2006 01 13  1000    53748   36000      0    1.40e+00    0    9.98e-01
2006 01 13  1005    53748   36300      0    1.40e+00    0    9.84e-01
2006 01 13  1010    53748   36600      0    1.38e+00    0    9.68e-01
2006 01 13  1015    53748   36900      0    1.44e+00    0    1.01e+00
2006 01 13  1020    53748   37200      0    1.43e+00    0    1.01e+00
2006 01 13  1025    53748   37500      0    1.41e+00    0    9.98e-01
2006 01 13  1030    53748   37800      0    1.41e+00    0    9.85e-01
2006 01 13  1035    53748   38100      0    1.39e+00    0    9.84e-01
2006 01 13  1040    53748   38400      0    1.40e+00    0    9.85e-01
2006 01 13  1045    53748   38700      0    1.42e+00    0    1.00e+00
2006 01 13  1050    53748   39000      0    1.41e+00    0    9.90e-01
2006 01 13  1055    53748   39300      0    1.40e+00    0    9.95e-01
2006 01 13  1100    53748   39600      0    1.40e+00    0    1.00e+00
2006 01 13  1105    53748   39900      0    1.40e+00    0    9.79e-01
2006 01 13  1110    53748   40200      0    1.40e+00    0    9.77e-01
2006 01 13  1115    53748   40500      0    1.43e+00    0    1.02e+00
2006 01 13  1120    53748   40800      0    1.43e+00    0    9.99e-01
2006 01 13  1125    53748   41100      0    1.39e+00    0    9.83e-01
2006 01 13  1130    53748   41400      0    1.38e+00    0    9.69e-01
2006 01 13  1135    53748   41700      0    1.41e+00    0    9.95e-01
2006 01 13  1140    53748   42000      0    1.40e+00    0    9.83e-01
2006 01 13  1145    53748   42300      0    1.41e+00    0    9.93e-01
2006 01 13  1150    53748   42600      0    1.42e+00    0    1.00e+00
2006 01 13  1155    53748   42900      0    1.38e+00    0    9.87e-01
2006 01 13  1200    53748   43200      0    1.41e+00    0    9.99e-01
2006 01 13  1205    53748   43500      0    1.41e+00    0    9.90e-01
2006 01 13  1210    53748   43800      0    1.42e+00    0    9.94e-01
2006 01 13  1215    53748   44100      0    1.41e+00    0    9.79e-01
2006 01 13  1220    53748   44400      0    1.41e+00    0    9.88e-01
2006 01 13  1225    53748   44700      0    1.39e+00    0    9.86e-01
2006 01 13  1230    53748   45000      0    1.41e+00    0    9.82e-01
2006 01 13  1235    53748   45300      0    1.41e+00    0    9.91e-01
2006 01 13  1240    53748   45600      0    1.40e+00    0    9.85e-01
2006 01 13  1245    53748   45900      0    1.42e+00    0    1.01e+00
2006 01 13  1250    53748   46200      0    1.39e+00    0    9.86e-01
2006 01 13  1255    53748   46500      0    1.40e+00    0    9.74e-01
2006 01 13  1300    53748   46800      0    1.42e+00    0    9.84e-01
2006 01 13  1305    53748   47100      0    1.38e+00    0    9.67e-01
2006 01 13  1310    53748   47400      0    1.37e+00    0    9.71e-01
2006 01 13  1315    53748   47700      0    1.41e+00    0    9.86e-01
2006 01 13  1320    53748   48000      0    1.43e+00    0    1.01e+00
2006 01 13  1325    53748   48300      0    1.37e+00    0    9.71e-01
2006 01 13  1330    53748   48600      0    1.41e+00    0    9.90e-01
2006 01 13  1335    53748   48900      0    1.36e+00    0    9.57e-01
2006 01 13  1340    53748   49200      0    1.42e+00    0    1.01e+00
2006 01 13  1345    53748   49500      0    1.38e+00    0    9.70e-01
2006 01 13  1350    53748   49800      0    1.38e+00    0    9.65e-01
2006 01 13  1355    53748   50100      0    1.38e+00    0    9.66e-01
2006 01 13  1400    53748   50400      0    1.41e+00    0    9.94e-01
2006 01 13  1405    53748   50700      0    1.40e+00    0    9.86e-01
2006 01 13  1410    53748   51000      0    1.41e+00    0    1.00e+00
2006 01 13  1415    53748   51300      0    1.39e+00    0    9.72e-01
2006 01 13  1420    53748   51600      0    1.42e+00    0    1.01e+00
2006 01 13  1425    53748   51900      0    1.41e+00    0    1.00e+00
2006 01 13  1430    53748   52200      0    1.39e+00    0    9.69e-01
2006 01 13  1435    53748   52500      0    1.40e+00    0    9.94e-01
2006 01 13  1440    53748   52800      0    1.39e+00    0    9.76e-01
2006 01 13  1445    53748   53100      0    1.43e+00    0    1.01e+00
2006 01 13  1450    53748   53400      0    1.40e+00    0    9.72e-01
2006 01 13  1455    53748   53700      0    1.38e+00    0    9.71e-01
2006 01 13  1500    53748   54000      0    1.41e+00    0    9.93e-01
2006 01 13  1505    53748   54300      0    1.38e+00    0    9.59e-01
2006 01 13  1510    53748   54600      0    1.38e+00    0    9.62e-01
2006 01 13  1515    53748   54900      0    1.40e+00    0    9.81e-01
2006 01 13  1520    53748   55200      0    1.42e+00    0    1.01e+00
2006 01 13  1525    53748   55500      0    1.40e+00    0    9.83e-01
2006 01 13  1530    53748   55800      0    1.41e+00    0    1.00e+00
2006 01 13  1535    53748   56100      0    1.40e+00    0    9.88e-01
2006 01 13  1540    53748   56400      0    1.43e+00    0    1.01e+00
2006 01 13  1545    53748   56700      0    1.40e+00    0    9.81e-01
2006 01 13  1550    53748   57000      0    1.44e+00    0    1.01e+00
2006 01 13  1555    53748   57300      0    1.41e+00    0    9.83e-01
2006 01 13  1600    53748   57600      0    1.38e+00    0    9.72e-01
2006 01 13  1605    53748   57900      0    1.41e+00    0    9.80e-01
2006 01 13  1610    53748   58200      0    1.41e+00    0    9.86e-01
2006 01 13  1615    53748   58500      0    1.45e+00    0    1.02e+00
2006 01 13  1620    53748   58800      0    1.41e+00    0    1.01e+00
2006 01 13  1625    53748   59100      0    1.44e+00    0    1.02e+00
2006 01 13  1630    53748   59400      0    1.43e+00    0    1.01e+00
2006 01 13  1635    53748   59700      0    1.41e+00    0    9.97e-01
2006 01 13  1640    53748   60000      0    1.44e+00    0    1.01e+00
2006 01 13  1645    53748   60300      0    1.40e+00    0    9.84e-01
2006 01 13  1650    53748   60600      0    1.39e+00    0    9.77e-01
2006 01 13  1655    53748   60900      0    1.37e+00    0    9.57e-01
2006 01 13  1700    53748   61200      0    1.39e+00    0    9.64e-01
2006 01 13  1705    53748   61500      0    1.39e+00    0    9.82e-01
2006 01 13  1710    53748   61800      0    1.41e+00    0    9.95e-01
2006 01 13  1715    53748   62100      0    1.38e+00    0    9.70e-01
2006 01 13  1720    53748   62400      0    1.38e+00    0    9.72e-01
2006 01 13  1725    53748   62700      0    1.40e+00    0    9.84e-01
2006 01 13  1730    53748   63000      0    1.43e+00    0    1.01e+00
2006 01 13  1735    53748   63300      0    1.44e+00    0    1.02e+00
2006 01 13  1740    53748   63600      0    1.40e+00    0    9.88e-01
2006 01 13  1745    53748   63900      0    1.41e+00    0    9.96e-01
2006 01 13  1750    53748   64200      0    1.40e+00    0    9.80e-01
2006 01 13  1755    53748   64500      0    1.38e+00    0    9.62e-01
2006 01 13  1800    53748   64800      0    1.40e+00    0    9.82e-01
2006 01 13  1805    53748   65100      0    1.43e+00    0    1.01e+00
2006 01 13  1810    53748   65400      0    1.41e+00    0    9.87e-01
2006 01 13  1815    53748   65700      0    1.44e+00    0    1.01e+00
2006 01 13  1820    53748   66000      0    1.40e+00    0    9.87e-01
2006 01 13  1825    53748   66300      0    1.39e+00    0    9.79e-01
2006 01 13  1830    53748   66600      0    1.39e+00    0    9.76e-01
2006 01 13  1835    53748   66900      0    1.40e+00    0    9.79e-01
2006 01 13  1840    53748   67200      0    1.42e+00    0    1.00e+00
2006 01 13  1845    53748   67500      0    1.42e+00    0    1.00e+00
2006 01 13  1850    53748   67800      0    1.41e+00    0    9.90e-01
2006 01 13  1855    53748   68100      0    1.45e+00    0    1.02e+00
2006 01 13  1900    53748   68400      0    1.41e+00    0    9.98e-01
2006 01 13  1905    53748   68700      0    1.41e+00    0    9.98e-01
2006 01 13  1910    53748   69000      0    1.42e+00    0    9.87e-01
2006 01 13  1915    53748   69300      0    1.43e+00    0    1.00e+00
2006 01 13  1920    53748   69600      0    1.39e+00    0    9.94e-01
2006 01 13  1925    53748   69900      0    1.40e+00    0    9.85e-01
2006 01 13  1930    53748   70200      0    1.38e+00    0    9.76e-01
2006 01 13  1935    53748   70500      0    1.41e+00    0    9.93e-01
2006 01 13  1940    53748   70800      0    1.42e+00    0    1.00e+00
2006 01 13  1945    53748   71100      0    1.42e+00    0    1.00e+00
2006 01 13  1950    53748   71400      0    1.39e+00    0    9.76e-01
2006 01 13  1955    53748   71700      0    1.39e+00    0    9.84e-01
2006 01 13  2000    53748   72000      0    1.42e+00    0    9.92e-01
2006 01 13  2005    53748   72300      0    1.40e+00    0    9.80e-01
2006 01 13  2010    53748   72600      0    1.40e+00    0    9.79e-01
2006 01 13  2015    53748   72900      0    1.38e+00    0    9.74e-01
2006 01 13  2020    53748   73200      0    1.41e+00    0    9.94e-01
2006 01 13  2025    53748   73500      0    1.43e+00    0    9.96e-01
2006 01 13  2030    53748   73800      0    1.41e+00    0    9.97e-01
2006 01 13  2035    53748   74100      0    1.40e+00    0    9.78e-01
2006 01 13  2040    53748   74400      0    1.39e+00    0    9.90e-01
2006 01 13  2045    53748   74700      0    1.44e+00    0    1.00e+00
2006 01 13  2050    53748   75000      0    1.42e+00    0    1.00e+00
2006 01 13  2055    53748   75300      0    1.40e+00    0    9.71e-01
2006 01 13  2100    53748   75600      0    1.38e+00    0    9.73e-01
2006 01 13  2105    53748   75900      0    1.36e+00    0    9.54e-01
2006 01 13  2110    53748   76200      0    1.41e+00    0    9.88e-01
2006 01 13  2115    53748   76500      0    1.44e+00    0    1.00e+00
2006 01 13  2120    53748   76800      0    1.41e+00    0    9.86e-01
2006 01 13  2125    53748   77100      0    1.42e+00    0    9.97e-01
2006 01 13  2130    53748   77400      0    1.42e+00    0    9.99e-01
2006 01 13  2135    53748   77700      0    1.42e+00    0    1.00e+00
2006 01 13  2140    53748   78000      0    1.44e+00    0    1.01e+00
2006 01 13  2145    53748   78300      0    1.39e+00    0    9.82e-01
2006 01 13  2150    53748   78600      0    1.41e+00    0    9.95e-01
2006 01 13  2155    53748   78900      0    1.40e+00    0    9.83e-01
2006 01 13  2200    53748   79200      0    1.41e+00    0    1.00e+00
2006 01 13  2205    53748   79500      0    1.41e+00    0    9.87e-01
2006 01 13  2210    53748   79800      0    1.43e+00    0    1.00e+00
2006 01 13  2215    53748   80100      0    1.41e+00    0    9.80e-01
2006 01 13  2220    53748   80400      0    1.42e+00    0    1.00e+00
2006 01 13  2225    53748   80700      0    1.41e+00    0    9.87e-01
2006 01 13  2230    53748   81000      0    1.40e+00    0    9.82e-01
2006 01 13  2235    53748   81300      0    1.42e+00    0    9.96e-01
2006 01 13  2240    53748   81600      0    1.42e+00    0    1.01e+00
2006 01 13  2245    53748   81900      0    1.43e+00    0    9.96e-01
2006 01 13  2250    53748   82200      0    1.41e+00    0    9.92e-01
2006 01 13  2255    53748   82500      0    1.39e+00    0    9.72e-01
2006 01 13  2300    53748   82800      0    1.41e+00    0    9.91e-01
2006 01 13  2305    53748   83100      0    1.43e+00    0    1.00e+00
2006 01 13  2310    53748   83400      0    1.40e+00    0    9.82e-01
2006 01 13  2315    53748   83700      0    1.42e+00    0    1.01e+00
2006 01 13  2320    53748   84000      0    1.43e+00    0    1.01e+00
2006 01 13  2325    53748   84300      0    1.42e+00    0    1.00e+00
2006 01 13  2330    53748   84600      0    1.45e+00    0    1.02e+00
2006 01 13  2335    53748   84900      0    1.43e+00    0    1.01e+00
2006 01 13  2340    53748   85200      0    1.41e+00    0    9.89e-01
2006 01 13  2345    53748   85500      0    1.42e+00    0    9.88e-01
2006 01 13  2350    53748   85800      0    1.42e+00    0    1.00e+00
2006 01 13  2355    53748   86100      0    1.40e+00    0    9.88e-01
