:Data_list: 20060522_ace_sis_5m.txt
:Created: 2006 May 23 0011 UT
# Prepared by the U.S. Dept. of Commerce, NOAA, Space Environment Center.
# Please send comments and suggestions to SEC.Webmaster@noaa.gov 
# 
# Units: proton flux p/cs2-sec-ster
# Status(S): 0 = nominal data, 1 to 8 = bad data record, 9 = no data
# Missing data values: -1.00e+05
# Source: ACE Satellite - Solar Isotope Spectrometer
#
# 5-minute averaged Real-time Integral Flux of High-energy Solar Protons
# 
#                 Modified Seconds
# UT Date   Time   Julian  of the      ---- Integral Proton Flux ----
# YR MO DA  HHMM     Day     Day       S    > 10 MeV    S    > 30 MeV
#--------------------------------------------------------------------
2006 05 22  0000    53877       0      0    1.59e+00    0    1.11e+00
2006 05 22  0005    53877     300      0    1.61e+00    0    1.13e+00
2006 05 22  0010    53877     600      0    1.61e+00    0    1.13e+00
2006 05 22  0015    53877     900      0    1.63e+00    0    1.14e+00
2006 05 22  0020    53877    1200      0    1.65e+00    0    1.14e+00
2006 05 22  0025    53877    1500      0    1.62e+00    0    1.13e+00
2006 05 22  0030    53877    1800      0    1.55e+00    0    1.10e+00
2006 05 22  0035    53877    2100      0    1.61e+00    0    1.12e+00
2006 05 22  0040    53877    2400      0    1.59e+00    0    1.11e+00
2006 05 22  0045    53877    2700      0    1.60e+00    0    1.13e+00
2006 05 22  0050    53877    3000      0    1.63e+00    0    1.14e+00
2006 05 22  0055    53877    3300      0    1.56e+00    0    1.08e+00
2006 05 22  0100    53877    3600      0    1.57e+00    0    1.09e+00
2006 05 22  0105    53877    3900      0    1.61e+00    0    1.13e+00
2006 05 22  0110    53877    4200      0    1.58e+00    0    1.11e+00
2006 05 22  0115    53877    4500      0    1.58e+00    0    1.11e+00
2006 05 22  0120    53877    4800      0    1.61e+00    0    1.13e+00
2006 05 22  0125    53877    5100      0    1.57e+00    0    1.10e+00
2006 05 22  0130    53877    5400      0    1.57e+00    0    1.10e+00
2006 05 22  0135    53877    5700      0    1.58e+00    0    1.11e+00
2006 05 22  0140    53877    6000      0    1.64e+00    0    1.14e+00
2006 05 22  0145    53877    6300      0    1.56e+00    0    1.08e+00
2006 05 22  0150    53877    6600      0    1.61e+00    0    1.13e+00
2006 05 22  0155    53877    6900      0    1.58e+00    0    1.11e+00
2006 05 22  0200    53877    7200      0    1.57e+00    0    1.08e+00
2006 05 22  0205    53877    7500      0    1.59e+00    0    1.12e+00
2006 05 22  0210    53877    7800      0    1.59e+00    0    1.11e+00
2006 05 22  0215    53877    8100      0    1.62e+00    0    1.14e+00
2006 05 22  0220    53877    8400      0    1.58e+00    0    1.11e+00
2006 05 22  0225    53877    8700      0    1.58e+00    0    1.10e+00
2006 05 22  0230    53877    9000      0    1.56e+00    0    1.09e+00
2006 05 22  0235    53877    9300      0    1.59e+00    0    1.13e+00
2006 05 22  0240    53877    9600      0    1.58e+00    0    1.11e+00
2006 05 22  0245    53877    9900      0    1.61e+00    0    1.12e+00
2006 05 22  0250    53877   10200      0    1.59e+00    0    1.12e+00
2006 05 22  0255    53877   10500      0    1.58e+00    0    1.12e+00
2006 05 22  0300    53877   10800      0    1.57e+00    0    1.11e+00
2006 05 22  0305    53877   11100      0    1.62e+00    0    1.14e+00
2006 05 22  0310    53877   11400      0    1.60e+00    0    1.13e+00
2006 05 22  0315    53877   11700      0    1.59e+00    0    1.12e+00
2006 05 22  0320    53877   12000      0    1.58e+00    0    1.11e+00
2006 05 22  0325    53877   12300      0    1.51e+00    0    1.04e+00
2006 05 22  0330    53877   12600      0    1.58e+00    0    1.11e+00
2006 05 22  0335    53877   12900      0    1.59e+00    0    1.12e+00
2006 05 22  0340    53877   13200      0    1.59e+00    0    1.12e+00
2006 05 22  0345    53877   13500      0    1.60e+00    0    1.13e+00
2006 05 22  0350    53877   13800      0    1.60e+00    0    1.13e+00
2006 05 22  0355    53877   14100      0    1.59e+00    0    1.12e+00
2006 05 22  0400    53877   14400      0    1.57e+00    0    1.09e+00
2006 05 22  0405    53877   14700      0    1.58e+00    0    1.10e+00
2006 05 22  0410    53877   15000      0    1.57e+00    0    1.09e+00
2006 05 22  0415    53877   15300      0    1.63e+00    0    1.14e+00
2006 05 22  0420    53877   15600      0    1.61e+00    0    1.13e+00
2006 05 22  0425    53877   15900      0    1.59e+00    0    1.11e+00
2006 05 22  0430    53877   16200      0    1.60e+00    0    1.13e+00
2006 05 22  0435    53877   16500      0    1.59e+00    0    1.13e+00
2006 05 22  0440    53877   16800      0    1.59e+00    0    1.11e+00
2006 05 22  0445    53877   17100      0    1.60e+00    0    1.12e+00
2006 05 22  0450    53877   17400      0    1.51e+00    0    1.06e+00
2006 05 22  0455    53877   17700      0    1.59e+00    0    1.13e+00
2006 05 22  0500    53877   18000      0    1.58e+00    0    1.11e+00
2006 05 22  0505    53877   18300      0    1.60e+00    0    1.12e+00
2006 05 22  0510    53877   18600      0    1.64e+00    0    1.16e+00
2006 05 22  0515    53877   18900      0    1.61e+00    0    1.11e+00
2006 05 22  0520    53877   19200      0    1.58e+00    0    1.11e+00
2006 05 22  0525    53877   19500      0    1.57e+00    0    1.08e+00
2006 05 22  0530    53877   19800      0    1.58e+00    0    1.12e+00
2006 05 22  0535    53877   20100      0    1.58e+00    0    1.11e+00
2006 05 22  0540    53877   20400      0    1.60e+00    0    1.12e+00
2006 05 22  0545    53877   20700      0    1.60e+00    0    1.13e+00
2006 05 22  0550    53877   21000      0    1.62e+00    0    1.14e+00
2006 05 22  0555    53877   21300      0    1.61e+00    0    1.14e+00
2006 05 22  0600    53877   21600      0    1.59e+00    0    1.12e+00
2006 05 22  0605    53877   21900      0    1.62e+00    0    1.14e+00
2006 05 22  0610    53877   22200      0    1.59e+00    0    1.11e+00
2006 05 22  0615    53877   22500      0    1.59e+00    0    1.11e+00
2006 05 22  0620    53877   22800      0    1.58e+00    0    1.10e+00
2006 05 22  0625    53877   23100      0    1.61e+00    0    1.13e+00
2006 05 22  0630    53877   23400      0    1.59e+00    0    1.11e+00
2006 05 22  0635    53877   23700      0    1.62e+00    0    1.14e+00
2006 05 22  0640    53877   24000      0    1.60e+00    0    1.13e+00
2006 05 22  0645    53877   24300      0    1.61e+00    0    1.12e+00
2006 05 22  0650    53877   24600      0    1.59e+00    0    1.12e+00
2006 05 22  0655    53877   24900      0    1.58e+00    0    1.11e+00
2006 05 22  0700    53877   25200      0    1.58e+00    0    1.10e+00
2006 05 22  0705    53877   25500      0    1.61e+00    0    1.14e+00
2006 05 22  0710    53877   25800      0    1.65e+00    0    1.16e+00
2006 05 22  0715    53877   26100      0    1.57e+00    0    1.10e+00
2006 05 22  0720    53877   26400      0    1.57e+00    0    1.09e+00
2006 05 22  0725    53877   26700      0    1.62e+00    0    1.14e+00
2006 05 22  0730    53877   27000      0    1.56e+00    0    1.09e+00
2006 05 22  0735    53877   27300      0    1.59e+00    0    1.12e+00
2006 05 22  0740    53877   27600      0    1.60e+00    0    1.12e+00
2006 05 22  0745    53877   27900      0    1.58e+00    0    1.11e+00
2006 05 22  0750    53877   28200      0    1.60e+00    0    1.13e+00
2006 05 22  0755    53877   28500      0    1.61e+00    0    1.13e+00
2006 05 22  0800    53877   28800      0    1.60e+00    0    1.12e+00
2006 05 22  0805    53877   29100      0    1.58e+00    0    1.10e+00
2006 05 22  0810    53877   29400      0    1.57e+00    0    1.11e+00
2006 05 22  0815    53877   29700      0    1.57e+00    0    1.11e+00
2006 05 22  0820    53877   30000      0    1.56e+00    0    1.09e+00
2006 05 22  0825    53877   30300      0    1.60e+00    0    1.13e+00
2006 05 22  0830    53877   30600      0    1.62e+00    0    1.13e+00
2006 05 22  0835    53877   30900      0    1.58e+00    0    1.10e+00
2006 05 22  0840    53877   31200      0    1.57e+00    0    1.10e+00
2006 05 22  0845    53877   31500      0    1.61e+00    0    1.12e+00
2006 05 22  0850    53877   31800      0    1.59e+00    0    1.12e+00
2006 05 22  0855    53877   32100      0    1.56e+00    0    1.09e+00
2006 05 22  0900    53877   32400      0    1.56e+00    0    1.10e+00
2006 05 22  0905    53877   32700      0    1.58e+00    0    1.11e+00
2006 05 22  0910    53877   33000      0    1.57e+00    0    1.09e+00
2006 05 22  0915    53877   33300      0    1.58e+00    0    1.11e+00
2006 05 22  0920    53877   33600      0    1.57e+00    0    1.11e+00
2006 05 22  0925    53877   33900      0    1.61e+00    0    1.12e+00
2006 05 22  0930    53877   34200      0    1.58e+00    0    1.10e+00
2006 05 22  0935    53877   34500      0    1.61e+00    0    1.13e+00
2006 05 22  0940    53877   34800      0    1.58e+00    0    1.12e+00
2006 05 22  0945    53877   35100      0    1.62e+00    0    1.12e+00
2006 05 22  0950    53877   35400      0    1.60e+00    0    1.12e+00
2006 05 22  0955    53877   35700      0    1.60e+00    0    1.12e+00
2006 05 22  1000    53877   36000      0    1.60e+00    0    1.11e+00
2006 05 22  1005    53877   36300      0    1.57e+00    0    1.10e+00
2006 05 22  1010    53877   36600      0    1.59e+00    0    1.11e+00
2006 05 22  1015    53877   36900      0    1.61e+00    0    1.12e+00
2006 05 22  1020    53877   37200      0    1.58e+00    0    1.11e+00
2006 05 22  1025    53877   37500      0    1.58e+00    0    1.11e+00
2006 05 22  1030    53877   37800      0    1.57e+00    0    1.11e+00
2006 05 22  1035    53877   38100      0    1.58e+00    0    1.11e+00
2006 05 22  1040    53877   38400      0    1.63e+00    0    1.13e+00
2006 05 22  1045    53877   38700      0    1.57e+00    0    1.10e+00
2006 05 22  1050    53877   39000      0    1.57e+00    0    1.09e+00
2006 05 22  1055    53877   39300      0    1.57e+00    0    1.11e+00
2006 05 22  1100    53877   39600      0    1.63e+00    0    1.14e+00
2006 05 22  1105    53877   39900      0    1.58e+00    0    1.11e+00
2006 05 22  1110    53877   40200      0    1.61e+00    0    1.13e+00
2006 05 22  1115    53877   40500      0    1.57e+00    0    1.10e+00
2006 05 22  1120    53877   40800      0    1.58e+00    0    1.11e+00
2006 05 22  1125    53877   41100      0    1.57e+00    0    1.11e+00
2006 05 22  1130    53877   41400      0    1.58e+00    0    1.11e+00
2006 05 22  1135    53877   41700      0    1.56e+00    0    1.08e+00
2006 05 22  1140    53877   42000      0    1.59e+00    0    1.11e+00
2006 05 22  1145    53877   42300      0    1.58e+00    0    1.11e+00
2006 05 22  1150    53877   42600      0    1.57e+00    0    1.11e+00
2006 05 22  1155    53877   42900      0    1.55e+00    0    1.09e+00
2006 05 22  1200    53877   43200      0    1.56e+00    0    1.09e+00
2006 05 22  1205    53877   43500      0    1.59e+00    0    1.11e+00
2006 05 22  1210    53877   43800      0    1.56e+00    0    1.10e+00
2006 05 22  1215    53877   44100      0    1.58e+00    0    1.10e+00
2006 05 22  1220    53877   44400      0    1.59e+00    0    1.12e+00
2006 05 22  1225    53877   44700      0    1.58e+00    0    1.10e+00
2006 05 22  1230    53877   45000      0    1.55e+00    0    1.09e+00
2006 05 22  1235    53877   45300      0    1.58e+00    0    1.11e+00
2006 05 22  1240    53877   45600      0    1.59e+00    0    1.12e+00
2006 05 22  1245    53877   45900      0    1.57e+00    0    1.10e+00
2006 05 22  1250    53877   46200      0    1.57e+00    0    1.10e+00
2006 05 22  1255    53877   46500      0    1.60e+00    0    1.12e+00
2006 05 22  1300    53877   46800      0    1.54e+00    0    1.08e+00
2006 05 22  1305    53877   47100      0    1.56e+00    0    1.11e+00
2006 05 22  1310    53877   47400      0    1.56e+00    0    1.10e+00
2006 05 22  1315    53877   47700      0    1.60e+00    0    1.12e+00
2006 05 22  1320    53877   48000      0    1.57e+00    0    1.10e+00
2006 05 22  1325    53877   48300      0    1.60e+00    0    1.13e+00
2006 05 22  1330    53877   48600      0    1.57e+00    0    1.10e+00
2006 05 22  1335    53877   48900      0    1.60e+00    0    1.12e+00
2006 05 22  1340    53877   49200      0    1.59e+00    0    1.09e+00
2006 05 22  1345    53877   49500      0    1.56e+00    0    1.09e+00
2006 05 22  1350    53877   49800      0    1.59e+00    0    1.12e+00
2006 05 22  1355    53877   50100      0    1.58e+00    0    1.09e+00
2006 05 22  1400    53877   50400      0    1.55e+00    0    1.09e+00
2006 05 22  1405    53877   50700      0    1.58e+00    0    1.12e+00
2006 05 22  1410    53877   51000      0    1.58e+00    0    1.11e+00
2006 05 22  1415    53877   51300      0    1.54e+00    0    1.08e+00
2006 05 22  1420    53877   51600      0    1.59e+00    0    1.12e+00
2006 05 22  1425    53877   51900      0    1.56e+00    0    1.09e+00
2006 05 22  1430    53877   52200      0    1.54e+00    0    1.06e+00
2006 05 22  1435    53877   52500      0    1.54e+00    0    1.09e+00
2006 05 22  1440    53877   52800      0    1.54e+00    0    1.07e+00
2006 05 22  1445    53877   53100      0    1.54e+00    0    1.07e+00
2006 05 22  1450    53877   53400      0    1.58e+00    0    1.10e+00
2006 05 22  1455    53877   53700      0    1.58e+00    0    1.11e+00
2006 05 22  1500    53877   54000      0    1.55e+00    0    1.09e+00
2006 05 22  1505    53877   54300      0    1.54e+00    0    1.09e+00
2006 05 22  1510    53877   54600      0    1.59e+00    0    1.13e+00
2006 05 22  1515    53877   54900      0    1.57e+00    0    1.10e+00
2006 05 22  1520    53877   55200      0    1.56e+00    0    1.09e+00
2006 05 22  1525    53877   55500      0    1.56e+00    0    1.10e+00
2006 05 22  1530    53877   55800      0    1.58e+00    0    1.10e+00
2006 05 22  1535    53877   56100      0    1.58e+00    0    1.09e+00
2006 05 22  1540    53877   56400      0    1.54e+00    0    1.08e+00
2006 05 22  1545    53877   56700      0    1.53e+00    0    1.07e+00
2006 05 22  1550    53877   57000      0    1.54e+00    0    1.08e+00
2006 05 22  1555    53877   57300      0    1.59e+00    0    1.11e+00
2006 05 22  1600    53877   57600      0    1.58e+00    0    1.11e+00
2006 05 22  1605    53877   57900      0    1.56e+00    0    1.09e+00
2006 05 22  1610    53877   58200      0    1.58e+00    0    1.10e+00
2006 05 22  1615    53877   58500      0    1.50e+00    0    1.06e+00
2006 05 22  1620    53877   58800      0    1.54e+00    0    1.07e+00
2006 05 22  1625    53877   59100      0    1.58e+00    0    1.09e+00
2006 05 22  1630    53877   59400      0    1.60e+00    0    1.13e+00
2006 05 22  1635    53877   59700      0    1.57e+00    0    1.10e+00
2006 05 22  1640    53877   60000      0    1.56e+00    0    1.09e+00
2006 05 22  1645    53877   60300      0    1.56e+00    0    1.09e+00
2006 05 22  1650    53877   60600      0    1.53e+00    0    1.09e+00
2006 05 22  1655    53877   60900      0    1.43e+00    0    9.05e-01
2006 05 22  1700    53877   61200      0    1.47e+00    0    1.03e+00
2006 05 22  1705    53877   61500      0    1.57e+00    0    1.09e+00
2006 05 22  1710    53877   61800      0    1.57e+00    0    1.11e+00
2006 05 22  1715    53877   62100      0    3.85e+01    0    6.70e+00
2006 05 22  1720    53877   62400      0    1.58e+00    0    1.11e+00
2006 05 22  1725    53877   62700      0    1.59e+00    0    1.10e+00
2006 05 22  1730    53877   63000      0    1.53e+00    0    1.07e+00
2006 05 22  1735    53877   63300      0    1.57e+00    0    1.09e+00
2006 05 22  1740    53877   63600      0    1.55e+00    0    1.08e+00
2006 05 22  1745    53877   63900      0    1.59e+00    0    1.11e+00
2006 05 22  1750    53877   64200      0    1.60e+00    0    1.13e+00
2006 05 22  1755    53877   64500      0    1.57e+00    0    1.10e+00
2006 05 22  1800    53877   64800      0    1.56e+00    0    1.10e+00
2006 05 22  1805    53877   65100      0    1.53e+00    0    1.07e+00
2006 05 22  1810    53877   65400      0    1.57e+00    0    1.11e+00
2006 05 22  1815    53877   65700      0    1.55e+00    0    1.08e+00
2006 05 22  1820    53877   66000      0    1.58e+00    0    1.11e+00
2006 05 22  1825    53877   66300      0    1.54e+00    0    1.09e+00
2006 05 22  1830    53877   66600      0    1.57e+00    0    1.10e+00
2006 05 22  1835    53877   66900      0    1.56e+00    0    1.10e+00
2006 05 22  1840    53877   67200      0    1.55e+00    0    1.08e+00
2006 05 22  1845    53877   67500      0    1.58e+00    0    1.10e+00
2006 05 22  1850    53877   67800      0    1.56e+00    0    1.09e+00
2006 05 22  1855    53877   68100      0    1.57e+00    0    1.11e+00
2006 05 22  1900    53877   68400      0    1.56e+00    0    1.09e+00
2006 05 22  1905    53877   68700      0    1.58e+00    0    1.09e+00
2006 05 22  1910    53877   69000      0    1.55e+00    0    1.08e+00
2006 05 22  1915    53877   69300      0    1.58e+00    0    1.10e+00
2006 05 22  1920    53877   69600      0    1.59e+00    0    1.12e+00
2006 05 22  1925    53877   69900      0    1.57e+00    0    1.10e+00
2006 05 22  1930    53877   70200      0    1.54e+00    0    1.08e+00
2006 05 22  1935    53877   70500      0    1.58e+00    0    1.11e+00
2006 05 22  1940    53877   70800      0    1.58e+00    0    1.11e+00
2006 05 22  1945    53877   71100      0    1.58e+00    0    1.10e+00
2006 05 22  1950    53877   71400      0    1.58e+00    0    1.10e+00
2006 05 22  1955    53877   71700      0    1.55e+00    0    1.07e+00
2006 05 22  2000    53877   72000      0    1.57e+00    0    1.11e+00
2006 05 22  2005    53877   72300      0    1.59e+00    0    1.10e+00
2006 05 22  2010    53877   72600      0    1.59e+00    0    1.11e+00
2006 05 22  2015    53877   72900      0    1.57e+00    0    1.10e+00
2006 05 22  2020    53877   73200      0    1.55e+00    0    1.09e+00
2006 05 22  2025    53877   73500      0    1.58e+00    0    1.11e+00
2006 05 22  2030    53877   73800      0    1.57e+00    0    1.10e+00
2006 05 22  2035    53877   74100      0    1.56e+00    0    1.08e+00
2006 05 22  2040    53877   74400      0    1.59e+00    0    1.12e+00
2006 05 22  2045    53877   74700      0    1.62e+00    0    1.14e+00
2006 05 22  2050    53877   75000      0    1.58e+00    0    1.11e+00
2006 05 22  2055    53877   75300      0    1.56e+00    0    1.10e+00
2006 05 22  2100    53877   75600      0    1.57e+00    0    1.10e+00
2006 05 22  2105    53877   75900      0    1.54e+00    0    1.07e+00
2006 05 22  2110    53877   76200      0    1.55e+00    0    1.09e+00
2006 05 22  2115    53877   76500      0    1.54e+00    0    1.08e+00
2006 05 22  2120    53877   76800      0    1.58e+00    0    1.10e+00
2006 05 22  2125    53877   77100      0    1.59e+00    0    1.13e+00
2006 05 22  2130    53877   77400      0    1.57e+00    0    1.11e+00
2006 05 22  2135    53877   77700      0    1.60e+00    0    1.13e+00
2006 05 22  2140    53877   78000      0    1.56e+00    0    1.09e+00
2006 05 22  2145    53877   78300      0    1.56e+00    0    1.10e+00
2006 05 22  2150    53877   78600      0    1.53e+00    0    1.08e+00
2006 05 22  2155    53877   78900      0    1.57e+00    0    1.10e+00
2006 05 22  2200    53877   79200      0    1.56e+00    0    1.09e+00
2006 05 22  2205    53877   79500      0    1.56e+00    0    1.09e+00
2006 05 22  2210    53877   79800      0    1.55e+00    0    1.08e+00
2006 05 22  2215    53877   80100      0    1.54e+00    0    1.09e+00
2006 05 22  2220    53877   80400      0    1.56e+00    0    1.09e+00
2006 05 22  2225    53877   80700      0    1.57e+00    0    1.11e+00
2006 05 22  2230    53877   81000      0    1.58e+00    0    1.11e+00
2006 05 22  2235    53877   81300      0    1.58e+00    0    1.11e+00
2006 05 22  2240    53877   81600      0    1.59e+00    0    1.11e+00
2006 05 22  2245    53877   81900      0    1.59e+00    0    1.13e+00
2006 05 22  2250    53877   82200      0    1.57e+00    0    1.11e+00
2006 05 22  2255    53877   82500      0    1.59e+00    0    1.10e+00
2006 05 22  2300    53877   82800      0    1.58e+00    0    1.11e+00
2006 05 22  2305    53877   83100      0    1.56e+00    0    1.10e+00
2006 05 22  2310    53877   83400      0    1.57e+00    0    1.11e+00
2006 05 22  2315    53877   83700      0    1.56e+00    0    1.10e+00
2006 05 22  2320    53877   84000      0    1.57e+00    0    1.11e+00
2006 05 22  2325    53877   84300      0    1.54e+00    0    1.08e+00
2006 05 22  2330    53877   84600      0    1.57e+00    0    1.10e+00
2006 05 22  2335    53877   84900      0    1.58e+00    0    1.10e+00
2006 05 22  2340    53877   85200      0    1.59e+00    0    1.11e+00
2006 05 22  2345    53877   85500      0    1.55e+00    0    1.08e+00
2006 05 22  2350    53877   85800      0    1.57e+00    0    1.10e+00
2006 05 22  2355    53877   86100      0    1.54e+00    0    1.07e+00
