:Data_list: 20060314_ace_sis_5m.txt
:Created: 2006 Mar 15 0011 UT
# Prepared by the U.S. Dept. of Commerce, NOAA, Space Environment Center.
# Please send comments and suggestions to SEC.Webmaster@noaa.gov 
# 
# Units: proton flux p/cs2-sec-ster
# Status(S): 0 = nominal data, 1 to 8 = bad data record, 9 = no data
# Missing data values: -1.00e+05
# Source: ACE Satellite - Solar Isotope Spectrometer
#
# 5-minute averaged Real-time Integral Flux of High-energy Solar Protons
# 
#                 Modified Seconds
# UT Date   Time   Julian  of the      ---- Integral Proton Flux ----
# YR MO DA  HHMM     Day     Day       S    > 10 MeV    S    > 30 MeV
#--------------------------------------------------------------------
2006 03 14  0000    53808       0      0    1.54e+00    0    1.08e+00
2006 03 14  0005    53808     300      0    1.58e+00    0    1.13e+00
2006 03 14  0010    53808     600      0    1.55e+00    0    1.09e+00
2006 03 14  0015    53808     900      0    1.53e+00    0    1.08e+00
2006 03 14  0020    53808    1200      0    1.57e+00    0    1.09e+00
2006 03 14  0025    53808    1500      0    1.55e+00    0    1.09e+00
2006 03 14  0030    53808    1800      0    1.52e+00    0    1.07e+00
2006 03 14  0035    53808    2100      0    1.56e+00    0    1.10e+00
2006 03 14  0040    53808    2400      0    1.56e+00    0    1.09e+00
2006 03 14  0045    53808    2700      0    1.52e+00    0    1.06e+00
2006 03 14  0050    53808    3000      0    1.54e+00    0    1.08e+00
2006 03 14  0055    53808    3300      0    1.57e+00    0    1.10e+00
2006 03 14  0100    53808    3600      0    1.54e+00    0    1.09e+00
2006 03 14  0105    53808    3900      0    1.52e+00    0    1.06e+00
2006 03 14  0110    53808    4200      0    1.55e+00    0    1.08e+00
2006 03 14  0115    53808    4500      0    1.54e+00    0    1.08e+00
2006 03 14  0120    53808    4800      0    1.55e+00    0    1.08e+00
2006 03 14  0125    53808    5100      0    1.59e+00    0    1.11e+00
2006 03 14  0130    53808    5400      0    1.55e+00    0    1.08e+00
2006 03 14  0135    53808    5700      0    1.56e+00    0    1.11e+00
2006 03 14  0140    53808    6000      0    1.54e+00    0    1.08e+00
2006 03 14  0145    53808    6300      0    1.56e+00    0    1.09e+00
2006 03 14  0150    53808    6600      0    1.57e+00    0    1.10e+00
2006 03 14  0155    53808    6900      0    1.58e+00    0    1.10e+00
2006 03 14  0200    53808    7200      0    1.53e+00    0    1.07e+00
2006 03 14  0205    53808    7500      0    1.56e+00    0    1.08e+00
2006 03 14  0210    53808    7800      0    1.56e+00    0    1.09e+00
2006 03 14  0215    53808    8100      0    1.58e+00    0    1.11e+00
2006 03 14  0220    53808    8400      0    1.54e+00    0    1.08e+00
2006 03 14  0225    53808    8700      0    1.56e+00    0    1.10e+00
2006 03 14  0230    53808    9000      0    1.56e+00    0    1.09e+00
2006 03 14  0235    53808    9300      0    1.59e+00    0    1.12e+00
2006 03 14  0240    53808    9600      0    1.55e+00    0    1.08e+00
2006 03 14  0245    53808    9900      0    1.56e+00    0    1.09e+00
2006 03 14  0250    53808   10200      0    1.56e+00    0    1.09e+00
2006 03 14  0255    53808   10500      0    1.58e+00    0    1.11e+00
2006 03 14  0300    53808   10800      0    1.55e+00    0    1.08e+00
2006 03 14  0305    53808   11100      0    1.55e+00    0    1.08e+00
2006 03 14  0310    53808   11400      0    1.55e+00    0    1.09e+00
2006 03 14  0315    53808   11700      0    1.56e+00    0    1.10e+00
2006 03 14  0320    53808   12000      0    1.52e+00    0    1.06e+00
2006 03 14  0325    53808   12300      0    1.55e+00    0    1.09e+00
2006 03 14  0330    53808   12600      0    1.58e+00    0    1.10e+00
2006 03 14  0335    53808   12900      0    1.53e+00    0    1.08e+00
2006 03 14  0340    53808   13200      0    1.55e+00    0    1.09e+00
2006 03 14  0345    53808   13500      0    1.56e+00    0    1.10e+00
2006 03 14  0350    53808   13800      0    1.54e+00    0    1.07e+00
2006 03 14  0355    53808   14100      0    1.57e+00    0    1.11e+00
2006 03 14  0400    53808   14400      0    1.57e+00    0    1.12e+00
2006 03 14  0405    53808   14700      0    1.57e+00    0    1.11e+00
2006 03 14  0410    53808   15000      0    1.57e+00    0    1.09e+00
2006 03 14  0415    53808   15300      0    1.57e+00    0    1.10e+00
2006 03 14  0420    53808   15600      0    1.56e+00    0    1.09e+00
2006 03 14  0425    53808   15900      0    1.56e+00    0    1.09e+00
2006 03 14  0430    53808   16200      0    1.52e+00    0    1.07e+00
2006 03 14  0435    53808   16500      0    1.53e+00    0    1.07e+00
2006 03 14  0440    53808   16800      0    1.56e+00    0    1.09e+00
2006 03 14  0445    53808   17100      0    1.54e+00    0    1.07e+00
2006 03 14  0450    53808   17400      0    1.54e+00    0    1.09e+00
2006 03 14  0455    53808   17700      0    1.53e+00    0    1.08e+00
2006 03 14  0500    53808   18000      0    1.54e+00    0    1.09e+00
2006 03 14  0505    53808   18300      0    1.56e+00    0    1.08e+00
2006 03 14  0510    53808   18600      0    1.54e+00    0    1.08e+00
2006 03 14  0515    53808   18900      0    1.53e+00    0    1.08e+00
2006 03 14  0520    53808   19200      0    1.55e+00    0    1.10e+00
2006 03 14  0525    53808   19500      0    1.53e+00    0    1.08e+00
2006 03 14  0530    53808   19800      0    1.54e+00    0    1.09e+00
2006 03 14  0535    53808   20100      0    1.55e+00    0    1.10e+00
2006 03 14  0540    53808   20400      0    1.57e+00    0    1.10e+00
2006 03 14  0545    53808   20700      0    1.57e+00    0    1.11e+00
2006 03 14  0550    53808   21000      0    1.57e+00    0    1.09e+00
2006 03 14  0555    53808   21300      0    1.56e+00    0    1.09e+00
2006 03 14  0600    53808   21600      0    1.59e+00    0    1.12e+00
2006 03 14  0605    53808   21900      0    1.60e+00    0    1.12e+00
2006 03 14  0610    53808   22200      0    1.54e+00    0    1.07e+00
2006 03 14  0615    53808   22500      0    1.56e+00    0    1.10e+00
2006 03 14  0620    53808   22800      0    1.55e+00    0    1.08e+00
2006 03 14  0625    53808   23100      0    1.57e+00    0    1.10e+00
2006 03 14  0630    53808   23400      0    1.52e+00    0    1.06e+00
2006 03 14  0635    53808   23700      0    1.54e+00    0    1.07e+00
2006 03 14  0640    53808   24000      0    1.54e+00    0    1.07e+00
2006 03 14  0645    53808   24300      0    1.53e+00    0    1.08e+00
2006 03 14  0650    53808   24600      0    1.53e+00    0    1.07e+00
2006 03 14  0655    53808   24900      0    1.55e+00    0    1.09e+00
2006 03 14  0700    53808   25200      0    1.56e+00    0    1.09e+00
2006 03 14  0705    53808   25500      0    1.57e+00    0    1.12e+00
2006 03 14  0710    53808   25800      0    1.57e+00    0    1.10e+00
2006 03 14  0715    53808   26100      0    1.56e+00    0    1.08e+00
2006 03 14  0720    53808   26400      0    1.56e+00    0    1.09e+00
2006 03 14  0725    53808   26700      0    1.52e+00    0    1.07e+00
2006 03 14  0730    53808   27000      0    1.51e+00    0    1.05e+00
2006 03 14  0735    53808   27300      0    1.58e+00    0    1.11e+00
2006 03 14  0740    53808   27600      0    1.59e+00    0    1.13e+00
2006 03 14  0745    53808   27900      0    1.58e+00    0    1.11e+00
2006 03 14  0750    53808   28200      0    1.52e+00    0    1.06e+00
2006 03 14  0755    53808   28500      0    1.53e+00    0    1.08e+00
2006 03 14  0800    53808   28800      0    1.54e+00    0    1.08e+00
2006 03 14  0805    53808   29100      0    1.59e+00    0    1.12e+00
2006 03 14  0810    53808   29400      0    1.54e+00    0    1.09e+00
2006 03 14  0815    53808   29700      0    1.54e+00    0    1.07e+00
2006 03 14  0820    53808   30000      0    1.55e+00    0    1.08e+00
2006 03 14  0825    53808   30300      0    1.52e+00    0    1.06e+00
2006 03 14  0830    53808   30600      0    1.55e+00    0    1.08e+00
2006 03 14  0835    53808   30900      0    1.54e+00    0    1.07e+00
2006 03 14  0840    53808   31200      0    1.56e+00    0    1.09e+00
2006 03 14  0845    53808   31500      0    1.55e+00    0    1.08e+00
2006 03 14  0850    53808   31800      0    1.57e+00    0    1.10e+00
2006 03 14  0855    53808   32100      0    1.57e+00    0    1.10e+00
2006 03 14  0900    53808   32400      0    1.55e+00    0    1.09e+00
2006 03 14  0905    53808   32700      0    1.56e+00    0    1.09e+00
2006 03 14  0910    53808   33000      0    1.53e+00    0    1.06e+00
2006 03 14  0915    53808   33300      0    1.51e+00    0    1.07e+00
2006 03 14  0920    53808   33600      0    1.55e+00    0    1.08e+00
2006 03 14  0925    53808   33900      0    1.55e+00    0    1.09e+00
2006 03 14  0930    53808   34200      0    1.54e+00    0    1.09e+00
2006 03 14  0935    53808   34500      0    1.51e+00    0    1.06e+00
2006 03 14  0940    53808   34800      0    1.52e+00    0    1.06e+00
2006 03 14  0945    53808   35100      0    1.54e+00    0    1.08e+00
2006 03 14  0950    53808   35400      0    1.52e+00    0    1.07e+00
2006 03 14  0955    53808   35700      0    1.53e+00    0    1.07e+00
2006 03 14  1000    53808   36000      0    1.51e+00    0    1.06e+00
2006 03 14  1005    53808   36300      0    1.52e+00    0    1.07e+00
2006 03 14  1010    53808   36600      0    1.53e+00    0    1.07e+00
2006 03 14  1015    53808   36900      0    1.53e+00    0    1.08e+00
2006 03 14  1020    53808   37200      0    1.53e+00    0    1.08e+00
2006 03 14  1025    53808   37500      0    1.52e+00    0    1.07e+00
2006 03 14  1030    53808   37800      0    1.53e+00    0    1.08e+00
2006 03 14  1035    53808   38100      0    1.51e+00    0    1.06e+00
2006 03 14  1040    53808   38400      0    1.54e+00    0    1.09e+00
2006 03 14  1045    53808   38700      0    1.52e+00    0    1.08e+00
2006 03 14  1050    53808   39000      0    1.50e+00    0    1.05e+00
2006 03 14  1055    53808   39300      0    1.55e+00    0    1.09e+00
2006 03 14  1100    53808   39600      0    1.55e+00    0    1.09e+00
2006 03 14  1105    53808   39900      0    1.57e+00    0    1.11e+00
2006 03 14  1110    53808   40200      0    1.54e+00    0    1.07e+00
2006 03 14  1115    53808   40500      0    1.51e+00    0    1.07e+00
2006 03 14  1120    53808   40800      0    1.51e+00    0    1.07e+00
2006 03 14  1125    53808   41100      0    1.52e+00    0    1.07e+00
2006 03 14  1130    53808   41400      0    1.50e+00    0    1.04e+00
2006 03 14  1135    53808   41700      0    1.53e+00    0    1.08e+00
2006 03 14  1140    53808   42000      0    1.53e+00    0    1.08e+00
2006 03 14  1145    53808   42300      0    1.54e+00    0    1.08e+00
2006 03 14  1150    53808   42600      0    1.53e+00    0    1.08e+00
2006 03 14  1155    53808   42900      0    1.51e+00    0    1.07e+00
2006 03 14  1200    53808   43200      0    1.49e+00    0    1.05e+00
2006 03 14  1205    53808   43500      0    1.50e+00    0    1.05e+00
2006 03 14  1210    53808   43800      0    1.50e+00    0    1.05e+00
2006 03 14  1215    53808   44100      0    1.52e+00    0    1.06e+00
2006 03 14  1220    53808   44400      0    1.52e+00    0    1.06e+00
2006 03 14  1225    53808   44700      0    1.51e+00    0    1.07e+00
2006 03 14  1230    53808   45000      0    1.53e+00    0    1.08e+00
2006 03 14  1235    53808   45300      0    1.53e+00    0    1.10e+00
2006 03 14  1240    53808   45600      0    1.51e+00    0    1.05e+00
2006 03 14  1245    53808   45900      0    1.49e+00    0    1.04e+00
2006 03 14  1250    53808   46200      0    1.53e+00    0    1.07e+00
2006 03 14  1255    53808   46500      0    1.53e+00    0    1.08e+00
2006 03 14  1300    53808   46800      0    1.50e+00    0    1.04e+00
2006 03 14  1305    53808   47100      0    1.51e+00    0    1.06e+00
2006 03 14  1310    53808   47400      0    1.54e+00    0    1.08e+00
2006 03 14  1315    53808   47700      0    1.52e+00    0    1.07e+00
2006 03 14  1320    53808   48000      0    1.51e+00    0    1.06e+00
2006 03 14  1325    53808   48300      0    1.53e+00    0    1.07e+00
2006 03 14  1330    53808   48600      0    1.53e+00    0    1.08e+00
2006 03 14  1335    53808   48900      0    1.54e+00    0    1.08e+00
2006 03 14  1340    53808   49200      0    1.50e+00    0    1.04e+00
2006 03 14  1345    53808   49500      0    1.50e+00    0    1.06e+00
2006 03 14  1350    53808   49800      0    1.56e+00    0    1.09e+00
2006 03 14  1355    53808   50100      0    1.55e+00    0    1.10e+00
2006 03 14  1400    53808   50400      0    1.52e+00    0    1.06e+00
2006 03 14  1405    53808   50700      0    1.50e+00    0    1.05e+00
2006 03 14  1410    53808   51000      0    1.53e+00    0    1.07e+00
2006 03 14  1415    53808   51300      0    1.52e+00    0    1.06e+00
2006 03 14  1420    53808   51600      0    1.54e+00    0    1.08e+00
2006 03 14  1425    53808   51900      0    1.52e+00    0    1.08e+00
2006 03 14  1430    53808   52200      0    1.52e+00    0    1.07e+00
2006 03 14  1435    53808   52500      0    1.53e+00    0    1.08e+00
2006 03 14  1440    53808   52800      0    1.50e+00    0    1.05e+00
2006 03 14  1445    53808   53100      0    1.52e+00    0    1.06e+00
2006 03 14  1450    53808   53400      0    1.52e+00    0    1.06e+00
2006 03 14  1455    53808   53700      0    1.53e+00    0    1.06e+00
2006 03 14  1500    53808   54000      0    1.57e+00    0    1.10e+00
2006 03 14  1505    53808   54300      0    1.48e+00    0    1.03e+00
2006 03 14  1510    53808   54600      0    1.53e+00    0    1.06e+00
2006 03 14  1515    53808   54900      0    1.54e+00    0    1.09e+00
2006 03 14  1520    53808   55200      0    1.51e+00    0    1.07e+00
2006 03 14  1525    53808   55500      0    1.50e+00    0    1.05e+00
2006 03 14  1530    53808   55800      0    1.53e+00    0    1.07e+00
2006 03 14  1535    53808   56100      0    1.55e+00    0    1.09e+00
2006 03 14  1540    53808   56400      0    1.52e+00    0    1.07e+00
2006 03 14  1545    53808   56700      0    1.54e+00    0    1.09e+00
2006 03 14  1550    53808   57000      0    1.55e+00    0    1.10e+00
2006 03 14  1555    53808   57300      0    1.52e+00    0    1.07e+00
2006 03 14  1600    53808   57600      0    1.51e+00    0    1.07e+00
2006 03 14  1605    53808   57900      0    1.54e+00    0    1.08e+00
2006 03 14  1610    53808   58200      0    1.55e+00    0    1.09e+00
2006 03 14  1615    53808   58500      0    1.54e+00    0    1.08e+00
2006 03 14  1620    53808   58800      0    1.53e+00    0    1.07e+00
2006 03 14  1625    53808   59100      0    1.51e+00    0    1.06e+00
2006 03 14  1630    53808   59400      0    1.50e+00    0    1.06e+00
2006 03 14  1635    53808   59700      0    1.52e+00    0    1.06e+00
2006 03 14  1640    53808   60000      0    1.53e+00    0    1.08e+00
2006 03 14  1645    53808   60300      0    1.53e+00    0    1.07e+00
2006 03 14  1650    53808   60600      0    1.52e+00    0    1.06e+00
2006 03 14  1655    53808   60900      0    1.51e+00    0    1.06e+00
2006 03 14  1700    53808   61200      0    1.55e+00    0    1.10e+00
2006 03 14  1705    53808   61500      0    1.53e+00    0    1.07e+00
2006 03 14  1710    53808   61800      0    1.54e+00    0    1.08e+00
2006 03 14  1715    53808   62100      0    1.54e+00    0    1.08e+00
2006 03 14  1720    53808   62400      0    1.52e+00    0    1.07e+00
2006 03 14  1725    53808   62700      0    1.51e+00    0    1.06e+00
2006 03 14  1730    53808   63000      0    1.54e+00    0    1.08e+00
2006 03 14  1735    53808   63300      0    1.55e+00    0    1.07e+00
2006 03 14  1740    53808   63600      0    1.52e+00    0    1.06e+00
2006 03 14  1745    53808   63900      0    1.53e+00    0    1.07e+00
2006 03 14  1750    53808   64200      0    1.55e+00    0    1.08e+00
2006 03 14  1755    53808   64500      0    1.50e+00    0    1.05e+00
2006 03 14  1800    53808   64800      0    1.54e+00    0    1.09e+00
2006 03 14  1805    53808   65100      0    1.53e+00    0    1.07e+00
2006 03 14  1810    53808   65400      0    1.53e+00    0    1.08e+00
2006 03 14  1815    53808   65700      0    1.52e+00    0    1.08e+00
2006 03 14  1820    53808   66000      0    1.51e+00    0    1.07e+00
2006 03 14  1825    53808   66300      0    1.51e+00    0    1.07e+00
2006 03 14  1830    53808   66600      0    1.52e+00    0    1.07e+00
2006 03 14  1835    53808   66900      0    1.54e+00    0    1.08e+00
2006 03 14  1840    53808   67200      0    1.51e+00    0    1.06e+00
2006 03 14  1845    53808   67500      0    1.50e+00    0    1.05e+00
2006 03 14  1850    53808   67800      0    1.54e+00    0    1.08e+00
2006 03 14  1855    53808   68100      0    1.54e+00    0    1.08e+00
2006 03 14  1900    53808   68400      0    1.50e+00    0    1.06e+00
2006 03 14  1905    53808   68700      0    1.53e+00    0    1.08e+00
2006 03 14  1910    53808   69000      0    1.52e+00    0    1.08e+00
2006 03 14  1915    53808   69300      0    1.51e+00    0    1.06e+00
2006 03 14  1920    53808   69600      0    1.53e+00    0    1.07e+00
2006 03 14  1925    53808   69900      0    1.52e+00    0    1.07e+00
2006 03 14  1930    53808   70200      0    1.52e+00    0    1.07e+00
2006 03 14  1935    53808   70500      0    1.54e+00    0    1.10e+00
2006 03 14  1940    53808   70800      0    1.55e+00    0    1.09e+00
2006 03 14  1945    53808   71100      0    1.51e+00    0    1.06e+00
2006 03 14  1950    53808   71400      0    1.52e+00    0    1.07e+00
2006 03 14  1955    53808   71700      0    1.50e+00    0    1.06e+00
2006 03 14  2000    53808   72000      0    1.51e+00    0    1.06e+00
2006 03 14  2005    53808   72300      0    1.54e+00    0    1.10e+00
2006 03 14  2010    53808   72600      0    1.51e+00    0    1.07e+00
2006 03 14  2015    53808   72900      0    1.54e+00    0    1.07e+00
2006 03 14  2020    53808   73200      0    1.54e+00    0    1.08e+00
2006 03 14  2025    53808   73500      0    1.51e+00    0    1.06e+00
2006 03 14  2030    53808   73800      0    1.52e+00    0    1.06e+00
2006 03 14  2035    53808   74100      0    1.50e+00    0    1.07e+00
2006 03 14  2040    53808   74400      0    1.54e+00    0    1.07e+00
2006 03 14  2045    53808   74700      0    1.54e+00    0    1.09e+00
2006 03 14  2050    53808   75000      0    1.53e+00    0    1.07e+00
2006 03 14  2055    53808   75300      0    1.55e+00    0    1.09e+00
2006 03 14  2100    53808   75600      0    1.51e+00    0    1.06e+00
2006 03 14  2105    53808   75900      0    1.52e+00    0    1.07e+00
2006 03 14  2110    53808   76200      0    1.52e+00    0    1.06e+00
2006 03 14  2115    53808   76500      0    1.51e+00    0    1.05e+00
2006 03 14  2120    53808   76800      0    1.52e+00    0    1.07e+00
2006 03 14  2125    53808   77100      0    1.52e+00    0    1.08e+00
2006 03 14  2130    53808   77400      0    1.53e+00    0    1.08e+00
2006 03 14  2135    53808   77700      0    1.49e+00    0    1.04e+00
2006 03 14  2140    53808   78000      0    1.53e+00    0    1.07e+00
2006 03 14  2145    53808   78300      0    1.50e+00    0    1.05e+00
2006 03 14  2150    53808   78600      0    1.54e+00    0    1.08e+00
2006 03 14  2155    53808   78900      0    1.51e+00    0    1.06e+00
2006 03 14  2200    53808   79200      0    1.51e+00    0    1.07e+00
2006 03 14  2205    53808   79500      0    1.50e+00    0    1.04e+00
2006 03 14  2210    53808   79800      0    1.56e+00    0    1.10e+00
2006 03 14  2215    53808   80100      0    1.51e+00    0    1.06e+00
2006 03 14  2220    53808   80400      0    1.52e+00    0    1.07e+00
2006 03 14  2225    53808   80700      0    1.49e+00    0    1.03e+00
2006 03 14  2230    53808   81000      0    1.53e+00    0    1.08e+00
2006 03 14  2235    53808   81300      0    1.50e+00    0    1.05e+00
2006 03 14  2240    53808   81600      0    1.50e+00    0    1.05e+00
2006 03 14  2245    53808   81900      0    1.55e+00    0    1.09e+00
2006 03 14  2250    53808   82200      0    1.54e+00    0    1.09e+00
2006 03 14  2255    53808   82500      0    1.53e+00    0    1.07e+00
2006 03 14  2300    53808   82800      0    1.53e+00    0    1.08e+00
2006 03 14  2305    53808   83100      0    1.51e+00    0    1.05e+00
2006 03 14  2310    53808   83400      0    1.54e+00    0    1.08e+00
2006 03 14  2315    53808   83700      0    1.48e+00    0    1.04e+00
2006 03 14  2320    53808   84000      0    1.52e+00    0    1.07e+00
2006 03 14  2325    53808   84300      0    1.49e+00    0    1.05e+00
2006 03 14  2330    53808   84600      0    1.55e+00    0    1.10e+00
2006 03 14  2335    53808   84900      0    1.54e+00    0    1.07e+00
2006 03 14  2340    53808   85200      0    1.52e+00    0    1.07e+00
2006 03 14  2345    53808   85500      0    1.49e+00    0    1.04e+00
2006 03 14  2350    53808   85800      0    1.54e+00    0    1.08e+00
2006 03 14  2355    53808   86100      0    1.53e+00    0    1.06e+00
