:Data_list: 20060316_ace_sis_5m.txt
:Created: 2006 Mar 17 0011 UT
# Prepared by the U.S. Dept. of Commerce, NOAA, Space Environment Center.
# Please send comments and suggestions to SEC.Webmaster@noaa.gov 
# 
# Units: proton flux p/cs2-sec-ster
# Status(S): 0 = nominal data, 1 to 8 = bad data record, 9 = no data
# Missing data values: -1.00e+05
# Source: ACE Satellite - Solar Isotope Spectrometer
#
# 5-minute averaged Real-time Integral Flux of High-energy Solar Protons
# 
#                 Modified Seconds
# UT Date   Time   Julian  of the      ---- Integral Proton Flux ----
# YR MO DA  HHMM     Day     Day       S    > 10 MeV    S    > 30 MeV
#--------------------------------------------------------------------
2006 03 16  0000    53810       0      9   -1.00e+05    9   -1.00e+05
2006 03 16  0005    53810     300      0    1.52e+00    0    1.06e+00
2006 03 16  0010    53810     600      0    1.49e+00    0    1.05e+00
2006 03 16  0015    53810     900      0    1.48e+00    0    1.03e+00
2006 03 16  0020    53810    1200      0    1.47e+00    0    1.04e+00
2006 03 16  0025    53810    1500      0    1.49e+00    0    1.05e+00
2006 03 16  0030    53810    1800      0    1.50e+00    0    1.05e+00
2006 03 16  0035    53810    2100      0    1.48e+00    0    1.04e+00
2006 03 16  0040    53810    2400      0    1.50e+00    0    1.05e+00
2006 03 16  0045    53810    2700      0    1.50e+00    0    1.04e+00
2006 03 16  0050    53810    3000      0    1.48e+00    0    1.04e+00
2006 03 16  0055    53810    3300      0    1.53e+00    0    1.07e+00
2006 03 16  0100    53810    3600      0    1.50e+00    0    1.04e+00
2006 03 16  0105    53810    3900      0    1.52e+00    0    1.07e+00
2006 03 16  0110    53810    4200      0    1.53e+00    0    1.08e+00
2006 03 16  0115    53810    4500      0    1.48e+00    0    1.05e+00
2006 03 16  0120    53810    4800      0    1.50e+00    0    1.06e+00
2006 03 16  0125    53810    5100      0    1.52e+00    0    1.06e+00
2006 03 16  0130    53810    5400      0    1.54e+00    0    1.08e+00
2006 03 16  0135    53810    5700      0    1.49e+00    0    1.04e+00
2006 03 16  0140    53810    6000      0    1.53e+00    0    1.06e+00
2006 03 16  0145    53810    6300      0    1.51e+00    0    1.06e+00
2006 03 16  0150    53810    6600      0    1.51e+00    0    1.05e+00
2006 03 16  0155    53810    6900      0    1.55e+00    0    1.09e+00
2006 03 16  0200    53810    7200      0    1.47e+00    0    1.03e+00
2006 03 16  0205    53810    7500      0    1.46e+00    0    1.03e+00
2006 03 16  0210    53810    7800      0    1.49e+00    0    1.04e+00
2006 03 16  0215    53810    8100      0    1.52e+00    0    1.06e+00
2006 03 16  0220    53810    8400      0    1.48e+00    0    1.03e+00
2006 03 16  0225    53810    8700      0    1.53e+00    0    1.07e+00
2006 03 16  0230    53810    9000      0    1.52e+00    0    1.07e+00
2006 03 16  0235    53810    9300      0    1.53e+00    0    1.06e+00
2006 03 16  0240    53810    9600      0    1.49e+00    0    1.05e+00
2006 03 16  0245    53810    9900      0    1.50e+00    0    1.06e+00
2006 03 16  0250    53810   10200      0    1.49e+00    0    1.04e+00
2006 03 16  0255    53810   10500      0    1.52e+00    0    1.07e+00
2006 03 16  0300    53810   10800      0    1.51e+00    0    1.06e+00
2006 03 16  0305    53810   11100      0    1.51e+00    0    1.05e+00
2006 03 16  0310    53810   11400      0    1.49e+00    0    1.05e+00
2006 03 16  0315    53810   11700      0    1.51e+00    0    1.06e+00
2006 03 16  0320    53810   12000      0    1.52e+00    0    1.06e+00
2006 03 16  0325    53810   12300      0    1.55e+00    0    1.08e+00
2006 03 16  0330    53810   12600      0    1.51e+00    0    1.06e+00
2006 03 16  0335    53810   12900      0    1.51e+00    0    1.06e+00
2006 03 16  0340    53810   13200      0    1.51e+00    0    1.06e+00
2006 03 16  0345    53810   13500      0    1.51e+00    0    1.06e+00
2006 03 16  0350    53810   13800      0    1.49e+00    0    1.04e+00
2006 03 16  0355    53810   14100      0    1.48e+00    0    1.04e+00
2006 03 16  0400    53810   14400      0    1.50e+00    0    1.05e+00
2006 03 16  0405    53810   14700      0    1.51e+00    0    1.07e+00
2006 03 16  0410    53810   15000      0    1.50e+00    0    1.06e+00
2006 03 16  0415    53810   15300      0    1.51e+00    0    1.06e+00
2006 03 16  0420    53810   15600      0    1.51e+00    0    1.05e+00
2006 03 16  0425    53810   15900      0    1.49e+00    0    1.05e+00
2006 03 16  0430    53810   16200      0    1.51e+00    0    1.06e+00
2006 03 16  0435    53810   16500      0    1.52e+00    0    1.07e+00
2006 03 16  0440    53810   16800      0    1.50e+00    0    1.05e+00
2006 03 16  0445    53810   17100      0    1.50e+00    0    1.06e+00
2006 03 16  0450    53810   17400      0    1.47e+00    0    1.03e+00
2006 03 16  0455    53810   17700      0    1.51e+00    0    1.05e+00
2006 03 16  0500    53810   18000      0    1.50e+00    0    1.07e+00
2006 03 16  0505    53810   18300      0    1.50e+00    0    1.05e+00
2006 03 16  0510    53810   18600      0    1.51e+00    0    1.06e+00
2006 03 16  0515    53810   18900      0    1.52e+00    0    1.07e+00
2006 03 16  0520    53810   19200      0    1.54e+00    0    1.08e+00
2006 03 16  0525    53810   19500      0    1.49e+00    0    1.04e+00
2006 03 16  0530    53810   19800      0    1.49e+00    0    1.05e+00
2006 03 16  0535    53810   20100      0    1.49e+00    0    1.04e+00
2006 03 16  0540    53810   20400      0    1.50e+00    0    1.06e+00
2006 03 16  0545    53810   20700      0    1.47e+00    0    1.02e+00
2006 03 16  0550    53810   21000      0    1.51e+00    0    1.06e+00
2006 03 16  0555    53810   21300      0    1.52e+00    0    1.07e+00
2006 03 16  0600    53810   21600      0    1.51e+00    0    1.06e+00
2006 03 16  0605    53810   21900      0    1.49e+00    0    1.04e+00
2006 03 16  0610    53810   22200      0    1.51e+00    0    1.05e+00
2006 03 16  0615    53810   22500      0    1.50e+00    0    1.06e+00
2006 03 16  0620    53810   22800      0    1.47e+00    0    1.02e+00
2006 03 16  0625    53810   23100      0    1.50e+00    0    1.06e+00
2006 03 16  0630    53810   23400      0    1.46e+00    0    1.03e+00
2006 03 16  0635    53810   23700      0    1.50e+00    0    1.06e+00
2006 03 16  0640    53810   24000      0    1.51e+00    0    1.07e+00
2006 03 16  0645    53810   24300      0    1.51e+00    0    1.06e+00
2006 03 16  0650    53810   24600      0    1.49e+00    0    1.05e+00
2006 03 16  0655    53810   24900      0    1.47e+00    0    1.03e+00
2006 03 16  0700    53810   25200      0    1.52e+00    0    1.07e+00
2006 03 16  0705    53810   25500      0    1.47e+00    0    1.03e+00
2006 03 16  0710    53810   25800      0    1.51e+00    0    1.07e+00
2006 03 16  0715    53810   26100      0    1.52e+00    0    1.07e+00
2006 03 16  0720    53810   26400      0    1.50e+00    0    1.06e+00
2006 03 16  0725    53810   26700      0    1.48e+00    0    1.03e+00
2006 03 16  0730    53810   27000      0    1.49e+00    0    1.05e+00
2006 03 16  0735    53810   27300      0    1.48e+00    0    1.04e+00
2006 03 16  0740    53810   27600      0    1.48e+00    0    1.03e+00
2006 03 16  0745    53810   27900      0    1.48e+00    0    1.04e+00
2006 03 16  0750    53810   28200      0    1.47e+00    0    1.03e+00
2006 03 16  0755    53810   28500      0    1.52e+00    0    1.07e+00
2006 03 16  0800    53810   28800      0    1.49e+00    0    1.05e+00
2006 03 16  0805    53810   29100      0    1.54e+00    0    1.08e+00
2006 03 16  0810    53810   29400      0    1.54e+00    0    1.09e+00
2006 03 16  0815    53810   29700      0    1.50e+00    0    1.05e+00
2006 03 16  0820    53810   30000      0    1.50e+00    0    1.05e+00
2006 03 16  0825    53810   30300      0    1.53e+00    0    1.08e+00
2006 03 16  0830    53810   30600      0    1.48e+00    0    1.05e+00
2006 03 16  0835    53810   30900      0    1.47e+00    0    1.04e+00
2006 03 16  0840    53810   31200      0    1.49e+00    0    1.06e+00
2006 03 16  0845    53810   31500      0    1.47e+00    0    1.03e+00
2006 03 16  0850    53810   31800      0    1.48e+00    0    1.04e+00
2006 03 16  0855    53810   32100      0    1.47e+00    0    1.03e+00
2006 03 16  0900    53810   32400      0    1.50e+00    0    1.06e+00
2006 03 16  0905    53810   32700      0    1.49e+00    0    1.05e+00
2006 03 16  0910    53810   33000      0    1.48e+00    0    1.03e+00
2006 03 16  0915    53810   33300      0    1.50e+00    0    1.05e+00
2006 03 16  0920    53810   33600      0    1.46e+00    0    1.01e+00
2006 03 16  0925    53810   33900      0    1.51e+00    0    1.05e+00
2006 03 16  0930    53810   34200      0    1.50e+00    0    1.05e+00
2006 03 16  0935    53810   34500      0    1.54e+00    0    1.09e+00
2006 03 16  0940    53810   34800      0    1.52e+00    0    1.05e+00
2006 03 16  0945    53810   35100      0    1.50e+00    0    1.04e+00
2006 03 16  0950    53810   35400      0    1.54e+00    0    1.08e+00
2006 03 16  0955    53810   35700      0    1.54e+00    0    1.09e+00
2006 03 16  1000    53810   36000      0    1.51e+00    0    1.06e+00
2006 03 16  1005    53810   36300      0    1.50e+00    0    1.05e+00
2006 03 16  1010    53810   36600      0    1.54e+00    0    1.08e+00
2006 03 16  1015    53810   36900      0    1.48e+00    0    1.02e+00
2006 03 16  1020    53810   37200      0    1.53e+00    0    1.07e+00
2006 03 16  1025    53810   37500      0    1.51e+00    0    1.05e+00
2006 03 16  1030    53810   37800      0    1.50e+00    0    1.05e+00
2006 03 16  1035    53810   38100      0    1.51e+00    0    1.06e+00
2006 03 16  1040    53810   38400      0    1.52e+00    0    1.06e+00
2006 03 16  1045    53810   38700      0    1.53e+00    0    1.09e+00
2006 03 16  1050    53810   39000      0    1.54e+00    0    1.09e+00
2006 03 16  1055    53810   39300      0    1.52e+00    0    1.07e+00
2006 03 16  1100    53810   39600      0    1.48e+00    0    1.04e+00
2006 03 16  1105    53810   39900      0    1.49e+00    0    1.05e+00
2006 03 16  1110    53810   40200      0    1.49e+00    0    1.04e+00
2006 03 16  1115    53810   40500      0    1.52e+00    0    1.08e+00
2006 03 16  1120    53810   40800      0    1.53e+00    0    1.08e+00
2006 03 16  1125    53810   41100      0    1.50e+00    0    1.05e+00
2006 03 16  1130    53810   41400      0    1.50e+00    0    1.05e+00
2006 03 16  1135    53810   41700      0    1.50e+00    0    1.04e+00
2006 03 16  1140    53810   42000      0    1.51e+00    0    1.07e+00
2006 03 16  1145    53810   42300      0    1.48e+00    0    1.04e+00
2006 03 16  1150    53810   42600      0    1.51e+00    0    1.06e+00
2006 03 16  1155    53810   42900      0    1.49e+00    0    1.04e+00
2006 03 16  1200    53810   43200      0    1.50e+00    0    1.06e+00
2006 03 16  1205    53810   43500      0    1.48e+00    0    1.04e+00
2006 03 16  1210    53810   43800      0    1.49e+00    0    1.04e+00
2006 03 16  1215    53810   44100      0    1.53e+00    0    1.06e+00
2006 03 16  1220    53810   44400      0    1.52e+00    0    1.08e+00
2006 03 16  1225    53810   44700      0    1.50e+00    0    1.05e+00
2006 03 16  1230    53810   45000      0    1.53e+00    0    1.08e+00
2006 03 16  1235    53810   45300      0    1.56e+00    0    1.09e+00
2006 03 16  1240    53810   45600      0    1.51e+00    0    1.05e+00
2006 03 16  1245    53810   45900      0    1.51e+00    0    1.06e+00
2006 03 16  1250    53810   46200      0    1.52e+00    0    1.07e+00
2006 03 16  1255    53810   46500      0    1.52e+00    0    1.07e+00
2006 03 16  1300    53810   46800      0    1.54e+00    0    1.08e+00
2006 03 16  1305    53810   47100      0    1.50e+00    0    1.06e+00
2006 03 16  1310    53810   47400      0    1.52e+00    0    1.06e+00
2006 03 16  1315    53810   47700      0    1.50e+00    0    1.06e+00
2006 03 16  1320    53810   48000      0    1.51e+00    0    1.06e+00
2006 03 16  1325    53810   48300      0    1.51e+00    0    1.07e+00
2006 03 16  1330    53810   48600      0    1.49e+00    0    1.05e+00
2006 03 16  1335    53810   48900      0    1.51e+00    0    1.07e+00
2006 03 16  1340    53810   49200      0    1.52e+00    0    1.07e+00
2006 03 16  1345    53810   49500      0    1.48e+00    0    1.04e+00
2006 03 16  1350    53810   49800      0    1.53e+00    0    1.07e+00
2006 03 16  1355    53810   50100      0    1.53e+00    0    1.08e+00
2006 03 16  1400    53810   50400      0    1.52e+00    0    1.07e+00
2006 03 16  1405    53810   50700      0    1.48e+00    0    1.03e+00
2006 03 16  1410    53810   51000      0    1.52e+00    0    1.07e+00
2006 03 16  1415    53810   51300      0    1.50e+00    0    1.05e+00
2006 03 16  1420    53810   51600      0    1.53e+00    0    1.07e+00
2006 03 16  1425    53810   51900      0    1.50e+00    0    1.05e+00
2006 03 16  1430    53810   52200      0    1.51e+00    0    1.06e+00
2006 03 16  1435    53810   52500      0    1.51e+00    0    1.06e+00
2006 03 16  1440    53810   52800      0    1.53e+00    0    1.08e+00
2006 03 16  1445    53810   53100      0    1.50e+00    0    1.05e+00
2006 03 16  1450    53810   53400      0    1.49e+00    0    1.05e+00
2006 03 16  1455    53810   53700      0    1.53e+00    0    1.09e+00
2006 03 16  1500    53810   54000      0    1.51e+00    0    1.06e+00
2006 03 16  1505    53810   54300      0    1.51e+00    0    1.06e+00
2006 03 16  1510    53810   54600      0    1.49e+00    0    1.05e+00
2006 03 16  1515    53810   54900      0    1.52e+00    0    1.06e+00
2006 03 16  1520    53810   55200      0    1.52e+00    0    1.07e+00
2006 03 16  1525    53810   55500      0    1.53e+00    0    1.08e+00
2006 03 16  1530    53810   55800      0    1.54e+00    0    1.07e+00
2006 03 16  1535    53810   56100      0    1.52e+00    0    1.07e+00
2006 03 16  1540    53810   56400      0    1.57e+00    0    1.11e+00
2006 03 16  1545    53810   56700      0    1.53e+00    0    1.07e+00
2006 03 16  1550    53810   57000      0    1.54e+00    0    1.08e+00
2006 03 16  1555    53810   57300      0    1.52e+00    0    1.05e+00
2006 03 16  1600    53810   57600      0    1.54e+00    0    1.08e+00
2006 03 16  1605    53810   57900      0    1.51e+00    0    1.05e+00
2006 03 16  1610    53810   58200      0    1.51e+00    0    1.06e+00
2006 03 16  1615    53810   58500      0    1.52e+00    0    1.06e+00
2006 03 16  1620    53810   58800      0    1.52e+00    0    1.07e+00
2006 03 16  1625    53810   59100      0    1.50e+00    0    1.06e+00
2006 03 16  1630    53810   59400      0    1.50e+00    0    1.05e+00
2006 03 16  1635    53810   59700      0    1.49e+00    0    1.05e+00
2006 03 16  1640    53810   60000      0    1.55e+00    0    1.09e+00
2006 03 16  1645    53810   60300      0    1.52e+00    0    1.08e+00
2006 03 16  1650    53810   60600      0    1.55e+00    0    1.09e+00
2006 03 16  1655    53810   60900      0    1.50e+00    0    1.04e+00
2006 03 16  1700    53810   61200      0    1.53e+00    0    1.08e+00
2006 03 16  1705    53810   61500      0    1.51e+00    0    1.06e+00
2006 03 16  1710    53810   61800      0    1.50e+00    0    1.05e+00
2006 03 16  1715    53810   62100      0    1.50e+00    0    1.05e+00
2006 03 16  1720    53810   62400      0    1.54e+00    0    1.08e+00
2006 03 16  1725    53810   62700      0    1.53e+00    0    1.07e+00
2006 03 16  1730    53810   63000      0    1.51e+00    0    1.05e+00
2006 03 16  1735    53810   63300      0    1.51e+00    0    1.06e+00
2006 03 16  1740    53810   63600      0    1.53e+00    0    1.07e+00
2006 03 16  1745    53810   63900      0    1.51e+00    0    1.05e+00
2006 03 16  1750    53810   64200      0    1.53e+00    0    1.07e+00
2006 03 16  1755    53810   64500      0    1.49e+00    0    1.05e+00
2006 03 16  1800    53810   64800      0    1.50e+00    0    1.06e+00
2006 03 16  1805    53810   65100      0    1.52e+00    0    1.06e+00
2006 03 16  1810    53810   65400      0    1.50e+00    0    1.05e+00
2006 03 16  1815    53810   65700      0    1.52e+00    0    1.08e+00
2006 03 16  1820    53810   66000      0    1.51e+00    0    1.05e+00
2006 03 16  1825    53810   66300      0    1.54e+00    0    1.08e+00
2006 03 16  1830    53810   66600      0    1.50e+00    0    1.05e+00
2006 03 16  1835    53810   66900      0    1.52e+00    0    1.08e+00
2006 03 16  1840    53810   67200      0    1.50e+00    0    1.05e+00
2006 03 16  1845    53810   67500      0    1.54e+00    0    1.08e+00
2006 03 16  1850    53810   67800      0    1.50e+00    0    1.06e+00
2006 03 16  1855    53810   68100      0    1.50e+00    0    1.04e+00
2006 03 16  1900    53810   68400      0    1.51e+00    0    1.06e+00
2006 03 16  1905    53810   68700      0    1.51e+00    0    1.05e+00
2006 03 16  1910    53810   69000      0    1.50e+00    0    1.06e+00
2006 03 16  1915    53810   69300      0    1.53e+00    0    1.08e+00
2006 03 16  1920    53810   69600      0    1.54e+00    0    1.09e+00
2006 03 16  1925    53810   69900      0    1.54e+00    0    1.07e+00
2006 03 16  1930    53810   70200      0    1.54e+00    0    1.08e+00
2006 03 16  1935    53810   70500      0    1.52e+00    0    1.08e+00
2006 03 16  1940    53810   70800      0    1.49e+00    0    1.05e+00
2006 03 16  1945    53810   71100      0    1.52e+00    0    1.07e+00
2006 03 16  1950    53810   71400      0    1.50e+00    0    1.06e+00
2006 03 16  1955    53810   71700      0    1.50e+00    0    1.05e+00
2006 03 16  2000    53810   72000      0    1.43e+00    0    1.00e+00
2006 03 16  2005    53810   72300      0    1.49e+00    0    1.04e+00
2006 03 16  2010    53810   72600      0    1.48e+00    0    1.04e+00
2006 03 16  2015    53810   72900      0    1.50e+00    0    1.06e+00
2006 03 16  2020    53810   73200      0    1.50e+00    0    1.05e+00
2006 03 16  2025    53810   73500      0    1.52e+00    0    1.06e+00
2006 03 16  2030    53810   73800      0    1.53e+00    0    1.08e+00
2006 03 16  2035    53810   74100      0    1.51e+00    0    1.07e+00
2006 03 16  2040    53810   74400      0    1.54e+00    0    1.07e+00
2006 03 16  2045    53810   74700      0    1.49e+00    0    1.04e+00
2006 03 16  2050    53810   75000      0    1.53e+00    0    1.06e+00
2006 03 16  2055    53810   75300      0    1.54e+00    0    1.07e+00
2006 03 16  2100    53810   75600      0    1.51e+00    0    1.06e+00
2006 03 16  2105    53810   75900      0    1.55e+00    0    1.09e+00
2006 03 16  2110    53810   76200      0    1.49e+00    0    1.06e+00
2006 03 16  2115    53810   76500      0    1.52e+00    0    1.06e+00
2006 03 16  2120    53810   76800      0    1.51e+00    0    1.06e+00
2006 03 16  2125    53810   77100      0    1.52e+00    0    1.07e+00
2006 03 16  2130    53810   77400      0    1.52e+00    0    1.06e+00
2006 03 16  2135    53810   77700      0    1.53e+00    0    1.06e+00
2006 03 16  2140    53810   78000      0    1.52e+00    0    1.07e+00
2006 03 16  2145    53810   78300      0    1.53e+00    0    1.06e+00
2006 03 16  2150    53810   78600      0    1.51e+00    0    1.05e+00
2006 03 16  2155    53810   78900      0    1.48e+00    0    1.05e+00
2006 03 16  2200    53810   79200      0    1.52e+00    0    1.07e+00
2006 03 16  2205    53810   79500      0    1.55e+00    0    1.09e+00
2006 03 16  2210    53810   79800      0    1.48e+00    0    1.04e+00
2006 03 16  2215    53810   80100      0    1.50e+00    0    1.05e+00
2006 03 16  2220    53810   80400      0    1.51e+00    0    1.07e+00
2006 03 16  2225    53810   80700      0    1.51e+00    0    1.06e+00
2006 03 16  2230    53810   81000      0    1.51e+00    0    1.05e+00
2006 03 16  2235    53810   81300      0    1.48e+00    0    1.03e+00
2006 03 16  2240    53810   81600      0    1.52e+00    0    1.06e+00
2006 03 16  2245    53810   81900      0    1.53e+00    0    1.07e+00
2006 03 16  2250    53810   82200      0    1.49e+00    0    1.04e+00
2006 03 16  2255    53810   82500      0    1.51e+00    0    1.05e+00
2006 03 16  2300    53810   82800      0    1.49e+00    0    1.04e+00
2006 03 16  2305    53810   83100      0    1.49e+00    0    1.04e+00
2006 03 16  2310    53810   83400      0    1.51e+00    0    1.06e+00
2006 03 16  2315    53810   83700      0    1.51e+00    0    1.05e+00
2006 03 16  2320    53810   84000      0    1.48e+00    0    1.05e+00
2006 03 16  2325    53810   84300      0    1.50e+00    0    1.06e+00
2006 03 16  2330    53810   84600      0    1.53e+00    0    1.07e+00
2006 03 16  2335    53810   84900      0    1.50e+00    0    1.05e+00
2006 03 16  2340    53810   85200      0    1.49e+00    0    1.05e+00
2006 03 16  2345    53810   85500      0    1.52e+00    0    1.06e+00
2006 03 16  2350    53810   85800      0    1.52e+00    0    1.06e+00
2006 03 16  2355    53810   86100      0    1.53e+00    0    1.08e+00
