:Data_list: 20060319_ace_sis_5m.txt
:Created: 2006 Mar 20 0011 UT
# Prepared by the U.S. Dept. of Commerce, NOAA, Space Environment Center.
# Please send comments and suggestions to SEC.Webmaster@noaa.gov 
# 
# Units: proton flux p/cs2-sec-ster
# Status(S): 0 = nominal data, 1 to 8 = bad data record, 9 = no data
# Missing data values: -1.00e+05
# Source: ACE Satellite - Solar Isotope Spectrometer
#
# 5-minute averaged Real-time Integral Flux of High-energy Solar Protons
# 
#                 Modified Seconds
# UT Date   Time   Julian  of the      ---- Integral Proton Flux ----
# YR MO DA  HHMM     Day     Day       S    > 10 MeV    S    > 30 MeV
#--------------------------------------------------------------------
2006 03 19  0000    53813       0      0    1.54e+00    0    1.08e+00
2006 03 19  0005    53813     300      0    1.54e+00    0    1.07e+00
2006 03 19  0010    53813     600      0    1.52e+00    0    1.06e+00
2006 03 19  0015    53813     900      0    1.55e+00    0    1.09e+00
2006 03 19  0020    53813    1200      0    1.53e+00    0    1.07e+00
2006 03 19  0025    53813    1500      0    1.52e+00    0    1.05e+00
2006 03 19  0030    53813    1800      0    1.49e+00    0    1.05e+00
2006 03 19  0035    53813    2100      0    1.54e+00    0    1.08e+00
2006 03 19  0040    53813    2400      0    1.54e+00    0    1.08e+00
2006 03 19  0045    53813    2700      0    1.46e+00    0    1.02e+00
2006 03 19  0050    53813    3000      0    1.52e+00    0    1.06e+00
2006 03 19  0055    53813    3300      0    1.55e+00    0    1.07e+00
2006 03 19  0100    53813    3600      0    1.54e+00    0    1.08e+00
2006 03 19  0105    53813    3900      0    1.51e+00    0    1.06e+00
2006 03 19  0110    53813    4200      0    1.49e+00    0    1.04e+00
2006 03 19  0115    53813    4500      0    1.52e+00    0    1.07e+00
2006 03 19  0120    53813    4800      0    1.51e+00    0    1.07e+00
2006 03 19  0125    53813    5100      0    1.54e+00    0    1.09e+00
2006 03 19  0130    53813    5400      0    1.55e+00    0    1.08e+00
2006 03 19  0135    53813    5700      0    1.53e+00    0    1.07e+00
2006 03 19  0140    53813    6000      0    1.48e+00    0    1.03e+00
2006 03 19  0145    53813    6300      0    1.51e+00    0    1.05e+00
2006 03 19  0150    53813    6600      0    1.52e+00    0    1.07e+00
2006 03 19  0155    53813    6900      0    1.52e+00    0    1.07e+00
2006 03 19  0200    53813    7200      0    1.48e+00    0    1.03e+00
2006 03 19  0205    53813    7500      0    1.48e+00    0    1.05e+00
2006 03 19  0210    53813    7800      0    1.50e+00    0    1.05e+00
2006 03 19  0215    53813    8100      0    1.50e+00    0    1.06e+00
2006 03 19  0220    53813    8400      0    1.51e+00    0    1.07e+00
2006 03 19  0225    53813    8700      0    1.54e+00    0    1.08e+00
2006 03 19  0230    53813    9000      0    1.51e+00    0    1.07e+00
2006 03 19  0235    53813    9300      0    1.53e+00    0    1.08e+00
2006 03 19  0240    53813    9600      0    1.52e+00    0    1.07e+00
2006 03 19  0245    53813    9900      0    1.49e+00    0    1.05e+00
2006 03 19  0250    53813   10200      0    1.53e+00    0    1.07e+00
2006 03 19  0255    53813   10500      0    1.53e+00    0    1.06e+00
2006 03 19  0300    53813   10800      0    1.50e+00    0    1.06e+00
2006 03 19  0305    53813   11100      0    1.52e+00    0    1.07e+00
2006 03 19  0310    53813   11400      0    1.51e+00    0    1.06e+00
2006 03 19  0315    53813   11700      0    1.51e+00    0    1.04e+00
2006 03 19  0320    53813   12000      0    1.55e+00    0    1.08e+00
2006 03 19  0325    53813   12300      0    1.50e+00    0    1.06e+00
2006 03 19  0330    53813   12600      0    1.58e+00    0    1.11e+00
2006 03 19  0335    53813   12900      0    1.54e+00    0    1.08e+00
2006 03 19  0340    53813   13200      0    1.51e+00    0    1.06e+00
2006 03 19  0345    53813   13500      0    1.50e+00    0    1.06e+00
2006 03 19  0350    53813   13800      0    1.51e+00    0    1.05e+00
2006 03 19  0355    53813   14100      0    1.55e+00    0    1.08e+00
2006 03 19  0400    53813   14400      0    1.53e+00    0    1.08e+00
2006 03 19  0405    53813   14700      0    1.53e+00    0    1.07e+00
2006 03 19  0410    53813   15000      0    1.55e+00    0    1.09e+00
2006 03 19  0415    53813   15300      0    1.50e+00    0    1.06e+00
2006 03 19  0420    53813   15600      0    1.53e+00    0    1.08e+00
2006 03 19  0425    53813   15900      0    1.52e+00    0    1.08e+00
2006 03 19  0430    53813   16200      0    1.54e+00    0    1.09e+00
2006 03 19  0435    53813   16500      0    1.50e+00    0    1.05e+00
2006 03 19  0440    53813   16800      0    1.52e+00    0    1.07e+00
2006 03 19  0445    53813   17100      0    1.52e+00    0    1.07e+00
2006 03 19  0450    53813   17400      0    1.50e+00    0    1.05e+00
2006 03 19  0455    53813   17700      0    1.54e+00    0    1.08e+00
2006 03 19  0500    53813   18000      0    1.53e+00    0    1.07e+00
2006 03 19  0505    53813   18300      0    1.53e+00    0    1.07e+00
2006 03 19  0510    53813   18600      0    1.55e+00    0    1.08e+00
2006 03 19  0515    53813   18900      0    1.51e+00    0    1.06e+00
2006 03 19  0520    53813   19200      0    1.50e+00    0    1.05e+00
2006 03 19  0525    53813   19500      0    1.53e+00    0    1.07e+00
2006 03 19  0530    53813   19800      0    1.50e+00    0    1.04e+00
2006 03 19  0535    53813   20100      0    1.53e+00    0    1.07e+00
2006 03 19  0540    53813   20400      0    1.51e+00    0    1.06e+00
2006 03 19  0545    53813   20700      0    1.53e+00    0    1.07e+00
2006 03 19  0550    53813   21000      0    1.49e+00    0    1.05e+00
2006 03 19  0555    53813   21300      0    1.50e+00    0    1.06e+00
2006 03 19  0600    53813   21600      0    1.52e+00    0    1.07e+00
2006 03 19  0605    53813   21900      0    1.53e+00    0    1.08e+00
2006 03 19  0610    53813   22200      0    1.51e+00    0    1.06e+00
2006 03 19  0615    53813   22500      0    1.52e+00    0    1.07e+00
2006 03 19  0620    53813   22800      0    1.51e+00    0    1.06e+00
2006 03 19  0625    53813   23100      0    1.50e+00    0    1.05e+00
2006 03 19  0630    53813   23400      0    1.52e+00    0    1.06e+00
2006 03 19  0635    53813   23700      0    1.52e+00    0    1.07e+00
2006 03 19  0640    53813   24000      0    1.55e+00    0    1.08e+00
2006 03 19  0645    53813   24300      0    1.55e+00    0    1.08e+00
2006 03 19  0650    53813   24600      0    1.50e+00    0    1.06e+00
2006 03 19  0655    53813   24900      0    1.49e+00    0    1.05e+00
2006 03 19  0700    53813   25200      0    1.55e+00    0    1.10e+00
2006 03 19  0705    53813   25500      0    1.52e+00    0    1.07e+00
2006 03 19  0710    53813   25800      0    1.52e+00    0    1.07e+00
2006 03 19  0715    53813   26100      0    1.52e+00    0    1.07e+00
2006 03 19  0720    53813   26400      0    1.52e+00    0    1.06e+00
2006 03 19  0725    53813   26700      0    1.52e+00    0    1.06e+00
2006 03 19  0730    53813   27000      0    1.48e+00    0    1.04e+00
2006 03 19  0735    53813   27300      0    1.55e+00    0    1.10e+00
2006 03 19  0740    53813   27600      0    1.54e+00    0    1.08e+00
2006 03 19  0745    53813   27900      0    1.51e+00    0    1.06e+00
2006 03 19  0750    53813   28200      0    1.50e+00    0    1.05e+00
2006 03 19  0755    53813   28500      0    1.52e+00    0    1.07e+00
2006 03 19  0800    53813   28800      0    1.51e+00    0    1.06e+00
2006 03 19  0805    53813   29100      0    1.50e+00    0    1.06e+00
2006 03 19  0810    53813   29400      0    1.52e+00    0    1.06e+00
2006 03 19  0815    53813   29700      0    1.50e+00    0    1.06e+00
2006 03 19  0820    53813   30000      0    1.48e+00    0    1.04e+00
2006 03 19  0825    53813   30300      0    1.52e+00    0    1.07e+00
2006 03 19  0830    53813   30600      0    1.50e+00    0    1.05e+00
2006 03 19  0835    53813   30900      0    1.54e+00    0    1.06e+00
2006 03 19  0840    53813   31200      0    1.54e+00    0    1.09e+00
2006 03 19  0845    53813   31500      0    1.51e+00    0    1.05e+00
2006 03 19  0850    53813   31800      0    1.53e+00    0    1.06e+00
2006 03 19  0855    53813   32100      0    1.50e+00    0    1.04e+00
2006 03 19  0900    53813   32400      0    1.54e+00    0    1.09e+00
2006 03 19  0905    53813   32700      0    1.51e+00    0    1.06e+00
2006 03 19  0910    53813   33000      0    1.52e+00    0    1.06e+00
2006 03 19  0915    53813   33300      0    1.49e+00    0    1.04e+00
2006 03 19  0920    53813   33600      0    1.51e+00    0    1.05e+00
2006 03 19  0925    53813   33900      0    1.54e+00    0    1.08e+00
2006 03 19  0930    53813   34200      0    1.52e+00    0    1.07e+00
2006 03 19  0935    53813   34500      0    1.51e+00    0    1.05e+00
2006 03 19  0940    53813   34800      0    1.53e+00    0    1.08e+00
2006 03 19  0945    53813   35100      0    1.48e+00    0    1.04e+00
2006 03 19  0950    53813   35400      0    1.49e+00    0    1.03e+00
2006 03 19  0955    53813   35700      0    1.53e+00    0    1.07e+00
2006 03 19  1000    53813   36000      0    1.48e+00    0    1.03e+00
2006 03 19  1005    53813   36300      0    1.51e+00    0    1.06e+00
2006 03 19  1010    53813   36600      0    1.53e+00    0    1.07e+00
2006 03 19  1015    53813   36900      0    1.50e+00    0    1.06e+00
2006 03 19  1020    53813   37200      0    1.49e+00    0    1.04e+00
2006 03 19  1025    53813   37500      0    1.48e+00    0    1.04e+00
2006 03 19  1030    53813   37800      0    1.50e+00    0    1.05e+00
2006 03 19  1035    53813   38100      0    1.50e+00    0    1.06e+00
2006 03 19  1040    53813   38400      0    1.52e+00    0    1.07e+00
2006 03 19  1045    53813   38700      0    1.52e+00    0    1.07e+00
2006 03 19  1050    53813   39000      0    1.48e+00    0    1.04e+00
2006 03 19  1055    53813   39300      0    1.49e+00    0    1.06e+00
2006 03 19  1100    53813   39600      0    1.52e+00    0    1.07e+00
2006 03 19  1105    53813   39900      0    1.50e+00    0    1.05e+00
2006 03 19  1110    53813   40200      0    1.55e+00    0    1.10e+00
2006 03 19  1115    53813   40500      0    1.48e+00    0    1.04e+00
2006 03 19  1120    53813   40800      0    1.50e+00    0    1.06e+00
2006 03 19  1125    53813   41100      0    1.49e+00    0    1.04e+00
2006 03 19  1130    53813   41400      0    1.54e+00    0    1.08e+00
2006 03 19  1135    53813   41700      0    1.51e+00    0    1.05e+00
2006 03 19  1140    53813   42000      0    1.50e+00    0    1.06e+00
2006 03 19  1145    53813   42300      0    1.49e+00    0    1.05e+00
2006 03 19  1150    53813   42600      0    1.58e+00    0    1.11e+00
2006 03 19  1155    53813   42900      0    1.52e+00    0    1.06e+00
2006 03 19  1200    53813   43200      0    1.52e+00    0    1.07e+00
2006 03 19  1205    53813   43500      0    1.52e+00    0    1.07e+00
2006 03 19  1210    53813   43800      0    1.51e+00    0    1.07e+00
2006 03 19  1215    53813   44100      0    1.53e+00    0    1.07e+00
2006 03 19  1220    53813   44400      0    1.49e+00    0    1.03e+00
2006 03 19  1225    53813   44700      0    1.47e+00    0    1.03e+00
2006 03 19  1230    53813   45000      0    1.47e+00    0    1.03e+00
2006 03 19  1235    53813   45300      0    1.53e+00    0    1.06e+00
2006 03 19  1240    53813   45600      0    1.51e+00    0    1.07e+00
2006 03 19  1245    53813   45900      0    1.48e+00    0    1.04e+00
2006 03 19  1250    53813   46200      0    1.48e+00    0    1.05e+00
2006 03 19  1255    53813   46500      0    1.51e+00    0    1.06e+00
2006 03 19  1300    53813   46800      0    1.52e+00    0    1.06e+00
2006 03 19  1305    53813   47100      0    1.51e+00    0    1.06e+00
2006 03 19  1310    53813   47400      0    1.54e+00    0    1.07e+00
2006 03 19  1315    53813   47700      0    1.53e+00    0    1.08e+00
2006 03 19  1320    53813   48000      0    1.52e+00    0    1.07e+00
2006 03 19  1325    53813   48300      0    1.55e+00    0    1.08e+00
2006 03 19  1330    53813   48600      0    1.53e+00    0    1.07e+00
2006 03 19  1335    53813   48900      0    1.54e+00    0    1.08e+00
2006 03 19  1340    53813   49200      0    1.55e+00    0    1.09e+00
2006 03 19  1345    53813   49500      0    1.51e+00    0    1.07e+00
2006 03 19  1350    53813   49800      0    1.53e+00    0    1.08e+00
2006 03 19  1355    53813   50100      0    1.52e+00    0    1.07e+00
2006 03 19  1400    53813   50400      0    1.56e+00    0    1.10e+00
2006 03 19  1405    53813   50700      0    1.53e+00    0    1.07e+00
2006 03 19  1410    53813   51000      0    1.52e+00    0    1.07e+00
2006 03 19  1415    53813   51300      0    1.52e+00    0    1.06e+00
2006 03 19  1420    53813   51600      0    1.50e+00    0    1.05e+00
2006 03 19  1425    53813   51900      0    1.51e+00    0    1.07e+00
2006 03 19  1430    53813   52200      0    1.53e+00    0    1.07e+00
2006 03 19  1435    53813   52500      0    1.55e+00    0    1.09e+00
2006 03 19  1440    53813   52800      0    1.51e+00    0    1.06e+00
2006 03 19  1445    53813   53100      0    1.52e+00    0    1.06e+00
2006 03 19  1450    53813   53400      0    1.50e+00    0    1.06e+00
2006 03 19  1455    53813   53700      0    1.53e+00    0    1.07e+00
2006 03 19  1500    53813   54000      0    1.50e+00    0    1.05e+00
2006 03 19  1505    53813   54300      0    1.53e+00    0    1.07e+00
2006 03 19  1510    53813   54600      0    1.48e+00    0    1.04e+00
2006 03 19  1515    53813   54900      0    1.55e+00    0    1.09e+00
2006 03 19  1520    53813   55200      0    1.51e+00    0    1.08e+00
2006 03 19  1525    53813   55500      0    1.52e+00    0    1.07e+00
2006 03 19  1530    53813   55800      0    1.51e+00    0    1.05e+00
2006 03 19  1535    53813   56100      0    1.53e+00    0    1.07e+00
2006 03 19  1540    53813   56400      0    1.50e+00    0    1.06e+00
2006 03 19  1545    53813   56700      0    1.55e+00    0    1.09e+00
2006 03 19  1550    53813   57000      0    1.54e+00    0    1.07e+00
2006 03 19  1555    53813   57300      0    1.53e+00    0    1.07e+00
2006 03 19  1600    53813   57600      0    1.53e+00    0    1.08e+00
2006 03 19  1605    53813   57900      0    1.55e+00    0    1.09e+00
2006 03 19  1610    53813   58200      0    1.56e+00    0    1.10e+00
2006 03 19  1615    53813   58500      0    1.51e+00    0    1.05e+00
2006 03 19  1620    53813   58800      0    1.50e+00    0    1.05e+00
2006 03 19  1625    53813   59100      0    1.53e+00    0    1.07e+00
2006 03 19  1630    53813   59400      0    1.53e+00    0    1.08e+00
2006 03 19  1635    53813   59700      0    1.52e+00    0    1.06e+00
2006 03 19  1640    53813   60000      0    1.52e+00    0    1.06e+00
2006 03 19  1645    53813   60300      0    1.54e+00    0    1.08e+00
2006 03 19  1650    53813   60600      0    1.53e+00    0    1.07e+00
2006 03 19  1655    53813   60900      0    1.57e+00    0    1.11e+00
2006 03 19  1700    53813   61200      0    1.52e+00    0    1.07e+00
2006 03 19  1705    53813   61500      0    1.53e+00    0    1.07e+00
2006 03 19  1710    53813   61800      0    1.51e+00    0    1.07e+00
2006 03 19  1715    53813   62100      0    1.50e+00    0    1.05e+00
2006 03 19  1720    53813   62400      0    1.54e+00    0    1.08e+00
2006 03 19  1725    53813   62700      0    1.52e+00    0    1.06e+00
2006 03 19  1730    53813   63000      0    1.48e+00    0    1.03e+00
2006 03 19  1735    53813   63300      0    1.53e+00    0    1.08e+00
2006 03 19  1740    53813   63600      0    1.53e+00    0    1.08e+00
2006 03 19  1745    53813   63900      0    1.48e+00    0    1.04e+00
2006 03 19  1750    53813   64200      0    1.52e+00    0    1.07e+00
2006 03 19  1755    53813   64500      0    1.57e+00    0    1.11e+00
2006 03 19  1800    53813   64800      0    1.53e+00    0    1.08e+00
2006 03 19  1805    53813   65100      0    1.49e+00    0    1.03e+00
2006 03 19  1810    53813   65400      0    1.54e+00    0    1.08e+00
2006 03 19  1815    53813   65700      0    1.50e+00    0    1.06e+00
2006 03 19  1820    53813   66000      0    1.53e+00    0    1.08e+00
2006 03 19  1825    53813   66300      0    1.54e+00    0    1.07e+00
2006 03 19  1830    53813   66600      0    1.50e+00    0    1.04e+00
2006 03 19  1835    53813   66900      0    1.53e+00    0    1.07e+00
2006 03 19  1840    53813   67200      0    1.50e+00    0    1.07e+00
2006 03 19  1845    53813   67500      0    1.51e+00    0    1.06e+00
2006 03 19  1850    53813   67800      0    1.52e+00    0    1.07e+00
2006 03 19  1855    53813   68100      0    1.49e+00    0    1.05e+00
2006 03 19  1900    53813   68400      0    1.53e+00    0    1.08e+00
2006 03 19  1905    53813   68700      0    1.48e+00    0    1.04e+00
2006 03 19  1910    53813   69000      0    1.52e+00    0    1.08e+00
2006 03 19  1915    53813   69300      0    1.54e+00    0    1.08e+00
2006 03 19  1920    53813   69600      0    1.52e+00    0    1.06e+00
2006 03 19  1925    53813   69900      0    1.52e+00    0    1.07e+00
2006 03 19  1930    53813   70200      0    1.53e+00    0    1.09e+00
2006 03 19  1935    53813   70500      0    1.50e+00    0    1.05e+00
2006 03 19  1940    53813   70800      0    1.53e+00    0    1.07e+00
2006 03 19  1945    53813   71100      0    1.51e+00    0    1.06e+00
2006 03 19  1950    53813   71400      0    1.51e+00    0    1.06e+00
2006 03 19  1955    53813   71700      0    1.50e+00    0    1.05e+00
2006 03 19  2000    53813   72000      0    1.53e+00    0    1.07e+00
2006 03 19  2005    53813   72300      0    1.46e+00    0    1.02e+00
2006 03 19  2010    53813   72600      0    1.53e+00    0    1.08e+00
2006 03 19  2015    53813   72900      0    1.52e+00    0    1.06e+00
2006 03 19  2020    53813   73200      0    1.50e+00    0    1.04e+00
2006 03 19  2025    53813   73500      0    1.52e+00    0    1.06e+00
2006 03 19  2030    53813   73800      0    1.49e+00    0    1.05e+00
2006 03 19  2035    53813   74100      0    1.50e+00    0    1.05e+00
2006 03 19  2040    53813   74400      0    1.52e+00    0    1.07e+00
2006 03 19  2045    53813   74700      0    1.50e+00    0    1.05e+00
2006 03 19  2050    53813   75000      0    1.50e+00    0    1.06e+00
2006 03 19  2055    53813   75300      0    1.53e+00    0    1.07e+00
2006 03 19  2100    53813   75600      0    1.51e+00    0    1.07e+00
2006 03 19  2105    53813   75900      0    1.52e+00    0    1.06e+00
2006 03 19  2110    53813   76200      0    1.50e+00    0    1.06e+00
2006 03 19  2115    53813   76500      0    1.49e+00    0    1.04e+00
2006 03 19  2120    53813   76800      0    1.52e+00    0    1.06e+00
2006 03 19  2125    53813   77100      0    1.48e+00    0    1.04e+00
2006 03 19  2130    53813   77400      0    1.49e+00    0    1.05e+00
2006 03 19  2135    53813   77700      0    1.50e+00    0    1.04e+00
2006 03 19  2140    53813   78000      0    1.55e+00    0    1.08e+00
2006 03 19  2145    53813   78300      0    1.51e+00    0    1.06e+00
2006 03 19  2150    53813   78600      0    1.51e+00    0    1.06e+00
2006 03 19  2155    53813   78900      0    1.54e+00    0    1.07e+00
2006 03 19  2200    53813   79200      0    1.51e+00    0    1.06e+00
2006 03 19  2205    53813   79500      0    1.55e+00    0    1.09e+00
2006 03 19  2210    53813   79800      0    1.53e+00    0    1.08e+00
2006 03 19  2215    53813   80100      0    1.54e+00    0    1.09e+00
2006 03 19  2220    53813   80400      0    1.52e+00    0    1.07e+00
2006 03 19  2225    53813   80700      0    1.54e+00    0    1.07e+00
2006 03 19  2230    53813   81000      0    1.52e+00    0    1.06e+00
2006 03 19  2235    53813   81300      0    1.51e+00    0    1.06e+00
2006 03 19  2240    53813   81600      0    1.51e+00    0    1.06e+00
2006 03 19  2245    53813   81900      0    1.51e+00    0    1.05e+00
2006 03 19  2250    53813   82200      0    1.52e+00    0    1.06e+00
2006 03 19  2255    53813   82500      0    1.49e+00    0    1.05e+00
2006 03 19  2300    53813   82800      0    1.55e+00    0    1.09e+00
2006 03 19  2305    53813   83100      0    1.48e+00    0    1.04e+00
2006 03 19  2310    53813   83400      0    1.50e+00    0    1.05e+00
2006 03 19  2315    53813   83700      0    1.52e+00    0    1.06e+00
2006 03 19  2320    53813   84000      0    1.52e+00    0    1.06e+00
2006 03 19  2325    53813   84300      0    1.51e+00    0    1.06e+00
2006 03 19  2330    53813   84600      0    1.50e+00    0    1.04e+00
2006 03 19  2335    53813   84900      0    1.50e+00    0    1.06e+00
2006 03 19  2340    53813   85200      0    1.52e+00    0    1.07e+00
2006 03 19  2345    53813   85500      0    1.54e+00    0    1.07e+00
2006 03 19  2350    53813   85800      0    1.49e+00    0    1.05e+00
2006 03 19  2355    53813   86100      0    1.50e+00    0    1.04e+00
