:Data_list: 20060815_ace_sis_5m.txt
:Created: 2006 Aug 16 0011 UT
# Prepared by the U.S. Dept. of Commerce, NOAA, Space Environment Center.
# Please send comments and suggestions to SEC.Webmaster@noaa.gov 
# 
# Units: proton flux p/cs2-sec-ster
# Status(S): 0 = nominal data, 1 to 8 = bad data record, 9 = no data
# Missing data values: -1.00e+05
# Source: ACE Satellite - Solar Isotope Spectrometer
#
# 5-minute averaged Real-time Integral Flux of High-energy Solar Protons
# 
#                 Modified Seconds
# UT Date   Time   Julian  of the      ---- Integral Proton Flux ----
# YR MO DA  HHMM     Day     Day       S    > 10 MeV    S    > 30 MeV
#--------------------------------------------------------------------
2006 08 15  0000    53962       0      0    1.64e+00    0    1.15e+00
2006 08 15  0005    53962     300      0    1.67e+00    0    1.18e+00
2006 08 15  0010    53962     600      0    1.71e+00    0    1.19e+00
2006 08 15  0015    53962     900      0    1.66e+00    0    1.17e+00
2006 08 15  0020    53962    1200      0    1.62e+00    0    1.13e+00
2006 08 15  0025    53962    1500      0    1.68e+00    0    1.17e+00
2006 08 15  0030    53962    1800      0    1.66e+00    0    1.17e+00
2006 08 15  0035    53962    2100      0    1.71e+00    0    1.18e+00
2006 08 15  0040    53962    2400      0    1.69e+00    0    1.18e+00
2006 08 15  0045    53962    2700      0    1.67e+00    0    1.17e+00
2006 08 15  0050    53962    3000      0    1.73e+00    0    1.22e+00
2006 08 15  0055    53962    3300      0    1.69e+00    0    1.20e+00
2006 08 15  0100    53962    3600      0    1.66e+00    0    1.16e+00
2006 08 15  0105    53962    3900      0    1.66e+00    0    1.17e+00
2006 08 15  0110    53962    4200      0    1.70e+00    0    1.20e+00
2006 08 15  0115    53962    4500      0    1.69e+00    0    1.18e+00
2006 08 15  0120    53962    4800      0    1.63e+00    0    1.14e+00
2006 08 15  0125    53962    5100      0    1.67e+00    0    1.18e+00
2006 08 15  0130    53962    5400      0    1.66e+00    0    1.17e+00
2006 08 15  0135    53962    5700      0    1.70e+00    0    1.21e+00
2006 08 15  0140    53962    6000      0    1.66e+00    0    1.17e+00
2006 08 15  0145    53962    6300      0    1.68e+00    0    1.17e+00
2006 08 15  0150    53962    6600      0    1.71e+00    0    1.20e+00
2006 08 15  0155    53962    6900      0    1.69e+00    0    1.19e+00
2006 08 15  0200    53962    7200      0    1.56e+00    0    1.09e+00
2006 08 15  0205    53962    7500      0    1.65e+00    0    1.16e+00
2006 08 15  0210    53962    7800      0    1.69e+00    0    1.19e+00
2006 08 15  0215    53962    8100      0    1.68e+00    0    1.17e+00
2006 08 15  0220    53962    8400      0    1.70e+00    0    1.19e+00
2006 08 15  0225    53962    8700      0    1.67e+00    0    1.18e+00
2006 08 15  0230    53962    9000      0    1.65e+00    0    1.14e+00
2006 08 15  0235    53962    9300      0    1.69e+00    0    1.18e+00
2006 08 15  0240    53962    9600      0    1.68e+00    0    1.18e+00
2006 08 15  0245    53962    9900      0    1.66e+00    0    1.16e+00
2006 08 15  0250    53962   10200      0    1.69e+00    0    1.19e+00
2006 08 15  0255    53962   10500      0    1.68e+00    0    1.16e+00
2006 08 15  0300    53962   10800      0    1.68e+00    0    1.18e+00
2006 08 15  0305    53962   11100      0    1.68e+00    0    1.18e+00
2006 08 15  0310    53962   11400      0    1.68e+00    0    1.18e+00
2006 08 15  0315    53962   11700      0    1.70e+00    0    1.18e+00
2006 08 15  0320    53962   12000      0    1.67e+00    0    1.17e+00
2006 08 15  0325    53962   12300      0    1.67e+00    0    1.16e+00
2006 08 15  0330    53962   12600      0    1.70e+00    0    1.19e+00
2006 08 15  0335    53962   12900      0    1.67e+00    0    1.16e+00
2006 08 15  0340    53962   13200      0    1.68e+00    0    1.18e+00
2006 08 15  0345    53962   13500      0    1.71e+00    0    1.20e+00
2006 08 15  0350    53962   13800      0    1.67e+00    0    1.15e+00
2006 08 15  0355    53962   14100      0    1.71e+00    0    1.21e+00
2006 08 15  0400    53962   14400      0    1.69e+00    0    1.18e+00
2006 08 15  0405    53962   14700      0    1.66e+00    0    1.16e+00
2006 08 15  0410    53962   15000      0    1.68e+00    0    1.17e+00
2006 08 15  0415    53962   15300      0    1.65e+00    0    1.16e+00
2006 08 15  0420    53962   15600      0    1.67e+00    0    1.18e+00
2006 08 15  0425    53962   15900      0    1.65e+00    0    1.15e+00
2006 08 15  0430    53962   16200      0    1.66e+00    0    1.17e+00
2006 08 15  0435    53962   16500      0    1.67e+00    0    1.16e+00
2006 08 15  0440    53962   16800      0    1.67e+00    0    1.18e+00
2006 08 15  0445    53962   17100      0    1.66e+00    0    1.16e+00
2006 08 15  0450    53962   17400      0    1.66e+00    0    1.15e+00
2006 08 15  0455    53962   17700      0    1.68e+00    0    1.17e+00
2006 08 15  0500    53962   18000      0    1.66e+00    0    1.17e+00
2006 08 15  0505    53962   18300      0    1.66e+00    0    1.17e+00
2006 08 15  0510    53962   18600      0    1.64e+00    0    1.15e+00
2006 08 15  0515    53962   18900      0    1.67e+00    0    1.17e+00
2006 08 15  0520    53962   19200      0    1.65e+00    0    1.16e+00
2006 08 15  0525    53962   19500      0    1.67e+00    0    1.16e+00
2006 08 15  0530    53962   19800      0    1.66e+00    0    1.16e+00
2006 08 15  0535    53962   20100      0    1.64e+00    0    1.16e+00
2006 08 15  0540    53962   20400      0    1.69e+00    0    1.19e+00
2006 08 15  0545    53962   20700      0    1.66e+00    0    1.16e+00
2006 08 15  0550    53962   21000      0    1.65e+00    0    1.18e+00
2006 08 15  0555    53962   21300      0    1.68e+00    0    1.18e+00
2006 08 15  0600    53962   21600      0    1.70e+00    0    1.19e+00
2006 08 15  0605    53962   21900      0    1.67e+00    0    1.17e+00
2006 08 15  0610    53962   22200      0    1.66e+00    0    1.16e+00
2006 08 15  0615    53962   22500      0    1.67e+00    0    1.16e+00
2006 08 15  0620    53962   22800      0    1.70e+00    0    1.20e+00
2006 08 15  0625    53962   23100      0    1.69e+00    0    1.18e+00
2006 08 15  0630    53962   23400      0    1.70e+00    0    1.19e+00
2006 08 15  0635    53962   23700      0    1.69e+00    0    1.18e+00
2006 08 15  0640    53962   24000      0    1.64e+00    0    1.14e+00
2006 08 15  0645    53962   24300      0    1.65e+00    0    1.15e+00
2006 08 15  0650    53962   24600      0    1.64e+00    0    1.15e+00
2006 08 15  0655    53962   24900      0    1.68e+00    0    1.18e+00
2006 08 15  0700    53962   25200      0    1.69e+00    0    1.19e+00
2006 08 15  0705    53962   25500      0    1.67e+00    0    1.15e+00
2006 08 15  0710    53962   25800      0    1.67e+00    0    1.17e+00
2006 08 15  0715    53962   26100      0    1.68e+00    0    1.18e+00
2006 08 15  0720    53962   26400      0    1.66e+00    0    1.16e+00
2006 08 15  0725    53962   26700      0    1.67e+00    0    1.17e+00
2006 08 15  0730    53962   27000      0    1.69e+00    0    1.19e+00
2006 08 15  0735    53962   27300      0    1.65e+00    0    1.16e+00
2006 08 15  0740    53962   27600      0    1.68e+00    0    1.18e+00
2006 08 15  0745    53962   27900      0    1.64e+00    0    1.15e+00
2006 08 15  0750    53962   28200      0    1.69e+00    0    1.19e+00
2006 08 15  0755    53962   28500      0    1.67e+00    0    1.17e+00
2006 08 15  0800    53962   28800      0    1.68e+00    0    1.18e+00
2006 08 15  0805    53962   29100      0    1.66e+00    0    1.17e+00
2006 08 15  0810    53962   29400      0    1.67e+00    0    1.16e+00
2006 08 15  0815    53962   29700      0    1.68e+00    0    1.19e+00
2006 08 15  0820    53962   30000      0    1.65e+00    0    1.16e+00
2006 08 15  0825    53962   30300      0    1.66e+00    0    1.15e+00
2006 08 15  0830    53962   30600      0    1.72e+00    0    1.20e+00
2006 08 15  0835    53962   30900      0    1.68e+00    0    1.18e+00
2006 08 15  0840    53962   31200      0    1.68e+00    0    1.16e+00
2006 08 15  0845    53962   31500      0    1.66e+00    0    1.16e+00
2006 08 15  0850    53962   31800      0    1.67e+00    0    1.16e+00
2006 08 15  0855    53962   32100      0    1.68e+00    0    1.17e+00
2006 08 15  0900    53962   32400      0    1.66e+00    0    1.17e+00
2006 08 15  0905    53962   32700      0    1.68e+00    0    1.18e+00
2006 08 15  0910    53962   33000      0    1.69e+00    0    1.15e+00
2006 08 15  0915    53962   33300      0    1.66e+00    0    1.14e+00
2006 08 15  0920    53962   33600      0    1.66e+00    0    1.17e+00
2006 08 15  0925    53962   33900      0    1.63e+00    0    1.15e+00
2006 08 15  0930    53962   34200      0    1.69e+00    0    1.19e+00
2006 08 15  0935    53962   34500      0    1.67e+00    0    1.16e+00
2006 08 15  0940    53962   34800      0    1.64e+00    0    1.14e+00
2006 08 15  0945    53962   35100      0    1.70e+00    0    1.22e+00
2006 08 15  0950    53962   35400      0    1.67e+00    0    1.18e+00
2006 08 15  0955    53962   35700      0    1.71e+00    0    1.21e+00
2006 08 15  1000    53962   36000      0    1.69e+00    0    1.18e+00
2006 08 15  1005    53962   36300      0    1.61e+00    0    1.13e+00
2006 08 15  1010    53962   36600      0    1.65e+00    0    1.15e+00
2006 08 15  1015    53962   36900      0    1.67e+00    0    1.17e+00
2006 08 15  1020    53962   37200      0    1.71e+00    0    1.20e+00
2006 08 15  1025    53962   37500      0    1.70e+00    0    1.18e+00
2006 08 15  1030    53962   37800      0    1.72e+00    0    1.20e+00
2006 08 15  1035    53962   38100      0    1.68e+00    0    1.18e+00
2006 08 15  1040    53962   38400      0    1.69e+00    0    1.19e+00
2006 08 15  1045    53962   38700      0    1.68e+00    0    1.17e+00
2006 08 15  1050    53962   39000      0    1.70e+00    0    1.19e+00
2006 08 15  1055    53962   39300      0    1.71e+00    0    1.21e+00
2006 08 15  1100    53962   39600      0    1.70e+00    0    1.21e+00
2006 08 15  1105    53962   39900      0    1.68e+00    0    1.17e+00
2006 08 15  1110    53962   40200      0    1.67e+00    0    1.18e+00
2006 08 15  1115    53962   40500      0    1.67e+00    0    1.18e+00
2006 08 15  1120    53962   40800      0    1.70e+00    0    1.20e+00
2006 08 15  1125    53962   41100      0    1.69e+00    0    1.17e+00
2006 08 15  1130    53962   41400      0    1.69e+00    0    1.18e+00
2006 08 15  1135    53962   41700      0    1.67e+00    0    1.17e+00
2006 08 15  1140    53962   42000      0    1.70e+00    0    1.21e+00
2006 08 15  1145    53962   42300      0    1.72e+00    0    1.19e+00
2006 08 15  1150    53962   42600      0    1.72e+00    0    1.20e+00
2006 08 15  1155    53962   42900      0    1.73e+00    0    1.21e+00
2006 08 15  1200    53962   43200      0    1.70e+00    0    1.20e+00
2006 08 15  1205    53962   43500      0    1.69e+00    0    1.18e+00
2006 08 15  1210    53962   43800      0    1.69e+00    0    1.18e+00
2006 08 15  1215    53962   44100      0    1.74e+00    0    1.23e+00
2006 08 15  1220    53962   44400      0    1.73e+00    0    1.22e+00
2006 08 15  1225    53962   44700      0    1.73e+00    0    1.22e+00
2006 08 15  1230    53962   45000      0    1.70e+00    0    1.19e+00
2006 08 15  1235    53962   45300      0    1.70e+00    0    1.20e+00
2006 08 15  1240    53962   45600      0    1.73e+00    0    1.22e+00
2006 08 15  1245    53962   45900      0    1.73e+00    0    1.21e+00
2006 08 15  1250    53962   46200      0    1.69e+00    0    1.19e+00
2006 08 15  1255    53962   46500      0    1.64e+00    0    1.14e+00
2006 08 15  1300    53962   46800      0    1.72e+00    0    1.20e+00
2006 08 15  1305    53962   47100      0    1.70e+00    0    1.19e+00
2006 08 15  1310    53962   47400      0    1.68e+00    0    1.18e+00
2006 08 15  1315    53962   47700      0    1.66e+00    0    1.17e+00
2006 08 15  1320    53962   48000      0    1.67e+00    0    1.18e+00
2006 08 15  1325    53962   48300      0    1.71e+00    0    1.20e+00
2006 08 15  1330    53962   48600      0    1.66e+00    0    1.16e+00
2006 08 15  1335    53962   48900      0    1.74e+00    0    1.22e+00
2006 08 15  1340    53962   49200      0    1.70e+00    0    1.19e+00
2006 08 15  1345    53962   49500      0    1.69e+00    0    1.19e+00
2006 08 15  1350    53962   49800      0    1.65e+00    0    1.15e+00
2006 08 15  1355    53962   50100      0    1.68e+00    0    1.17e+00
2006 08 15  1400    53962   50400      0    1.70e+00    0    1.19e+00
2006 08 15  1405    53962   50700      0    1.67e+00    0    1.16e+00
2006 08 15  1410    53962   51000      0    1.69e+00    0    1.18e+00
2006 08 15  1415    53962   51300      0    1.70e+00    0    1.21e+00
2006 08 15  1420    53962   51600      0    1.62e+00    0    1.14e+00
2006 08 15  1425    53962   51900      0    1.67e+00    0    1.17e+00
2006 08 15  1430    53962   52200      0    1.67e+00    0    1.17e+00
2006 08 15  1435    53962   52500      0    1.67e+00    0    1.16e+00
2006 08 15  1440    53962   52800      0    1.65e+00    0    1.18e+00
2006 08 15  1445    53962   53100      0    1.67e+00    0    1.17e+00
2006 08 15  1450    53962   53400      0    1.68e+00    0    1.18e+00
2006 08 15  1455    53962   53700      0    1.67e+00    0    1.15e+00
2006 08 15  1500    53962   54000      0    1.68e+00    0    1.19e+00
2006 08 15  1505    53962   54300      0    1.63e+00    0    1.14e+00
2006 08 15  1510    53962   54600      0    1.72e+00    0    1.21e+00
2006 08 15  1515    53962   54900      0    1.68e+00    0    1.17e+00
2006 08 15  1520    53962   55200      0    1.67e+00    0    1.15e+00
2006 08 15  1525    53962   55500      0    1.68e+00    0    1.18e+00
2006 08 15  1530    53962   55800      0    1.69e+00    0    1.19e+00
2006 08 15  1535    53962   56100      0    1.67e+00    0    1.17e+00
2006 08 15  1540    53962   56400      0    1.69e+00    0    1.19e+00
2006 08 15  1545    53962   56700      0    1.70e+00    0    1.19e+00
2006 08 15  1550    53962   57000      0    1.72e+00    0    1.21e+00
2006 08 15  1555    53962   57300      0    1.70e+00    0    1.20e+00
2006 08 15  1600    53962   57600      0    1.72e+00    0    1.21e+00
2006 08 15  1605    53962   57900      0    1.68e+00    0    1.17e+00
2006 08 15  1610    53962   58200      0    1.67e+00    0    1.17e+00
2006 08 15  1615    53962   58500      0    1.72e+00    0    1.21e+00
2006 08 15  1620    53962   58800      0    1.66e+00    0    1.17e+00
2006 08 15  1625    53962   59100      0    1.69e+00    0    1.19e+00
2006 08 15  1630    53962   59400      0    1.69e+00    0    1.19e+00
2006 08 15  1635    53962   59700      0    1.71e+00    0    1.20e+00
2006 08 15  1640    53962   60000      0    1.73e+00    0    1.20e+00
2006 08 15  1645    53962   60300      0    1.68e+00    0    1.19e+00
2006 08 15  1650    53962   60600      0    1.68e+00    0    1.19e+00
2006 08 15  1655    53962   60900      0    1.71e+00    0    1.20e+00
2006 08 15  1700    53962   61200      0    1.66e+00    0    1.16e+00
2006 08 15  1705    53962   61500      0    1.65e+00    0    1.13e+00
2006 08 15  1710    53962   61800      0    1.65e+00    0    1.15e+00
2006 08 15  1715    53962   62100      0    1.64e+00    0    1.15e+00
2006 08 15  1720    53962   62400      0    1.73e+00    0    1.22e+00
2006 08 15  1725    53962   62700      0    1.63e+00    0    1.14e+00
2006 08 15  1730    53962   63000      0    1.64e+00    0    1.15e+00
2006 08 15  1735    53962   63300      0    1.70e+00    0    1.19e+00
2006 08 15  1740    53962   63600      0    1.67e+00    0    1.17e+00
2006 08 15  1745    53962   63900      0    1.70e+00    0    1.20e+00
2006 08 15  1750    53962   64200      0    1.69e+00    0    1.17e+00
2006 08 15  1755    53962   64500      0    1.66e+00    0    1.15e+00
2006 08 15  1800    53962   64800      0    1.72e+00    0    1.20e+00
2006 08 15  1805    53962   65100      0    1.68e+00    0    1.18e+00
2006 08 15  1810    53962   65400      0    1.68e+00    0    1.18e+00
2006 08 15  1815    53962   65700      0    1.70e+00    0    1.19e+00
2006 08 15  1820    53962   66000      0    1.66e+00    0    1.17e+00
2006 08 15  1825    53962   66300      0    1.68e+00    0    1.17e+00
2006 08 15  1830    53962   66600      0    1.67e+00    0    1.16e+00
2006 08 15  1835    53962   66900      0    1.69e+00    0    1.19e+00
2006 08 15  1840    53962   67200      0    1.66e+00    0    1.17e+00
2006 08 15  1845    53962   67500      0    1.68e+00    0    1.17e+00
2006 08 15  1850    53962   67800      0    1.70e+00    0    1.20e+00
2006 08 15  1855    53962   68100      0    1.69e+00    0    1.18e+00
2006 08 15  1900    53962   68400      0    1.66e+00    0    1.17e+00
2006 08 15  1905    53962   68700      0    1.59e+00    0    1.12e+00
2006 08 15  1910    53962   69000      0    1.69e+00    0    1.18e+00
2006 08 15  1915    53962   69300      0    1.67e+00    0    1.17e+00
2006 08 15  1920    53962   69600      0    1.70e+00    0    1.19e+00
2006 08 15  1925    53962   69900      0    1.68e+00    0    1.17e+00
2006 08 15  1930    53962   70200      0    1.72e+00    0    1.20e+00
2006 08 15  1935    53962   70500      0    1.70e+00    0    1.20e+00
2006 08 15  1940    53962   70800      0    1.67e+00    0    1.16e+00
2006 08 15  1945    53962   71100      9   -1.00e+05    9   -1.00e+05
2006 08 15  1950    53962   71400      0    1.65e+00    0    1.17e+00
2006 08 15  1955    53962   71700      0    1.70e+00    0    1.18e+00
2006 08 15  2000    53962   72000      0    1.70e+00    0    1.20e+00
2006 08 15  2005    53962   72300      0    1.68e+00    0    1.18e+00
2006 08 15  2010    53962   72600      0    1.67e+00    0    1.18e+00
2006 08 15  2015    53962   72900      0    1.68e+00    0    1.18e+00
2006 08 15  2020    53962   73200      0    1.67e+00    0    1.17e+00
2006 08 15  2025    53962   73500      0    1.67e+00    0    1.16e+00
2006 08 15  2030    53962   73800      0    1.68e+00    0    1.18e+00
2006 08 15  2035    53962   74100      0    1.69e+00    0    1.20e+00
2006 08 15  2040    53962   74400      0    1.68e+00    0    1.18e+00
2006 08 15  2045    53962   74700      0    1.67e+00    0    1.17e+00
2006 08 15  2050    53962   75000      0    1.68e+00    0    1.18e+00
2006 08 15  2055    53962   75300      0    1.67e+00    0    1.15e+00
2006 08 15  2100    53962   75600      0    1.68e+00    0    1.18e+00
2006 08 15  2105    53962   75900      0    1.66e+00    0    1.17e+00
2006 08 15  2110    53962   76200      0    1.66e+00    0    1.16e+00
2006 08 15  2115    53962   76500      0    1.69e+00    0    1.18e+00
2006 08 15  2120    53962   76800      0    1.67e+00    0    1.16e+00
2006 08 15  2125    53962   77100      0    1.71e+00    0    1.19e+00
2006 08 15  2130    53962   77400      0    1.68e+00    0    1.18e+00
2006 08 15  2135    53962   77700      0    1.72e+00    0    1.22e+00
2006 08 15  2140    53962   78000      0    1.67e+00    0    1.17e+00
2006 08 15  2145    53962   78300      0    1.68e+00    0    1.18e+00
2006 08 15  2150    53962   78600      0    1.67e+00    0    1.16e+00
2006 08 15  2155    53962   78900      0    1.69e+00    0    1.18e+00
2006 08 15  2200    53962   79200      0    1.69e+00    0    1.19e+00
2006 08 15  2205    53962   79500      0    1.69e+00    0    1.18e+00
2006 08 15  2210    53962   79800      0    1.66e+00    0    1.17e+00
2006 08 15  2215    53962   80100      0    1.69e+00    0    1.18e+00
2006 08 15  2220    53962   80400      0    1.67e+00    0    1.16e+00
2006 08 15  2225    53962   80700      0    1.67e+00    0    1.18e+00
2006 08 15  2230    53962   81000      0    1.69e+00    0    1.18e+00
2006 08 15  2235    53962   81300      0    1.68e+00    0    1.18e+00
2006 08 15  2240    53962   81600      0    1.68e+00    0    1.19e+00
2006 08 15  2245    53962   81900      0    1.66e+00    0    1.16e+00
2006 08 15  2250    53962   82200      0    1.67e+00    0    1.17e+00
2006 08 15  2255    53962   82500      0    1.65e+00    0    1.16e+00
2006 08 15  2300    53962   82800      0    1.69e+00    0    1.18e+00
2006 08 15  2305    53962   83100      0    1.61e+00    0    1.14e+00
2006 08 15  2310    53962   83400      0    1.69e+00    0    1.18e+00
2006 08 15  2315    53962   83700      0    1.68e+00    0    1.17e+00
2006 08 15  2320    53962   84000      0    1.71e+00    0    1.20e+00
2006 08 15  2325    53962   84300      0    1.66e+00    0    1.16e+00
2006 08 15  2330    53962   84600      0    1.68e+00    0    1.18e+00
2006 08 15  2335    53962   84900      0    1.64e+00    0    1.15e+00
2006 08 15  2340    53962   85200      0    1.65e+00    0    1.15e+00
2006 08 15  2345    53962   85500      0    1.68e+00    0    1.20e+00
2006 08 15  2350    53962   85800      0    1.65e+00    0    1.15e+00
2006 08 15  2355    53962   86100      0    1.65e+00    0    1.16e+00
