:Data_list: 20060613_ace_sis_5m.txt
:Created: 2006 Jun 14 0011 UT
# Prepared by the U.S. Dept. of Commerce, NOAA, Space Environment Center.
# Please send comments and suggestions to SEC.Webmaster@noaa.gov 
# 
# Units: proton flux p/cs2-sec-ster
# Status(S): 0 = nominal data, 1 to 8 = bad data record, 9 = no data
# Missing data values: -1.00e+05
# Source: ACE Satellite - Solar Isotope Spectrometer
#
# 5-minute averaged Real-time Integral Flux of High-energy Solar Protons
# 
#                 Modified Seconds
# UT Date   Time   Julian  of the      ---- Integral Proton Flux ----
# YR MO DA  HHMM     Day     Day       S    > 10 MeV    S    > 30 MeV
#--------------------------------------------------------------------
2006 06 13  0000    53899       0      0    1.62e+00    0    1.13e+00
2006 06 13  0005    53899     300      0    1.64e+00    0    1.15e+00
2006 06 13  0010    53899     600      0    1.62e+00    0    1.15e+00
2006 06 13  0015    53899     900      0    1.60e+00    0    1.11e+00
2006 06 13  0020    53899    1200      0    1.58e+00    0    1.11e+00
2006 06 13  0025    53899    1500      0    1.63e+00    0    1.15e+00
2006 06 13  0030    53899    1800      0    1.63e+00    0    1.14e+00
2006 06 13  0035    53899    2100      0    1.62e+00    0    1.13e+00
2006 06 13  0040    53899    2400      0    1.62e+00    0    1.14e+00
2006 06 13  0045    53899    2700      0    1.64e+00    0    1.16e+00
2006 06 13  0050    53899    3000      0    1.65e+00    0    1.16e+00
2006 06 13  0055    53899    3300      0    1.64e+00    0    1.13e+00
2006 06 13  0100    53899    3600      0    1.63e+00    0    1.14e+00
2006 06 13  0105    53899    3900      0    1.61e+00    0    1.12e+00
2006 06 13  0110    53899    4200      0    1.64e+00    0    1.14e+00
2006 06 13  0115    53899    4500      0    1.61e+00    0    1.13e+00
2006 06 13  0120    53899    4800      0    1.61e+00    0    1.12e+00
2006 06 13  0125    53899    5100      0    1.65e+00    0    1.15e+00
2006 06 13  0130    53899    5400      0    1.56e+00    0    1.08e+00
2006 06 13  0135    53899    5700      0    1.61e+00    0    1.11e+00
2006 06 13  0140    53899    6000      0    1.64e+00    0    1.14e+00
2006 06 13  0145    53899    6300      0    1.62e+00    0    1.15e+00
2006 06 13  0150    53899    6600      0    1.64e+00    0    1.15e+00
2006 06 13  0155    53899    6900      0    1.62e+00    0    1.15e+00
2006 06 13  0200    53899    7200      0    1.61e+00    0    1.12e+00
2006 06 13  0205    53899    7500      0    1.64e+00    0    1.14e+00
2006 06 13  0210    53899    7800      0    1.62e+00    0    1.14e+00
2006 06 13  0215    53899    8100      0    1.62e+00    0    1.13e+00
2006 06 13  0220    53899    8400      0    1.65e+00    0    1.17e+00
2006 06 13  0225    53899    8700      0    1.63e+00    0    1.13e+00
2006 06 13  0230    53899    9000      0    1.64e+00    0    1.14e+00
2006 06 13  0235    53899    9300      0    1.60e+00    0    1.13e+00
2006 06 13  0240    53899    9600      0    1.61e+00    0    1.13e+00
2006 06 13  0245    53899    9900      0    1.64e+00    0    1.15e+00
2006 06 13  0250    53899   10200      0    1.68e+00    0    1.18e+00
2006 06 13  0255    53899   10500      0    1.65e+00    0    1.16e+00
2006 06 13  0300    53899   10800      0    1.65e+00    0    1.16e+00
2006 06 13  0305    53899   11100      0    1.65e+00    0    1.15e+00
2006 06 13  0310    53899   11400      0    1.64e+00    0    1.16e+00
2006 06 13  0315    53899   11700      0    1.62e+00    0    1.13e+00
2006 06 13  0320    53899   12000      0    1.62e+00    0    1.13e+00
2006 06 13  0325    53899   12300      0    1.61e+00    0    1.12e+00
2006 06 13  0330    53899   12600      0    1.63e+00    0    1.15e+00
2006 06 13  0335    53899   12900      0    1.61e+00    0    1.12e+00
2006 06 13  0340    53899   13200      0    1.68e+00    0    1.18e+00
2006 06 13  0345    53899   13500      0    1.63e+00    0    1.13e+00
2006 06 13  0350    53899   13800      0    1.63e+00    0    1.14e+00
2006 06 13  0355    53899   14100      0    1.65e+00    0    1.15e+00
2006 06 13  0400    53899   14400      0    1.63e+00    0    1.14e+00
2006 06 13  0405    53899   14700      0    1.68e+00    0    1.18e+00
2006 06 13  0410    53899   15000      0    1.60e+00    0    1.12e+00
2006 06 13  0415    53899   15300      0    1.66e+00    0    1.18e+00
2006 06 13  0420    53899   15600      0    1.63e+00    0    1.15e+00
2006 06 13  0425    53899   15900      0    1.69e+00    0    1.20e+00
2006 06 13  0430    53899   16200      0    1.64e+00    0    1.15e+00
2006 06 13  0435    53899   16500      0    1.61e+00    0    1.14e+00
2006 06 13  0440    53899   16800      0    1.63e+00    0    1.14e+00
2006 06 13  0445    53899   17100      0    1.63e+00    0    1.14e+00
2006 06 13  0450    53899   17400      0    1.64e+00    0    1.16e+00
2006 06 13  0455    53899   17700      0    1.59e+00    0    1.10e+00
2006 06 13  0500    53899   18000      0    1.63e+00    0    1.16e+00
2006 06 13  0505    53899   18300      0    1.61e+00    0    1.12e+00
2006 06 13  0510    53899   18600      0    1.63e+00    0    1.14e+00
2006 06 13  0515    53899   18900      0    1.59e+00    0    1.12e+00
2006 06 13  0520    53899   19200      0    1.62e+00    0    1.14e+00
2006 06 13  0525    53899   19500      0    1.62e+00    0    1.14e+00
2006 06 13  0530    53899   19800      0    1.66e+00    0    1.17e+00
2006 06 13  0535    53899   20100      0    1.63e+00    0    1.13e+00
2006 06 13  0540    53899   20400      0    1.58e+00    0    1.11e+00
2006 06 13  0545    53899   20700      0    1.59e+00    0    1.11e+00
2006 06 13  0550    53899   21000      0    1.59e+00    0    1.12e+00
2006 06 13  0555    53899   21300      0    1.66e+00    0    1.16e+00
2006 06 13  0600    53899   21600      0    1.65e+00    0    1.15e+00
2006 06 13  0605    53899   21900      0    1.60e+00    0    1.14e+00
2006 06 13  0610    53899   22200      0    1.61e+00    0    1.13e+00
2006 06 13  0615    53899   22500      0    1.62e+00    0    1.13e+00
2006 06 13  0620    53899   22800      0    1.61e+00    0    1.12e+00
2006 06 13  0625    53899   23100      0    1.61e+00    0    1.13e+00
2006 06 13  0630    53899   23400      0    1.61e+00    0    1.14e+00
2006 06 13  0635    53899   23700      0    1.63e+00    0    1.15e+00
2006 06 13  0640    53899   24000      0    1.61e+00    0    1.14e+00
2006 06 13  0645    53899   24300      0    1.66e+00    0    1.17e+00
2006 06 13  0650    53899   24600      0    1.64e+00    0    1.14e+00
2006 06 13  0655    53899   24900      0    1.65e+00    0    1.16e+00
2006 06 13  0700    53899   25200      0    1.65e+00    0    1.15e+00
2006 06 13  0705    53899   25500      0    1.61e+00    0    1.13e+00
2006 06 13  0710    53899   25800      0    1.59e+00    0    1.14e+00
2006 06 13  0715    53899   26100      0    1.63e+00    0    1.15e+00
2006 06 13  0720    53899   26400      0    1.66e+00    0    1.18e+00
2006 06 13  0725    53899   26700      0    1.64e+00    0    1.14e+00
2006 06 13  0730    53899   27000      0    1.64e+00    0    1.15e+00
2006 06 13  0735    53899   27300      0    1.64e+00    0    1.15e+00
2006 06 13  0740    53899   27600      0    1.60e+00    0    1.12e+00
2006 06 13  0745    53899   27900      0    1.65e+00    0    1.16e+00
2006 06 13  0750    53899   28200      0    1.63e+00    0    1.15e+00
2006 06 13  0755    53899   28500      0    1.61e+00    0    1.12e+00
2006 06 13  0800    53899   28800      0    1.61e+00    0    1.14e+00
2006 06 13  0805    53899   29100      0    1.63e+00    0    1.14e+00
2006 06 13  0810    53899   29400      0    1.64e+00    0    1.16e+00
2006 06 13  0815    53899   29700      0    1.63e+00    0    1.16e+00
2006 06 13  0820    53899   30000      0    1.59e+00    0    1.12e+00
2006 06 13  0825    53899   30300      0    1.61e+00    0    1.13e+00
2006 06 13  0830    53899   30600      0    1.63e+00    0    1.13e+00
2006 06 13  0835    53899   30900      0    1.64e+00    0    1.13e+00
2006 06 13  0840    53899   31200      0    1.62e+00    0    1.14e+00
2006 06 13  0845    53899   31500      0    1.64e+00    0    1.14e+00
2006 06 13  0850    53899   31800      0    1.62e+00    0    1.14e+00
2006 06 13  0855    53899   32100      0    1.61e+00    0    1.12e+00
2006 06 13  0900    53899   32400      0    1.63e+00    0    1.15e+00
2006 06 13  0905    53899   32700      0    1.60e+00    0    1.13e+00
2006 06 13  0910    53899   33000      0    1.62e+00    0    1.14e+00
2006 06 13  0915    53899   33300      0    1.63e+00    0    1.15e+00
2006 06 13  0920    53899   33600      0    1.63e+00    0    1.14e+00
2006 06 13  0925    53899   33900      0    1.57e+00    0    1.10e+00
2006 06 13  0930    53899   34200      0    1.53e+00    0    1.07e+00
2006 06 13  0935    53899   34500      0    1.61e+00    0    1.13e+00
2006 06 13  0940    53899   34800      0    1.60e+00    0    1.11e+00
2006 06 13  0945    53899   35100      0    1.62e+00    0    1.13e+00
2006 06 13  0950    53899   35400      0    1.63e+00    0    1.14e+00
2006 06 13  0955    53899   35700      0    1.61e+00    0    1.13e+00
2006 06 13  1000    53899   36000      0    1.63e+00    0    1.14e+00
2006 06 13  1005    53899   36300      0    1.61e+00    0    1.13e+00
2006 06 13  1010    53899   36600      0    1.61e+00    0    1.12e+00
2006 06 13  1015    53899   36900      0    1.60e+00    0    1.12e+00
2006 06 13  1020    53899   37200      0    1.65e+00    0    1.16e+00
2006 06 13  1025    53899   37500      0    1.60e+00    0    1.12e+00
2006 06 13  1030    53899   37800      0    1.61e+00    0    1.13e+00
2006 06 13  1035    53899   38100      0    1.59e+00    0    1.11e+00
2006 06 13  1040    53899   38400      0    1.60e+00    0    1.12e+00
2006 06 13  1045    53899   38700      0    1.61e+00    0    1.14e+00
2006 06 13  1050    53899   39000      0    1.64e+00    0    1.14e+00
2006 06 13  1055    53899   39300      0    1.61e+00    0    1.13e+00
2006 06 13  1100    53899   39600      0    1.63e+00    0    1.15e+00
2006 06 13  1105    53899   39900      0    1.62e+00    0    1.15e+00
2006 06 13  1110    53899   40200      0    1.64e+00    0    1.14e+00
2006 06 13  1115    53899   40500      0    1.65e+00    0    1.16e+00
2006 06 13  1120    53899   40800      0    1.63e+00    0    1.14e+00
2006 06 13  1125    53899   41100      0    1.66e+00    0    1.18e+00
2006 06 13  1130    53899   41400      0    1.64e+00    0    1.14e+00
2006 06 13  1135    53899   41700      0    1.62e+00    0    1.14e+00
2006 06 13  1140    53899   42000      0    1.63e+00    0    1.15e+00
2006 06 13  1145    53899   42300      0    1.64e+00    0    1.15e+00
2006 06 13  1150    53899   42600      0    1.57e+00    0    1.11e+00
2006 06 13  1155    53899   42900      0    1.61e+00    0    1.13e+00
2006 06 13  1200    53899   43200      0    1.58e+00    0    1.11e+00
2006 06 13  1205    53899   43500      0    1.61e+00    0    1.12e+00
2006 06 13  1210    53899   43800      0    1.67e+00    0    1.18e+00
2006 06 13  1215    53899   44100      0    1.63e+00    0    1.13e+00
2006 06 13  1220    53899   44400      0    1.65e+00    0    1.16e+00
2006 06 13  1225    53899   44700      0    1.60e+00    0    1.12e+00
2006 06 13  1230    53899   45000      0    1.64e+00    0    1.16e+00
2006 06 13  1235    53899   45300      0    1.61e+00    0    1.13e+00
2006 06 13  1240    53899   45600      0    1.63e+00    0    1.14e+00
2006 06 13  1245    53899   45900      0    1.61e+00    0    1.13e+00
2006 06 13  1250    53899   46200      0    1.62e+00    0    1.14e+00
2006 06 13  1255    53899   46500      0    1.62e+00    0    1.13e+00
2006 06 13  1300    53899   46800      0    1.60e+00    0    1.12e+00
2006 06 13  1305    53899   47100      0    1.64e+00    0    1.15e+00
2006 06 13  1310    53899   47400      0    1.56e+00    0    1.10e+00
2006 06 13  1315    53899   47700      0    1.57e+00    0    1.09e+00
2006 06 13  1320    53899   48000      0    1.65e+00    0    1.16e+00
2006 06 13  1325    53899   48300      0    1.64e+00    0    1.15e+00
2006 06 13  1330    53899   48600      0    1.61e+00    0    1.12e+00
2006 06 13  1335    53899   48900      0    1.63e+00    0    1.15e+00
2006 06 13  1340    53899   49200      0    1.62e+00    0    1.14e+00
2006 06 13  1345    53899   49500      0    1.63e+00    0    1.15e+00
2006 06 13  1350    53899   49800      0    1.66e+00    0    1.15e+00
2006 06 13  1355    53899   50100      0    1.61e+00    0    1.12e+00
2006 06 13  1400    53899   50400      0    1.62e+00    0    1.14e+00
2006 06 13  1405    53899   50700      0    1.63e+00    0    1.15e+00
2006 06 13  1410    53899   51000      0    1.63e+00    0    1.15e+00
2006 06 13  1415    53899   51300      0    1.59e+00    0    1.11e+00
2006 06 13  1420    53899   51600      0    1.60e+00    0    1.10e+00
2006 06 13  1425    53899   51900      0    1.62e+00    0    1.14e+00
2006 06 13  1430    53899   52200      0    1.63e+00    0    1.14e+00
2006 06 13  1435    53899   52500      0    1.62e+00    0    1.12e+00
2006 06 13  1440    53899   52800      0    1.68e+00    0    1.17e+00
2006 06 13  1445    53899   53100      0    1.59e+00    0    1.11e+00
2006 06 13  1450    53899   53400      0    1.64e+00    0    1.16e+00
2006 06 13  1455    53899   53700      0    1.61e+00    0    1.14e+00
2006 06 13  1500    53899   54000      0    1.60e+00    0    1.13e+00
2006 06 13  1505    53899   54300      0    1.59e+00    0    1.12e+00
2006 06 13  1510    53899   54600      0    1.61e+00    0    1.13e+00
2006 06 13  1515    53899   54900      0    1.61e+00    0    1.13e+00
2006 06 13  1520    53899   55200      0    1.64e+00    0    1.14e+00
2006 06 13  1525    53899   55500      0    1.62e+00    0    1.14e+00
2006 06 13  1530    53899   55800      0    1.59e+00    0    1.11e+00
2006 06 13  1535    53899   56100      0    1.62e+00    0    1.13e+00
2006 06 13  1540    53899   56400      0    1.58e+00    0    1.11e+00
2006 06 13  1545    53899   56700      0    1.59e+00    0    1.12e+00
2006 06 13  1550    53899   57000      0    1.61e+00    0    1.12e+00
2006 06 13  1555    53899   57300      0    1.65e+00    0    1.17e+00
2006 06 13  1600    53899   57600      0    1.64e+00    0    1.16e+00
2006 06 13  1605    53899   57900      0    1.61e+00    0    1.13e+00
2006 06 13  1610    53899   58200      0    1.59e+00    0    1.10e+00
2006 06 13  1615    53899   58500      0    1.63e+00    0    1.14e+00
2006 06 13  1620    53899   58800      0    1.60e+00    0    1.13e+00
2006 06 13  1625    53899   59100      0    1.59e+00    0    1.12e+00
2006 06 13  1630    53899   59400      0    1.61e+00    0    1.13e+00
2006 06 13  1635    53899   59700      0    1.63e+00    0    1.14e+00
2006 06 13  1640    53899   60000      0    1.61e+00    0    1.12e+00
2006 06 13  1645    53899   60300      0    1.62e+00    0    1.15e+00
2006 06 13  1650    53899   60600      0    1.64e+00    0    1.15e+00
2006 06 13  1655    53899   60900      0    1.60e+00    0    1.12e+00
2006 06 13  1700    53899   61200      0    1.63e+00    0    1.13e+00
2006 06 13  1705    53899   61500      0    1.61e+00    0    1.14e+00
2006 06 13  1710    53899   61800      0    1.65e+00    0    1.16e+00
2006 06 13  1715    53899   62100      0    1.63e+00    0    1.13e+00
2006 06 13  1720    53899   62400      0    1.63e+00    0    1.14e+00
2006 06 13  1725    53899   62700      0    1.62e+00    0    1.15e+00
2006 06 13  1730    53899   63000      0    1.60e+00    0    1.12e+00
2006 06 13  1735    53899   63300      0    1.64e+00    0    1.15e+00
2006 06 13  1740    53899   63600      0    1.60e+00    0    1.13e+00
2006 06 13  1745    53899   63900      0    1.62e+00    0    1.14e+00
2006 06 13  1750    53899   64200      0    1.66e+00    0    1.16e+00
2006 06 13  1755    53899   64500      0    1.58e+00    0    1.10e+00
2006 06 13  1800    53899   64800      0    1.63e+00    0    1.15e+00
2006 06 13  1805    53899   65100      0    1.64e+00    0    1.16e+00
2006 06 13  1810    53899   65400      0    1.59e+00    0    1.12e+00
2006 06 13  1815    53899   65700      0    1.58e+00    0    1.11e+00
2006 06 13  1820    53899   66000      0    1.61e+00    0    1.12e+00
2006 06 13  1825    53899   66300      0    1.59e+00    0    1.11e+00
2006 06 13  1830    53899   66600      0    1.59e+00    0    1.12e+00
2006 06 13  1835    53899   66900      0    1.63e+00    0    1.15e+00
2006 06 13  1840    53899   67200      0    1.60e+00    0    1.13e+00
2006 06 13  1845    53899   67500      0    1.60e+00    0    1.12e+00
2006 06 13  1850    53899   67800      0    1.60e+00    0    1.12e+00
2006 06 13  1855    53899   68100      0    1.61e+00    0    1.12e+00
2006 06 13  1900    53899   68400      0    1.60e+00    0    1.12e+00
2006 06 13  1905    53899   68700      0    1.64e+00    0    1.15e+00
2006 06 13  1910    53899   69000      0    1.59e+00    0    1.12e+00
2006 06 13  1915    53899   69300      0    1.59e+00    0    1.10e+00
2006 06 13  1920    53899   69600      0    1.66e+00    0    1.16e+00
2006 06 13  1925    53899   69900      0    1.61e+00    0    1.13e+00
2006 06 13  1930    53899   70200      0    1.62e+00    0    1.14e+00
2006 06 13  1935    53899   70500      0    1.66e+00    0    1.17e+00
2006 06 13  1940    53899   70800      0    1.64e+00    0    1.14e+00
2006 06 13  1945    53899   71100      0    1.68e+00    0    1.17e+00
2006 06 13  1950    53899   71400      0    1.66e+00    0    1.16e+00
2006 06 13  1955    53899   71700      0    1.58e+00    0    1.11e+00
2006 06 13  2000    53899   72000      0    1.63e+00    0    1.13e+00
2006 06 13  2005    53899   72300      0    1.63e+00    0    1.14e+00
2006 06 13  2010    53899   72600      0    1.61e+00    0    1.12e+00
2006 06 13  2015    53899   72900      0    1.62e+00    0    1.13e+00
2006 06 13  2020    53899   73200      0    1.62e+00    0    1.14e+00
2006 06 13  2025    53899   73500      0    1.61e+00    0    1.13e+00
2006 06 13  2030    53899   73800      0    1.61e+00    0    1.13e+00
2006 06 13  2035    53899   74100      0    1.61e+00    0    1.13e+00
2006 06 13  2040    53899   74400      0    1.58e+00    0    1.11e+00
2006 06 13  2045    53899   74700      0    1.59e+00    0    1.12e+00
2006 06 13  2050    53899   75000      0    1.63e+00    0    1.14e+00
2006 06 13  2055    53899   75300      0    1.60e+00    0    1.12e+00
2006 06 13  2100    53899   75600      0    1.63e+00    0    1.15e+00
2006 06 13  2105    53899   75900      0    1.60e+00    0    1.11e+00
2006 06 13  2110    53899   76200      0    1.61e+00    0    1.13e+00
2006 06 13  2115    53899   76500      0    1.57e+00    0    1.09e+00
2006 06 13  2120    53899   76800      0    1.62e+00    0    1.14e+00
2006 06 13  2125    53899   77100      0    1.63e+00    0    1.14e+00
2006 06 13  2130    53899   77400      0    1.66e+00    0    1.17e+00
2006 06 13  2135    53899   77700      0    1.62e+00    0    1.14e+00
2006 06 13  2140    53899   78000      0    1.64e+00    0    1.17e+00
2006 06 13  2145    53899   78300      0    1.63e+00    0    1.15e+00
2006 06 13  2150    53899   78600      0    1.62e+00    0    1.14e+00
2006 06 13  2155    53899   78900      0    1.61e+00    0    1.12e+00
2006 06 13  2200    53899   79200      0    1.63e+00    0    1.13e+00
2006 06 13  2205    53899   79500      0    1.59e+00    0    1.12e+00
2006 06 13  2210    53899   79800      0    1.60e+00    0    1.11e+00
2006 06 13  2215    53899   80100      0    1.63e+00    0    1.14e+00
2006 06 13  2220    53899   80400      0    1.63e+00    0    1.14e+00
2006 06 13  2225    53899   80700      0    1.62e+00    0    1.12e+00
2006 06 13  2230    53899   81000      0    1.61e+00    0    1.12e+00
2006 06 13  2235    53899   81300      0    1.60e+00    0    1.13e+00
2006 06 13  2240    53899   81600      0    1.63e+00    0    1.13e+00
2006 06 13  2245    53899   81900      0    1.61e+00    0    1.13e+00
2006 06 13  2250    53899   82200      0    1.62e+00    0    1.14e+00
2006 06 13  2255    53899   82500      0    1.61e+00    0    1.12e+00
2006 06 13  2300    53899   82800      0    1.61e+00    0    1.13e+00
2006 06 13  2305    53899   83100      0    1.61e+00    0    1.12e+00
2006 06 13  2310    53899   83400      0    1.63e+00    0    1.16e+00
2006 06 13  2315    53899   83700      0    1.62e+00    0    1.12e+00
2006 06 13  2320    53899   84000      0    1.62e+00    0    1.12e+00
2006 06 13  2325    53899   84300      0    1.61e+00    0    1.13e+00
2006 06 13  2330    53899   84600      0    1.65e+00    0    1.16e+00
2006 06 13  2335    53899   84900      0    1.64e+00    0    1.14e+00
2006 06 13  2340    53899   85200      0    1.62e+00    0    1.13e+00
2006 06 13  2345    53899   85500      0    1.62e+00    0    1.12e+00
2006 06 13  2350    53899   85800      0    1.63e+00    0    1.14e+00
2006 06 13  2355    53899   86100      0    1.60e+00    0    1.11e+00
