:Data_list: 20060321_ace_sis_5m.txt
:Created: 2006 Mar 22 0011 UT
# Prepared by the U.S. Dept. of Commerce, NOAA, Space Environment Center.
# Please send comments and suggestions to SEC.Webmaster@noaa.gov 
# 
# Units: proton flux p/cs2-sec-ster
# Status(S): 0 = nominal data, 1 to 8 = bad data record, 9 = no data
# Missing data values: -1.00e+05
# Source: ACE Satellite - Solar Isotope Spectrometer
#
# 5-minute averaged Real-time Integral Flux of High-energy Solar Protons
# 
#                 Modified Seconds
# UT Date   Time   Julian  of the      ---- Integral Proton Flux ----
# YR MO DA  HHMM     Day     Day       S    > 10 MeV    S    > 30 MeV
#--------------------------------------------------------------------
2006 03 21  0000    53815       0      0    1.48e+00    0    1.04e+00
2006 03 21  0005    53815     300      0    1.54e+00    0    1.09e+00
2006 03 21  0010    53815     600      0    1.49e+00    0    1.04e+00
2006 03 21  0015    53815     900      0    1.49e+00    0    1.05e+00
2006 03 21  0020    53815    1200      0    1.51e+00    0    1.07e+00
2006 03 21  0025    53815    1500      0    1.53e+00    0    1.07e+00
2006 03 21  0030    53815    1800      0    1.57e+00    0    1.09e+00
2006 03 21  0035    53815    2100      0    1.52e+00    0    1.06e+00
2006 03 21  0040    53815    2400      0    1.49e+00    0    1.04e+00
2006 03 21  0045    53815    2700      0    1.56e+00    0    1.10e+00
2006 03 21  0050    53815    3000      0    1.52e+00    0    1.06e+00
2006 03 21  0055    53815    3300      0    1.51e+00    0    1.07e+00
2006 03 21  0100    53815    3600      0    1.50e+00    0    1.04e+00
2006 03 21  0105    53815    3900      0    1.50e+00    0    1.05e+00
2006 03 21  0110    53815    4200      0    1.49e+00    0    1.04e+00
2006 03 21  0115    53815    4500      0    1.53e+00    0    1.07e+00
2006 03 21  0120    53815    4800      0    1.53e+00    0    1.09e+00
2006 03 21  0125    53815    5100      0    1.50e+00    0    1.05e+00
2006 03 21  0130    53815    5400      0    1.53e+00    0    1.09e+00
2006 03 21  0135    53815    5700      0    1.49e+00    0    1.05e+00
2006 03 21  0140    53815    6000      0    1.53e+00    0    1.07e+00
2006 03 21  0145    53815    6300      0    1.52e+00    0    1.06e+00
2006 03 21  0150    53815    6600      0    1.51e+00    0    1.06e+00
2006 03 21  0155    53815    6900      0    1.51e+00    0    1.05e+00
2006 03 21  0200    53815    7200      0    1.51e+00    0    1.06e+00
2006 03 21  0205    53815    7500      0    1.52e+00    0    1.06e+00
2006 03 21  0210    53815    7800      0    1.51e+00    0    1.05e+00
2006 03 21  0215    53815    8100      0    1.54e+00    0    1.08e+00
2006 03 21  0220    53815    8400      0    1.51e+00    0    1.06e+00
2006 03 21  0225    53815    8700      0    1.51e+00    0    1.06e+00
2006 03 21  0230    53815    9000      0    1.49e+00    0    1.05e+00
2006 03 21  0235    53815    9300      0    1.51e+00    0    1.06e+00
2006 03 21  0240    53815    9600      0    1.51e+00    0    1.06e+00
2006 03 21  0245    53815    9900      0    1.54e+00    0    1.07e+00
2006 03 21  0250    53815   10200      0    1.50e+00    0    1.05e+00
2006 03 21  0255    53815   10500      0    1.53e+00    0    1.08e+00
2006 03 21  0300    53815   10800      0    1.52e+00    0    1.06e+00
2006 03 21  0305    53815   11100      0    1.46e+00    0    1.03e+00
2006 03 21  0310    53815   11400      0    1.49e+00    0    1.05e+00
2006 03 21  0315    53815   11700      0    1.52e+00    0    1.06e+00
2006 03 21  0320    53815   12000      0    1.54e+00    0    1.08e+00
2006 03 21  0325    53815   12300      0    1.50e+00    0    1.06e+00
2006 03 21  0330    53815   12600      0    1.50e+00    0    1.05e+00
2006 03 21  0335    53815   12900      0    1.50e+00    0    1.06e+00
2006 03 21  0340    53815   13200      0    1.50e+00    0    1.07e+00
2006 03 21  0345    53815   13500      0    1.47e+00    0    1.02e+00
2006 03 21  0350    53815   13800      0    1.52e+00    0    1.06e+00
2006 03 21  0355    53815   14100      0    1.51e+00    0    1.06e+00
2006 03 21  0400    53815   14400      0    1.50e+00    0    1.05e+00
2006 03 21  0405    53815   14700      0    1.51e+00    0    1.07e+00
2006 03 21  0410    53815   15000      0    1.51e+00    0    1.05e+00
2006 03 21  0415    53815   15300      0    1.46e+00    0    1.03e+00
2006 03 21  0420    53815   15600      0    1.55e+00    0    1.07e+00
2006 03 21  0425    53815   15900      0    1.51e+00    0    1.07e+00
2006 03 21  0430    53815   16200      0    1.44e+00    0    1.00e+00
2006 03 21  0435    53815   16500      0    1.51e+00    0    1.07e+00
2006 03 21  0440    53815   16800      0    1.48e+00    0    1.03e+00
2006 03 21  0445    53815   17100      0    1.52e+00    0    1.08e+00
2006 03 21  0450    53815   17400      0    1.50e+00    0    1.05e+00
2006 03 21  0455    53815   17700      0    1.50e+00    0    1.06e+00
2006 03 21  0500    53815   18000      0    1.54e+00    0    1.08e+00
2006 03 21  0505    53815   18300      0    1.46e+00    0    1.02e+00
2006 03 21  0510    53815   18600      0    1.50e+00    0    1.05e+00
2006 03 21  0515    53815   18900      0    1.50e+00    0    1.05e+00
2006 03 21  0520    53815   19200      0    1.49e+00    0    1.04e+00
2006 03 21  0525    53815   19500      0    1.51e+00    0    1.06e+00
2006 03 21  0530    53815   19800      0    1.50e+00    0    1.06e+00
2006 03 21  0535    53815   20100      0    1.53e+00    0    1.06e+00
2006 03 21  0540    53815   20400      0    1.48e+00    0    1.04e+00
2006 03 21  0545    53815   20700      0    1.53e+00    0    1.08e+00
2006 03 21  0550    53815   21000      0    1.50e+00    0    1.05e+00
2006 03 21  0555    53815   21300      0    1.52e+00    0    1.07e+00
2006 03 21  0600    53815   21600      0    1.50e+00    0    1.05e+00
2006 03 21  0605    53815   21900      0    1.55e+00    0    1.08e+00
2006 03 21  0610    53815   22200      0    1.50e+00    0    1.05e+00
2006 03 21  0615    53815   22500      0    1.52e+00    0    1.06e+00
2006 03 21  0620    53815   22800      0    1.52e+00    0    1.08e+00
2006 03 21  0625    53815   23100      0    1.49e+00    0    1.03e+00
2006 03 21  0630    53815   23400      0    1.50e+00    0    1.06e+00
2006 03 21  0635    53815   23700      0    1.51e+00    0    1.06e+00
2006 03 21  0640    53815   24000      0    1.56e+00    0    1.08e+00
2006 03 21  0645    53815   24300      0    1.53e+00    0    1.09e+00
2006 03 21  0650    53815   24600      0    1.52e+00    0    1.07e+00
2006 03 21  0655    53815   24900      0    1.55e+00    0    1.08e+00
2006 03 21  0700    53815   25200      0    1.53e+00    0    1.08e+00
2006 03 21  0705    53815   25500      0    1.52e+00    0    1.07e+00
2006 03 21  0710    53815   25800      0    1.50e+00    0    1.05e+00
2006 03 21  0715    53815   26100      0    1.51e+00    0    1.06e+00
2006 03 21  0720    53815   26400      0    1.52e+00    0    1.08e+00
2006 03 21  0725    53815   26700      0    1.54e+00    0    1.08e+00
2006 03 21  0730    53815   27000      0    1.53e+00    0    1.07e+00
2006 03 21  0735    53815   27300      0    1.54e+00    0    1.07e+00
2006 03 21  0740    53815   27600      0    1.52e+00    0    1.07e+00
2006 03 21  0745    53815   27900      0    1.50e+00    0    1.05e+00
2006 03 21  0750    53815   28200      0    1.51e+00    0    1.04e+00
2006 03 21  0755    53815   28500      0    1.51e+00    0    1.05e+00
2006 03 21  0800    53815   28800      0    1.53e+00    0    1.08e+00
2006 03 21  0805    53815   29100      0    1.50e+00    0    1.06e+00
2006 03 21  0810    53815   29400      0    1.52e+00    0    1.07e+00
2006 03 21  0815    53815   29700      0    1.53e+00    0    1.08e+00
2006 03 21  0820    53815   30000      0    1.50e+00    0    1.05e+00
2006 03 21  0825    53815   30300      0    1.51e+00    0    1.06e+00
2006 03 21  0830    53815   30600      0    1.48e+00    0    1.04e+00
2006 03 21  0835    53815   30900      0    1.57e+00    0    1.10e+00
2006 03 21  0840    53815   31200      0    1.52e+00    0    1.06e+00
2006 03 21  0845    53815   31500      0    1.53e+00    0    1.07e+00
2006 03 21  0850    53815   31800      0    1.45e+00    0    1.02e+00
2006 03 21  0855    53815   32100      0    1.52e+00    0    1.07e+00
2006 03 21  0900    53815   32400      0    1.49e+00    0    1.04e+00
2006 03 21  0905    53815   32700      0    1.54e+00    0    1.07e+00
2006 03 21  0910    53815   33000      0    1.52e+00    0    1.07e+00
2006 03 21  0915    53815   33300      0    1.53e+00    0    1.08e+00
2006 03 21  0920    53815   33600      0    1.54e+00    0    1.08e+00
2006 03 21  0925    53815   33900      0    1.56e+00    0    1.09e+00
2006 03 21  0930    53815   34200      0    1.51e+00    0    1.06e+00
2006 03 21  0935    53815   34500      0    1.52e+00    0    1.05e+00
2006 03 21  0940    53815   34800      0    1.53e+00    0    1.08e+00
2006 03 21  0945    53815   35100      0    1.50e+00    0    1.06e+00
2006 03 21  0950    53815   35400      0    1.55e+00    0    1.09e+00
2006 03 21  0955    53815   35700      0    1.50e+00    0    1.05e+00
2006 03 21  1000    53815   36000      0    1.50e+00    0    1.04e+00
2006 03 21  1005    53815   36300      0    1.51e+00    0    1.06e+00
2006 03 21  1010    53815   36600      0    1.52e+00    0    1.07e+00
2006 03 21  1015    53815   36900      0    1.54e+00    0    1.07e+00
2006 03 21  1020    53815   37200      0    1.53e+00    0    1.09e+00
2006 03 21  1025    53815   37500      0    1.51e+00    0    1.05e+00
2006 03 21  1030    53815   37800      0    1.54e+00    0    1.08e+00
2006 03 21  1035    53815   38100      0    1.52e+00    0    1.07e+00
2006 03 21  1040    53815   38400      0    1.51e+00    0    1.05e+00
2006 03 21  1045    53815   38700      0    1.52e+00    0    1.07e+00
2006 03 21  1050    53815   39000      0    1.53e+00    0    1.07e+00
2006 03 21  1055    53815   39300      0    1.54e+00    0    1.08e+00
2006 03 21  1100    53815   39600      0    1.54e+00    0    1.09e+00
2006 03 21  1105    53815   39900      0    1.52e+00    0    1.07e+00
2006 03 21  1110    53815   40200      0    1.53e+00    0    1.08e+00
2006 03 21  1115    53815   40500      0    1.55e+00    0    1.10e+00
2006 03 21  1120    53815   40800      0    1.51e+00    0    1.06e+00
2006 03 21  1125    53815   41100      0    1.48e+00    0    1.03e+00
2006 03 21  1130    53815   41400      0    1.50e+00    0    1.06e+00
2006 03 21  1135    53815   41700      0    1.55e+00    0    1.08e+00
2006 03 21  1140    53815   42000      0    1.55e+00    0    1.09e+00
2006 03 21  1145    53815   42300      0    1.51e+00    0    1.06e+00
2006 03 21  1150    53815   42600      0    1.52e+00    0    1.06e+00
2006 03 21  1155    53815   42900      0    1.52e+00    0    1.06e+00
2006 03 21  1200    53815   43200      0    1.52e+00    0    1.07e+00
2006 03 21  1205    53815   43500      0    1.51e+00    0    1.06e+00
2006 03 21  1210    53815   43800      0    1.48e+00    0    1.04e+00
2006 03 21  1215    53815   44100      0    1.52e+00    0    1.06e+00
2006 03 21  1220    53815   44400      0    1.52e+00    0    1.07e+00
2006 03 21  1225    53815   44700      0    1.54e+00    0    1.08e+00
2006 03 21  1230    53815   45000      0    1.50e+00    0    1.05e+00
2006 03 21  1235    53815   45300      0    1.53e+00    0    1.09e+00
2006 03 21  1240    53815   45600      0    1.52e+00    0    1.07e+00
2006 03 21  1245    53815   45900      0    1.54e+00    0    1.09e+00
2006 03 21  1250    53815   46200      0    1.50e+00    0    1.05e+00
2006 03 21  1255    53815   46500      0    1.49e+00    0    1.05e+00
2006 03 21  1300    53815   46800      0    1.52e+00    0    1.07e+00
2006 03 21  1305    53815   47100      0    1.50e+00    0    1.06e+00
2006 03 21  1310    53815   47400      0    1.50e+00    0    1.05e+00
2006 03 21  1315    53815   47700      0    1.54e+00    0    1.07e+00
2006 03 21  1320    53815   48000      0    1.53e+00    0    1.08e+00
2006 03 21  1325    53815   48300      0    1.52e+00    0    1.07e+00
2006 03 21  1330    53815   48600      0    1.54e+00    0    1.08e+00
2006 03 21  1335    53815   48900      0    1.54e+00    0    1.09e+00
2006 03 21  1340    53815   49200      0    1.53e+00    0    1.08e+00
2006 03 21  1345    53815   49500      0    1.50e+00    0    1.06e+00
2006 03 21  1350    53815   49800      0    1.52e+00    0    1.05e+00
2006 03 21  1355    53815   50100      0    1.54e+00    0    1.09e+00
2006 03 21  1400    53815   50400      0    1.52e+00    0    1.07e+00
2006 03 21  1405    53815   50700      0    1.53e+00    0    1.07e+00
2006 03 21  1410    53815   51000      0    1.52e+00    0    1.06e+00
2006 03 21  1415    53815   51300      0    1.52e+00    0    1.07e+00
2006 03 21  1420    53815   51600      0    1.49e+00    0    1.05e+00
2006 03 21  1425    53815   51900      0    1.51e+00    0    1.06e+00
2006 03 21  1430    53815   52200      0    1.52e+00    0    1.07e+00
2006 03 21  1435    53815   52500      0    1.64e+00    0    1.18e+00
2006 03 21  1440    53815   52800      0    1.55e+00    0    1.09e+00
2006 03 21  1445    53815   53100      0    1.51e+00    0    1.05e+00
2006 03 21  1450    53815   53400      0    1.51e+00    0    1.06e+00
2006 03 21  1455    53815   53700      0    1.52e+00    0    1.07e+00
2006 03 21  1500    53815   54000      0    1.55e+00    0    1.08e+00
2006 03 21  1505    53815   54300      0    1.51e+00    0    1.07e+00
2006 03 21  1510    53815   54600      0    1.47e+00    0    9.11e+00
2006 03 21  1515    53815   54900      0    9.30e+01    0    7.07e+01
2006 03 21  1520    53815   55200      0    5.38e+01    0    1.00e+01
2006 03 21  1525    53815   55500      0    7.03e+01    0    4.80e+01
2006 03 21  1530    53815   55800      0    8.89e+02    0    9.46e+00
2006 03 21  1535    53815   56100      0    9.25e+01    0    3.72e+01
2006 03 21  1540    53815   56400      0    6.30e+03    0    1.44e+02
2006 03 21  1545    53815   56700      0    1.03e+02    0    2.16e+01
2006 03 21  1550    53815   57000      0    6.30e+03    0    1.44e+02
2006 03 21  1555    53815   57300      0    2.31e+03    0    1.41e+01
2006 03 21  1600    53815   57600      0    1.20e+02    0    4.90e+01
2006 03 21  1605    53815   57900      0    2.04e+02    0    9.08e+01
2006 03 21  1610    53815   58200      0    2.32e+02    0    1.89e+02
2006 03 21  1615    53815   58500      0    1.76e+02    0    5.37e+01
2006 03 21  1620    53815   58800      0    5.33e+01    0    9.49e+00
2006 03 21  1625    53815   59100      0    3.54e+02    0    8.65e+01
2006 03 21  1630    53815   59400      0    1.28e+02    0    4.30e+01
2006 03 21  1635    53815   59700      0    5.32e+01    0    9.47e+00
2006 03 21  1640    53815   60000      0    4.50e+02    0    7.70e+01
2006 03 21  1645    53815   60300      0    2.55e+03    0    8.96e+00
2006 03 21  1650    53815   60600      0    5.34e+02    0    4.03e+02
2006 03 21  1655    53815   60900      0    3.19e+03    0    1.20e+02
2006 03 21  1700    53815   61200      0    1.55e+00    0    1.09e+00
2006 03 21  1705    53815   61500      0    1.54e+00    0    1.08e+00
2006 03 21  1710    53815   61800      0    1.52e+00    0    1.06e+00
2006 03 21  1715    53815   62100      0    1.52e+00    0    1.07e+00
2006 03 21  1720    53815   62400      0    1.56e+00    0    1.10e+00
2006 03 21  1725    53815   62700      0    1.57e+00    0    1.11e+00
2006 03 21  1730    53815   63000      0    1.53e+00    0    1.07e+00
2006 03 21  1735    53815   63300      0    1.50e+00    0    1.06e+00
2006 03 21  1740    53815   63600      0    1.52e+00    0    1.06e+00
2006 03 21  1745    53815   63900      0    1.51e+00    0    1.06e+00
2006 03 21  1750    53815   64200      0    1.49e+00    0    1.03e+00
2006 03 21  1755    53815   64500      0    1.49e+00    0    1.05e+00
2006 03 21  1800    53815   64800      0    1.50e+00    0    1.05e+00
2006 03 21  1805    53815   65100      0    1.51e+00    0    1.06e+00
2006 03 21  1810    53815   65400      0    1.53e+00    0    1.07e+00
2006 03 21  1815    53815   65700      0    1.52e+00    0    1.07e+00
2006 03 21  1820    53815   66000      0    1.55e+00    0    1.07e+00
2006 03 21  1825    53815   66300      0    1.53e+00    0    1.08e+00
2006 03 21  1830    53815   66600      0    1.53e+00    0    1.08e+00
2006 03 21  1835    53815   66900      0    1.53e+00    0    1.07e+00
2006 03 21  1840    53815   67200      0    1.55e+00    0    1.09e+00
2006 03 21  1845    53815   67500      0    1.52e+00    0    1.07e+00
2006 03 21  1850    53815   67800      0    1.48e+00    0    1.03e+00
2006 03 21  1855    53815   68100      0    1.52e+00    0    1.07e+00
2006 03 21  1900    53815   68400      0    1.52e+00    0    1.07e+00
2006 03 21  1905    53815   68700      0    1.56e+00    0    1.10e+00
2006 03 21  1910    53815   69000      0    1.54e+00    0    1.08e+00
2006 03 21  1915    53815   69300      0    1.52e+00    0    1.07e+00
2006 03 21  1920    53815   69600      0    1.53e+00    0    1.08e+00
2006 03 21  1925    53815   69900      0    1.54e+00    0    1.09e+00
2006 03 21  1930    53815   70200      0    1.50e+00    0    1.04e+00
2006 03 21  1935    53815   70500      0    1.52e+00    0    1.07e+00
2006 03 21  1940    53815   70800      0    1.51e+00    0    1.07e+00
2006 03 21  1945    53815   71100      0    1.55e+00    0    1.09e+00
2006 03 21  1950    53815   71400      0    1.53e+00    0    1.08e+00
2006 03 21  1955    53815   71700      0    1.50e+00    0    1.04e+00
2006 03 21  2000    53815   72000      0    1.56e+00    0    1.09e+00
2006 03 21  2005    53815   72300      0    1.54e+00    0    1.08e+00
2006 03 21  2010    53815   72600      0    1.50e+00    0    1.05e+00
2006 03 21  2015    53815   72900      0    1.50e+00    0    1.06e+00
2006 03 21  2020    53815   73200      0    1.53e+00    0    1.07e+00
2006 03 21  2025    53815   73500      0    1.54e+00    0    1.07e+00
2006 03 21  2030    53815   73800      0    1.57e+00    0    1.11e+00
2006 03 21  2035    53815   74100      0    1.53e+00    0    1.07e+00
2006 03 21  2040    53815   74400      0    1.54e+00    0    1.09e+00
2006 03 21  2045    53815   74700      0    1.52e+00    0    1.07e+00
2006 03 21  2050    53815   75000      0    1.51e+00    0    1.06e+00
2006 03 21  2055    53815   75300      0    1.52e+00    0    1.07e+00
2006 03 21  2100    53815   75600      0    1.52e+00    0    1.08e+00
2006 03 21  2105    53815   75900      0    1.49e+00    0    1.05e+00
2006 03 21  2110    53815   76200      0    1.52e+00    0    1.06e+00
2006 03 21  2115    53815   76500      0    1.53e+00    0    1.08e+00
2006 03 21  2120    53815   76800      0    1.53e+00    0    1.08e+00
2006 03 21  2125    53815   77100      0    1.56e+00    0    1.10e+00
2006 03 21  2130    53815   77400      0    1.50e+00    0    1.05e+00
2006 03 21  2135    53815   77700      0    1.51e+00    0    1.06e+00
2006 03 21  2140    53815   78000      0    1.53e+00    0    1.08e+00
2006 03 21  2145    53815   78300      0    1.53e+00    0    1.08e+00
2006 03 21  2150    53815   78600      0    1.50e+00    0    1.05e+00
2006 03 21  2155    53815   78900      0    1.53e+00    0    1.09e+00
2006 03 21  2200    53815   79200      0    1.54e+00    0    1.07e+00
2006 03 21  2205    53815   79500      0    1.52e+00    0    1.07e+00
2006 03 21  2210    53815   79800      0    1.54e+00    0    1.07e+00
2006 03 21  2215    53815   80100      0    1.54e+00    0    1.07e+00
2006 03 21  2220    53815   80400      0    1.55e+00    0    1.10e+00
2006 03 21  2225    53815   80700      0    1.56e+00    0    1.09e+00
2006 03 21  2230    53815   81000      0    1.53e+00    0    1.06e+00
2006 03 21  2235    53815   81300      0    1.57e+00    0    1.11e+00
2006 03 21  2240    53815   81600      0    1.50e+00    0    1.06e+00
2006 03 21  2245    53815   81900      0    1.53e+00    0    1.08e+00
2006 03 21  2250    53815   82200      0    1.51e+00    0    1.06e+00
2006 03 21  2255    53815   82500      0    1.55e+00    0    1.08e+00
2006 03 21  2300    53815   82800      0    1.57e+00    0    1.10e+00
2006 03 21  2305    53815   83100      0    1.54e+00    0    1.08e+00
2006 03 21  2310    53815   83400      0    1.53e+00    0    1.07e+00
2006 03 21  2315    53815   83700      0    1.55e+00    0    1.09e+00
2006 03 21  2320    53815   84000      0    1.55e+00    0    1.09e+00
2006 03 21  2325    53815   84300      0    1.55e+00    0    1.09e+00
2006 03 21  2330    53815   84600      0    1.54e+00    0    1.08e+00
2006 03 21  2335    53815   84900      0    1.55e+00    0    1.08e+00
2006 03 21  2340    53815   85200      0    1.54e+00    0    1.08e+00
2006 03 21  2345    53815   85500      0    1.52e+00    0    1.07e+00
2006 03 21  2350    53815   85800      0    1.54e+00    0    1.08e+00
2006 03 21  2355    53815   86100      0    1.53e+00    0    1.08e+00
