:Data_list: 20060904_ace_sis_5m.txt
:Created: 2006 Sep 05 0011 UT
# Prepared by the U.S. Dept. of Commerce, NOAA, Space Environment Center.
# Please send comments and suggestions to SEC.Webmaster@noaa.gov 
# 
# Units: proton flux p/cs2-sec-ster
# Status(S): 0 = nominal data, 1 to 8 = bad data record, 9 = no data
# Missing data values: -1.00e+05
# Source: ACE Satellite - Solar Isotope Spectrometer
#
# 5-minute averaged Real-time Integral Flux of High-energy Solar Protons
# 
#                 Modified Seconds
# UT Date   Time   Julian  of the      ---- Integral Proton Flux ----
# YR MO DA  HHMM     Day     Day       S    > 10 MeV    S    > 30 MeV
#--------------------------------------------------------------------
2006 09 04  0000    53982       0      0    1.54e+00    0    1.08e+00
2006 09 04  0005    53982     300      0    1.60e+00    0    1.13e+00
2006 09 04  0010    53982     600      0    1.58e+00    0    1.12e+00
2006 09 04  0015    53982     900      0    1.55e+00    0    1.08e+00
2006 09 04  0020    53982    1200      0    1.58e+00    0    1.11e+00
2006 09 04  0025    53982    1500      0    1.58e+00    0    1.10e+00
2006 09 04  0030    53982    1800      0    1.57e+00    0    1.10e+00
2006 09 04  0035    53982    2100      0    1.57e+00    0    1.10e+00
2006 09 04  0040    53982    2400      0    1.55e+00    0    1.09e+00
2006 09 04  0045    53982    2700      0    1.57e+00    0    1.08e+00
2006 09 04  0050    53982    3000      0    1.57e+00    0    1.11e+00
2006 09 04  0055    53982    3300      0    1.55e+00    0    1.08e+00
2006 09 04  0100    53982    3600      0    1.55e+00    0    1.08e+00
2006 09 04  0105    53982    3900      0    1.55e+00    0    1.09e+00
2006 09 04  0110    53982    4200      0    1.53e+00    0    1.07e+00
2006 09 04  0115    53982    4500      0    1.57e+00    0    1.10e+00
2006 09 04  0120    53982    4800      0    1.58e+00    0    1.10e+00
2006 09 04  0125    53982    5100      0    1.58e+00    0    1.11e+00
2006 09 04  0130    53982    5400      0    1.54e+00    0    1.07e+00
2006 09 04  0135    53982    5700      0    1.54e+00    0    1.09e+00
2006 09 04  0140    53982    6000      0    1.57e+00    0    1.10e+00
2006 09 04  0145    53982    6300      0    1.56e+00    0    1.08e+00
2006 09 04  0150    53982    6600      0    1.56e+00    0    1.09e+00
2006 09 04  0155    53982    6900      0    1.55e+00    0    1.09e+00
2006 09 04  0200    53982    7200      0    1.56e+00    0    1.09e+00
2006 09 04  0205    53982    7500      0    1.56e+00    0    1.09e+00
2006 09 04  0210    53982    7800      0    1.57e+00    0    1.10e+00
2006 09 04  0215    53982    8100      0    1.56e+00    0    1.08e+00
2006 09 04  0220    53982    8400      0    1.56e+00    0    1.10e+00
2006 09 04  0225    53982    8700      0    1.54e+00    0    1.07e+00
2006 09 04  0230    53982    9000      0    1.55e+00    0    1.10e+00
2006 09 04  0235    53982    9300      0    1.56e+00    0    1.10e+00
2006 09 04  0240    53982    9600      0    1.59e+00    0    1.12e+00
2006 09 04  0245    53982    9900      0    1.54e+00    0    1.08e+00
2006 09 04  0250    53982   10200      0    1.56e+00    0    1.09e+00
2006 09 04  0255    53982   10500      0    1.54e+00    0    1.08e+00
2006 09 04  0300    53982   10800      0    1.51e+00    0    1.05e+00
2006 09 04  0305    53982   11100      0    1.56e+00    0    1.08e+00
2006 09 04  0310    53982   11400      0    1.54e+00    0    1.07e+00
2006 09 04  0315    53982   11700      0    1.55e+00    0    1.08e+00
2006 09 04  0320    53982   12000      0    1.56e+00    0    1.10e+00
2006 09 04  0325    53982   12300      0    1.56e+00    0    1.09e+00
2006 09 04  0330    53982   12600      0    1.56e+00    0    1.10e+00
2006 09 04  0335    53982   12900      0    1.52e+00    0    1.07e+00
2006 09 04  0340    53982   13200      0    1.55e+00    0    1.08e+00
2006 09 04  0345    53982   13500      0    1.56e+00    0    1.10e+00
2006 09 04  0350    53982   13800      0    1.55e+00    0    1.08e+00
2006 09 04  0355    53982   14100      0    1.60e+00    0    1.14e+00
2006 09 04  0400    53982   14400      0    1.54e+00    0    1.07e+00
2006 09 04  0405    53982   14700      0    1.57e+00    0    1.10e+00
2006 09 04  0410    53982   15000      0    1.57e+00    0    1.10e+00
2006 09 04  0415    53982   15300      0    1.54e+00    0    1.08e+00
2006 09 04  0420    53982   15600      0    1.56e+00    0    1.09e+00
2006 09 04  0425    53982   15900      0    1.54e+00    0    1.08e+00
2006 09 04  0430    53982   16200      0    1.53e+00    0    1.07e+00
2006 09 04  0435    53982   16500      0    1.56e+00    0    1.08e+00
2006 09 04  0440    53982   16800      0    1.57e+00    0    1.09e+00
2006 09 04  0445    53982   17100      0    1.54e+00    0    1.08e+00
2006 09 04  0450    53982   17400      0    1.56e+00    0    1.09e+00
2006 09 04  0455    53982   17700      0    1.55e+00    0    1.08e+00
2006 09 04  0500    53982   18000      0    1.61e+00    0    1.12e+00
2006 09 04  0505    53982   18300      0    1.55e+00    0    1.09e+00
2006 09 04  0510    53982   18600      0    1.56e+00    0    1.10e+00
2006 09 04  0515    53982   18900      0    1.54e+00    0    1.09e+00
2006 09 04  0520    53982   19200      0    1.58e+00    0    1.10e+00
2006 09 04  0525    53982   19500      0    1.57e+00    0    1.10e+00
2006 09 04  0530    53982   19800      0    1.55e+00    0    1.09e+00
2006 09 04  0535    53982   20100      0    1.55e+00    0    1.08e+00
2006 09 04  0540    53982   20400      0    1.53e+00    0    1.06e+00
2006 09 04  0545    53982   20700      0    1.55e+00    0    1.10e+00
2006 09 04  0550    53982   21000      0    1.55e+00    0    1.10e+00
2006 09 04  0555    53982   21300      0    1.53e+00    0    1.07e+00
2006 09 04  0600    53982   21600      0    1.55e+00    0    1.09e+00
2006 09 04  0605    53982   21900      0    1.55e+00    0    1.08e+00
2006 09 04  0610    53982   22200      0    1.54e+00    0    1.08e+00
2006 09 04  0615    53982   22500      0    1.53e+00    0    1.07e+00
2006 09 04  0620    53982   22800      0    1.53e+00    0    1.07e+00
2006 09 04  0625    53982   23100      0    1.54e+00    0    1.08e+00
2006 09 04  0630    53982   23400      0    1.53e+00    0    1.07e+00
2006 09 04  0635    53982   23700      0    1.56e+00    0    1.08e+00
2006 09 04  0640    53982   24000      0    1.55e+00    0    1.09e+00
2006 09 04  0645    53982   24300      0    1.59e+00    0    1.12e+00
2006 09 04  0650    53982   24600      0    1.55e+00    0    1.09e+00
2006 09 04  0655    53982   24900      0    1.57e+00    0    1.09e+00
2006 09 04  0700    53982   25200      0    1.55e+00    0    1.09e+00
2006 09 04  0705    53982   25500      0    1.57e+00    0    1.11e+00
2006 09 04  0710    53982   25800      0    1.57e+00    0    1.09e+00
2006 09 04  0715    53982   26100      0    1.56e+00    0    1.09e+00
2006 09 04  0720    53982   26400      0    1.63e+00    0    1.19e+00
2006 09 04  0725    53982   26700      0    1.53e+00    0    1.07e+00
2006 09 04  0730    53982   27000      0    1.60e+00    0    1.13e+00
2006 09 04  0735    53982   27300      0    1.55e+00    0    1.09e+00
2006 09 04  0740    53982   27600      0    1.54e+00    0    1.08e+00
2006 09 04  0745    53982   27900      0    1.56e+00    0    1.09e+00
2006 09 04  0750    53982   28200      0    1.57e+00    0    1.10e+00
2006 09 04  0755    53982   28500      0    1.52e+00    0    1.06e+00
2006 09 04  0800    53982   28800      0    1.54e+00    0    1.08e+00
2006 09 04  0805    53982   29100      0    1.55e+00    0    1.08e+00
2006 09 04  0810    53982   29400      0    1.53e+00    0    1.06e+00
2006 09 04  0815    53982   29700      0    1.54e+00    0    1.08e+00
2006 09 04  0820    53982   30000      0    1.56e+00    0    1.11e+00
2006 09 04  0825    53982   30300      0    1.55e+00    0    1.09e+00
2006 09 04  0830    53982   30600      0    1.59e+00    0    1.12e+00
2006 09 04  0835    53982   30900      0    1.57e+00    0    1.10e+00
2006 09 04  0840    53982   31200      0    1.53e+00    0    1.06e+00
2006 09 04  0845    53982   31500      0    1.56e+00    0    1.11e+00
2006 09 04  0850    53982   31800      0    1.53e+00    0    1.06e+00
2006 09 04  0855    53982   32100      0    1.57e+00    0    1.10e+00
2006 09 04  0900    53982   32400      0    1.50e+00    0    1.05e+00
2006 09 04  0905    53982   32700      0    1.58e+00    0    1.10e+00
2006 09 04  0910    53982   33000      0    1.54e+00    0    1.08e+00
2006 09 04  0915    53982   33300      0    1.56e+00    0    1.09e+00
2006 09 04  0920    53982   33600      0    1.58e+00    0    1.11e+00
2006 09 04  0925    53982   33900      0    1.54e+00    0    1.08e+00
2006 09 04  0930    53982   34200      0    1.55e+00    0    1.09e+00
2006 09 04  0935    53982   34500      0    1.55e+00    0    1.10e+00
2006 09 04  0940    53982   34800      0    1.54e+00    0    1.08e+00
2006 09 04  0945    53982   35100      0    1.55e+00    0    1.09e+00
2006 09 04  0950    53982   35400      0    1.54e+00    0    1.08e+00
2006 09 04  0955    53982   35700      0    1.54e+00    0    1.07e+00
2006 09 04  1000    53982   36000      0    1.53e+00    0    1.07e+00
2006 09 04  1005    53982   36300      0    1.56e+00    0    1.10e+00
2006 09 04  1010    53982   36600      0    1.58e+00    0    1.11e+00
2006 09 04  1015    53982   36900      0    1.55e+00    0    1.09e+00
2006 09 04  1020    53982   37200      0    1.60e+00    0    1.11e+00
2006 09 04  1025    53982   37500      0    1.53e+00    0    1.07e+00
2006 09 04  1030    53982   37800      0    1.59e+00    0    1.11e+00
2006 09 04  1035    53982   38100      0    1.59e+00    0    1.12e+00
2006 09 04  1040    53982   38400      0    1.53e+00    0    1.08e+00
2006 09 04  1045    53982   38700      0    1.54e+00    0    1.08e+00
2006 09 04  1050    53982   39000      0    1.53e+00    0    1.08e+00
2006 09 04  1055    53982   39300      0    1.57e+00    0    1.09e+00
2006 09 04  1100    53982   39600      0    1.55e+00    0    1.08e+00
2006 09 04  1105    53982   39900      0    1.51e+00    0    1.07e+00
2006 09 04  1110    53982   40200      0    1.56e+00    0    1.09e+00
2006 09 04  1115    53982   40500      0    1.54e+00    0    1.08e+00
2006 09 04  1120    53982   40800      0    1.54e+00    0    1.08e+00
2006 09 04  1125    53982   41100      0    1.54e+00    0    1.08e+00
2006 09 04  1130    53982   41400      0    1.59e+00    0    1.11e+00
2006 09 04  1135    53982   41700      0    1.56e+00    0    1.10e+00
2006 09 04  1140    53982   42000      0    1.52e+00    0    1.07e+00
2006 09 04  1145    53982   42300      0    1.55e+00    0    1.07e+00
2006 09 04  1150    53982   42600      0    1.55e+00    0    1.08e+00
2006 09 04  1155    53982   42900      0    1.55e+00    0    1.08e+00
2006 09 04  1200    53982   43200      0    1.51e+00    0    1.06e+00
2006 09 04  1205    53982   43500      0    1.55e+00    0    1.09e+00
2006 09 04  1210    53982   43800      0    1.56e+00    0    1.09e+00
2006 09 04  1215    53982   44100      0    1.57e+00    0    1.09e+00
2006 09 04  1220    53982   44400      0    1.55e+00    0    1.08e+00
2006 09 04  1225    53982   44700      0    1.57e+00    0    1.11e+00
2006 09 04  1230    53982   45000      0    1.52e+00    0    1.05e+00
2006 09 04  1235    53982   45300      0    1.55e+00    0    1.09e+00
2006 09 04  1240    53982   45600      0    1.58e+00    0    1.11e+00
2006 09 04  1245    53982   45900      0    1.56e+00    0    1.09e+00
2006 09 04  1250    53982   46200      0    1.58e+00    0    1.11e+00
2006 09 04  1255    53982   46500      0    1.53e+00    0    1.07e+00
2006 09 04  1300    53982   46800      0    1.55e+00    0    1.09e+00
2006 09 04  1305    53982   47100      0    1.55e+00    0    1.09e+00
2006 09 04  1310    53982   47400      0    1.55e+00    0    1.09e+00
2006 09 04  1315    53982   47700      0    1.59e+00    0    1.12e+00
2006 09 04  1320    53982   48000      0    1.60e+00    0    1.11e+00
2006 09 04  1325    53982   48300      0    1.53e+00    0    1.07e+00
2006 09 04  1330    53982   48600      0    1.55e+00    0    1.09e+00
2006 09 04  1335    53982   48900      0    1.58e+00    0    1.11e+00
2006 09 04  1340    53982   49200      0    1.57e+00    0    1.10e+00
2006 09 04  1345    53982   49500      0    1.57e+00    0    1.10e+00
2006 09 04  1350    53982   49800      0    1.59e+00    0    1.11e+00
2006 09 04  1355    53982   50100      0    1.58e+00    0    1.12e+00
2006 09 04  1400    53982   50400      0    1.59e+00    0    1.13e+00
2006 09 04  1405    53982   50700      0    1.56e+00    0    1.10e+00
2006 09 04  1410    53982   51000      0    1.60e+00    0    1.11e+00
2006 09 04  1415    53982   51300      0    1.48e+00    0    1.03e+00
2006 09 04  1420    53982   51600      0    1.55e+00    0    1.08e+00
2006 09 04  1425    53982   51900      0    1.58e+00    0    1.11e+00
2006 09 04  1430    53982   52200      0    1.57e+00    0    1.11e+00
2006 09 04  1435    53982   52500      0    1.56e+00    0    1.08e+00
2006 09 04  1440    53982   52800      0    1.58e+00    0    1.11e+00
2006 09 04  1445    53982   53100      0    1.59e+00    0    1.11e+00
2006 09 04  1450    53982   53400      0    1.59e+00    0    1.11e+00
2006 09 04  1455    53982   53700      0    1.58e+00    0    1.11e+00
2006 09 04  1500    53982   54000      0    1.58e+00    0    1.10e+00
2006 09 04  1505    53982   54300      0    1.60e+00    0    1.13e+00
2006 09 04  1510    53982   54600      0    1.58e+00    0    1.10e+00
2006 09 04  1515    53982   54900      0    1.57e+00    0    1.08e+00
2006 09 04  1520    53982   55200      0    1.56e+00    0    1.10e+00
2006 09 04  1525    53982   55500      0    1.59e+00    0    1.12e+00
2006 09 04  1530    53982   55800      0    1.57e+00    0    1.11e+00
2006 09 04  1535    53982   56100      0    1.58e+00    0    1.10e+00
2006 09 04  1540    53982   56400      0    1.54e+00    0    1.07e+00
2006 09 04  1545    53982   56700      0    1.54e+00    0    1.07e+00
2006 09 04  1550    53982   57000      0    1.52e+00    0    1.07e+00
2006 09 04  1555    53982   57300      0    1.53e+00    0    1.07e+00
2006 09 04  1600    53982   57600      0    1.59e+00    0    1.10e+00
2006 09 04  1605    53982   57900      0    1.59e+00    0    1.10e+00
2006 09 04  1610    53982   58200      0    1.53e+00    0    1.07e+00
2006 09 04  1615    53982   58500      0    1.56e+00    0    1.10e+00
2006 09 04  1620    53982   58800      0    1.56e+00    0    1.09e+00
2006 09 04  1625    53982   59100      0    1.57e+00    0    1.11e+00
2006 09 04  1630    53982   59400      0    1.57e+00    0    1.10e+00
2006 09 04  1635    53982   59700      0    1.56e+00    0    1.10e+00
2006 09 04  1640    53982   60000      0    1.58e+00    0    1.10e+00
2006 09 04  1645    53982   60300      0    1.49e+00    0    1.03e+00
2006 09 04  1650    53982   60600      0    1.57e+00    0    1.09e+00
2006 09 04  1655    53982   60900      0    1.56e+00    0    1.09e+00
2006 09 04  1700    53982   61200      0    1.54e+00    0    1.08e+00
2006 09 04  1705    53982   61500      0    1.54e+00    0    1.07e+00
2006 09 04  1710    53982   61800      0    1.56e+00    0    1.09e+00
2006 09 04  1715    53982   62100      0    1.58e+00    0    1.12e+00
2006 09 04  1720    53982   62400      0    1.59e+00    0    1.12e+00
2006 09 04  1725    53982   62700      0    1.57e+00    0    1.11e+00
2006 09 04  1730    53982   63000      0    1.58e+00    0    1.10e+00
2006 09 04  1735    53982   63300      0    1.56e+00    0    1.09e+00
2006 09 04  1740    53982   63600      0    1.55e+00    0    1.09e+00
2006 09 04  1745    53982   63900      0    1.56e+00    0    1.10e+00
2006 09 04  1750    53982   64200      0    1.56e+00    0    1.09e+00
2006 09 04  1755    53982   64500      0    1.56e+00    0    1.09e+00
2006 09 04  1800    53982   64800      0    1.60e+00    0    1.12e+00
2006 09 04  1805    53982   65100      0    1.56e+00    0    1.10e+00
2006 09 04  1810    53982   65400      0    1.54e+00    0    1.08e+00
2006 09 04  1815    53982   65700      0    1.53e+00    0    1.08e+00
2006 09 04  1820    53982   66000      0    1.56e+00    0    1.09e+00
2006 09 04  1825    53982   66300      0    1.59e+00    0    1.12e+00
2006 09 04  1830    53982   66600      0    1.56e+00    0    1.10e+00
2006 09 04  1835    53982   66900      0    1.56e+00    0    1.08e+00
2006 09 04  1840    53982   67200      0    1.57e+00    0    1.11e+00
2006 09 04  1845    53982   67500      0    1.55e+00    0    1.09e+00
2006 09 04  1850    53982   67800      0    1.57e+00    0    1.11e+00
2006 09 04  1855    53982   68100      0    1.54e+00    0    1.08e+00
2006 09 04  1900    53982   68400      0    1.56e+00    0    1.09e+00
2006 09 04  1905    53982   68700      0    1.59e+00    0    1.12e+00
2006 09 04  1910    53982   69000      0    1.57e+00    0    1.10e+00
2006 09 04  1915    53982   69300      0    1.54e+00    0    1.07e+00
2006 09 04  1920    53982   69600      0    1.55e+00    0    1.09e+00
2006 09 04  1925    53982   69900      0    1.58e+00    0    1.11e+00
2006 09 04  1930    53982   70200      0    1.53e+00    0    1.07e+00
2006 09 04  1935    53982   70500      0    1.56e+00    0    1.10e+00
2006 09 04  1940    53982   70800      0    1.55e+00    0    1.09e+00
2006 09 04  1945    53982   71100      0    1.59e+00    0    1.11e+00
2006 09 04  1950    53982   71400      0    1.59e+00    0    1.11e+00
2006 09 04  1955    53982   71700      0    1.56e+00    0    1.08e+00
2006 09 04  2000    53982   72000      0    1.54e+00    0    1.07e+00
2006 09 04  2005    53982   72300      0    1.56e+00    0    1.09e+00
2006 09 04  2010    53982   72600      0    1.57e+00    0    1.10e+00
2006 09 04  2015    53982   72900      0    1.53e+00    0    1.08e+00
2006 09 04  2020    53982   73200      0    1.59e+00    0    1.12e+00
2006 09 04  2025    53982   73500      0    1.55e+00    0    1.07e+00
2006 09 04  2030    53982   73800      0    1.55e+00    0    1.08e+00
2006 09 04  2035    53982   74100      0    1.57e+00    0    1.10e+00
2006 09 04  2040    53982   74400      0    1.57e+00    0    1.12e+00
2006 09 04  2045    53982   74700      0    1.60e+00    0    1.13e+00
2006 09 04  2050    53982   75000      0    1.55e+00    0    1.08e+00
2006 09 04  2055    53982   75300      0    1.58e+00    0    1.11e+00
2006 09 04  2100    53982   75600      0    1.56e+00    0    1.09e+00
2006 09 04  2105    53982   75900      0    1.55e+00    0    1.09e+00
2006 09 04  2110    53982   76200      0    1.57e+00    0    1.10e+00
2006 09 04  2115    53982   76500      0    1.55e+00    0    1.08e+00
2006 09 04  2120    53982   76800      0    1.56e+00    0    1.09e+00
2006 09 04  2125    53982   77100      0    1.59e+00    0    1.12e+00
2006 09 04  2130    53982   77400      0    1.61e+00    0    1.12e+00
2006 09 04  2135    53982   77700      0    1.55e+00    0    1.08e+00
2006 09 04  2140    53982   78000      0    1.57e+00    0    1.11e+00
2006 09 04  2145    53982   78300      0    1.57e+00    0    1.11e+00
2006 09 04  2150    53982   78600      0    1.60e+00    0    1.13e+00
2006 09 04  2155    53982   78900      0    1.56e+00    0    1.10e+00
2006 09 04  2200    53982   79200      0    1.60e+00    0    1.12e+00
2006 09 04  2205    53982   79500      0    1.55e+00    0    1.09e+00
2006 09 04  2210    53982   79800      0    1.56e+00    0    1.10e+00
2006 09 04  2215    53982   80100      0    1.54e+00    0    1.07e+00
2006 09 04  2220    53982   80400      0    1.56e+00    0    1.09e+00
2006 09 04  2225    53982   80700      0    1.59e+00    0    1.12e+00
2006 09 04  2230    53982   81000      0    1.53e+00    0    1.07e+00
2006 09 04  2235    53982   81300      0    1.57e+00    0    1.10e+00
2006 09 04  2240    53982   81600      0    1.59e+00    0    1.13e+00
2006 09 04  2245    53982   81900      0    1.55e+00    0    1.10e+00
2006 09 04  2250    53982   82200      0    1.56e+00    0    1.09e+00
2006 09 04  2255    53982   82500      0    1.56e+00    0    1.09e+00
2006 09 04  2300    53982   82800      0    1.57e+00    0    1.09e+00
2006 09 04  2305    53982   83100      0    1.56e+00    0    1.09e+00
2006 09 04  2310    53982   83400      0    1.55e+00    0    1.09e+00
2006 09 04  2315    53982   83700      0    1.59e+00    0    1.12e+00
2006 09 04  2320    53982   84000      0    1.56e+00    0    1.10e+00
2006 09 04  2325    53982   84300      0    1.58e+00    0    1.10e+00
2006 09 04  2330    53982   84600      0    1.55e+00    0    1.08e+00
2006 09 04  2335    53982   84900      0    1.58e+00    0    1.10e+00
2006 09 04  2340    53982   85200      0    1.57e+00    0    1.11e+00
2006 09 04  2345    53982   85500      0    1.59e+00    0    1.12e+00
2006 09 04  2350    53982   85800      0    1.55e+00    0    1.09e+00
2006 09 04  2355    53982   86100      0    1.58e+00    0    1.10e+00
