:Data_list: 20060818_ace_sis_5m.txt
:Created: 2006 Aug 19 0011 UT
# Prepared by the U.S. Dept. of Commerce, NOAA, Space Environment Center.
# Please send comments and suggestions to SEC.Webmaster@noaa.gov 
# 
# Units: proton flux p/cs2-sec-ster
# Status(S): 0 = nominal data, 1 to 8 = bad data record, 9 = no data
# Missing data values: -1.00e+05
# Source: ACE Satellite - Solar Isotope Spectrometer
#
# 5-minute averaged Real-time Integral Flux of High-energy Solar Protons
# 
#                 Modified Seconds
# UT Date   Time   Julian  of the      ---- Integral Proton Flux ----
# YR MO DA  HHMM     Day     Day       S    > 10 MeV    S    > 30 MeV
#--------------------------------------------------------------------
2006 08 18  0000    53965       0      9   -1.00e+05    9   -1.00e+05
2006 08 18  0005    53965     300      9   -1.00e+05    9   -1.00e+05
2006 08 18  0010    53965     600      9   -1.00e+05    9   -1.00e+05
2006 08 18  0015    53965     900      9   -1.00e+05    9   -1.00e+05
2006 08 18  0020    53965    1200      9   -1.00e+05    9   -1.00e+05
2006 08 18  0025    53965    1500      9   -1.00e+05    9   -1.00e+05
2006 08 18  0030    53965    1800      9   -1.00e+05    9   -1.00e+05
2006 08 18  0035    53965    2100      9   -1.00e+05    9   -1.00e+05
2006 08 18  0040    53965    2400      9   -1.00e+05    9   -1.00e+05
2006 08 18  0045    53965    2700      9   -1.00e+05    9   -1.00e+05
2006 08 18  0050    53965    3000      9   -1.00e+05    9   -1.00e+05
2006 08 18  0055    53965    3300      9   -1.00e+05    9   -1.00e+05
2006 08 18  0100    53965    3600      9   -1.00e+05    9   -1.00e+05
2006 08 18  0105    53965    3900      9   -1.00e+05    9   -1.00e+05
2006 08 18  0110    53965    4200      9   -1.00e+05    9   -1.00e+05
2006 08 18  0115    53965    4500      9   -1.00e+05    9   -1.00e+05
2006 08 18  0120    53965    4800      9   -1.00e+05    9   -1.00e+05
2006 08 18  0125    53965    5100      9   -1.00e+05    9   -1.00e+05
2006 08 18  0130    53965    5400      9   -1.00e+05    9   -1.00e+05
2006 08 18  0135    53965    5700      9   -1.00e+05    9   -1.00e+05
2006 08 18  0140    53965    6000      9   -1.00e+05    9   -1.00e+05
2006 08 18  0145    53965    6300      9   -1.00e+05    9   -1.00e+05
2006 08 18  0150    53965    6600      9   -1.00e+05    9   -1.00e+05
2006 08 18  0155    53965    6900      9   -1.00e+05    9   -1.00e+05
2006 08 18  0200    53965    7200      9   -1.00e+05    9   -1.00e+05
2006 08 18  0205    53965    7500      9   -1.00e+05    9   -1.00e+05
2006 08 18  0210    53965    7800      9   -1.00e+05    9   -1.00e+05
2006 08 18  0215    53965    8100      9   -1.00e+05    9   -1.00e+05
2006 08 18  0220    53965    8400      9   -1.00e+05    9   -1.00e+05
2006 08 18  0225    53965    8700      9   -1.00e+05    9   -1.00e+05
2006 08 18  0230    53965    9000      9   -1.00e+05    9   -1.00e+05
2006 08 18  0235    53965    9300      0    1.68e+00    0    1.18e+00
2006 08 18  0240    53965    9600      0    1.68e+00    0    1.17e+00
2006 08 18  0245    53965    9900      0    1.68e+00    0    1.16e+00
2006 08 18  0250    53965   10200      0    1.74e+00    0    1.20e+00
2006 08 18  0255    53965   10500      0    1.67e+00    0    1.14e+00
2006 08 18  0300    53965   10800      0    1.74e+00    0    1.20e+00
2006 08 18  0305    53965   11100      0    1.75e+00    0    1.21e+00
2006 08 18  0310    53965   11400      0    1.71e+00    0    1.19e+00
2006 08 18  0315    53965   11700      0    1.69e+00    0    1.18e+00
2006 08 18  0320    53965   12000      0    1.71e+00    0    1.20e+00
2006 08 18  0325    53965   12300      0    1.68e+00    0    1.17e+00
2006 08 18  0330    53965   12600      0    1.73e+00    0    1.20e+00
2006 08 18  0335    53965   12900      0    1.68e+00    0    1.17e+00
2006 08 18  0340    53965   13200      0    1.75e+00    0    1.21e+00
2006 08 18  0345    53965   13500      0    1.71e+00    0    1.21e+00
2006 08 18  0350    53965   13800      0    1.75e+00    0    1.22e+00
2006 08 18  0355    53965   14100      0    1.74e+00    0    1.22e+00
2006 08 18  0400    53965   14400      0    1.69e+00    0    1.17e+00
2006 08 18  0405    53965   14700      0    1.68e+00    0    1.16e+00
2006 08 18  0410    53965   15000      0    1.72e+00    0    1.20e+00
2006 08 18  0415    53965   15300      0    1.68e+00    0    1.16e+00
2006 08 18  0420    53965   15600      0    1.66e+00    0    1.14e+00
2006 08 18  0425    53965   15900      0    1.70e+00    0    1.18e+00
2006 08 18  0430    53965   16200      0    1.68e+00    0    1.16e+00
2006 08 18  0435    53965   16500      0    1.73e+00    0    1.20e+00
2006 08 18  0440    53965   16800      0    1.70e+00    0    1.19e+00
2006 08 18  0445    53965   17100      0    1.72e+00    0    1.20e+00
2006 08 18  0450    53965   17400      0    1.68e+00    0    1.17e+00
2006 08 18  0455    53965   17700      0    1.70e+00    0    1.17e+00
2006 08 18  0500    53965   18000      0    1.70e+00    0    1.19e+00
2006 08 18  0505    53965   18300      0    1.71e+00    0    1.18e+00
2006 08 18  0510    53965   18600      0    1.69e+00    0    1.16e+00
2006 08 18  0515    53965   18900      0    1.71e+00    0    1.19e+00
2006 08 18  0520    53965   19200      0    1.69e+00    0    1.16e+00
2006 08 18  0525    53965   19500      0    1.71e+00    0    1.17e+00
2006 08 18  0530    53965   19800      0    1.68e+00    0    1.16e+00
2006 08 18  0535    53965   20100      0    1.75e+00    0    1.21e+00
2006 08 18  0540    53965   20400      0    1.69e+00    0    1.18e+00
2006 08 18  0545    53965   20700      0    1.70e+00    0    1.17e+00
2006 08 18  0550    53965   21000      0    1.70e+00    0    1.17e+00
2006 08 18  0555    53965   21300      0    1.66e+00    0    1.14e+00
2006 08 18  0600    53965   21600      0    1.70e+00    0    1.17e+00
2006 08 18  0605    53965   21900      0    1.69e+00    0    1.16e+00
2006 08 18  0610    53965   22200      0    1.68e+00    0    1.17e+00
2006 08 18  0615    53965   22500      0    1.71e+00    0    1.18e+00
2006 08 18  0620    53965   22800      0    1.69e+00    0    1.17e+00
2006 08 18  0625    53965   23100      0    1.69e+00    0    1.17e+00
2006 08 18  0630    53965   23400      0    1.68e+00    0    1.16e+00
2006 08 18  0635    53965   23700      0    1.69e+00    0    1.17e+00
2006 08 18  0640    53965   24000      0    1.72e+00    0    1.21e+00
2006 08 18  0645    53965   24300      0    1.68e+00    0    1.17e+00
2006 08 18  0650    53965   24600      0    1.69e+00    0    1.18e+00
2006 08 18  0655    53965   24900      0    1.71e+00    0    1.18e+00
2006 08 18  0700    53965   25200      0    1.68e+00    0    1.17e+00
2006 08 18  0705    53965   25500      0    1.67e+00    0    1.17e+00
2006 08 18  0710    53965   25800      0    1.68e+00    0    1.17e+00
2006 08 18  0715    53965   26100      0    1.69e+00    0    1.18e+00
2006 08 18  0720    53965   26400      0    1.67e+00    0    1.17e+00
2006 08 18  0725    53965   26700      0    1.70e+00    0    1.18e+00
2006 08 18  0730    53965   27000      0    1.74e+00    0    1.21e+00
2006 08 18  0735    53965   27300      0    1.73e+00    0    1.21e+00
2006 08 18  0740    53965   27600      0    1.69e+00    0    1.17e+00
2006 08 18  0745    53965   27900      0    1.69e+00    0    1.17e+00
2006 08 18  0750    53965   28200      0    1.71e+00    0    1.19e+00
2006 08 18  0755    53965   28500      0    1.67e+00    0    1.17e+00
2006 08 18  0800    53965   28800      0    1.70e+00    0    1.19e+00
2006 08 18  0805    53965   29100      0    1.66e+00    0    1.16e+00
2006 08 18  0810    53965   29400      0    1.68e+00    0    1.17e+00
2006 08 18  0815    53965   29700      0    1.68e+00    0    1.17e+00
2006 08 18  0820    53965   30000      0    1.69e+00    0    1.18e+00
2006 08 18  0825    53965   30300      0    1.68e+00    0    1.17e+00
2006 08 18  0830    53965   30600      0    1.66e+00    0    1.16e+00
2006 08 18  0835    53965   30900      0    1.65e+00    0    1.16e+00
2006 08 18  0840    53965   31200      0    1.68e+00    0    1.17e+00
2006 08 18  0845    53965   31500      0    1.66e+00    0    1.15e+00
2006 08 18  0850    53965   31800      0    1.70e+00    0    1.19e+00
2006 08 18  0855    53965   32100      0    1.67e+00    0    1.16e+00
2006 08 18  0900    53965   32400      0    1.72e+00    0    1.21e+00
2006 08 18  0905    53965   32700      0    1.68e+00    0    1.17e+00
2006 08 18  0910    53965   33000      0    1.69e+00    0    1.18e+00
2006 08 18  0915    53965   33300      0    1.70e+00    0    1.18e+00
2006 08 18  0920    53965   33600      0    1.70e+00    0    1.18e+00
2006 08 18  0925    53965   33900      0    1.68e+00    0    1.16e+00
2006 08 18  0930    53965   34200      0    1.67e+00    0    1.17e+00
2006 08 18  0935    53965   34500      0    1.72e+00    0    1.19e+00
2006 08 18  0940    53965   34800      0    1.67e+00    0    1.16e+00
2006 08 18  0945    53965   35100      0    1.67e+00    0    1.18e+00
2006 08 18  0950    53965   35400      0    1.69e+00    0    1.18e+00
2006 08 18  0955    53965   35700      0    1.65e+00    0    1.15e+00
2006 08 18  1000    53965   36000      0    1.69e+00    0    1.17e+00
2006 08 18  1005    53965   36300      0    1.68e+00    0    1.18e+00
2006 08 18  1010    53965   36600      0    1.67e+00    0    1.17e+00
2006 08 18  1015    53965   36900      0    1.69e+00    0    1.17e+00
2006 08 18  1020    53965   37200      0    1.71e+00    0    1.20e+00
2006 08 18  1025    53965   37500      0    1.74e+00    0    1.21e+00
2006 08 18  1030    53965   37800      0    1.68e+00    0    1.16e+00
2006 08 18  1035    53965   38100      0    1.72e+00    0    1.19e+00
2006 08 18  1040    53965   38400      0    1.71e+00    0    1.17e+00
2006 08 18  1045    53965   38700      0    1.68e+00    0    1.16e+00
2006 08 18  1050    53965   39000      0    1.67e+00    0    1.17e+00
2006 08 18  1055    53965   39300      0    1.66e+00    0    1.15e+00
2006 08 18  1100    53965   39600      0    1.68e+00    0    1.16e+00
2006 08 18  1105    53965   39900      0    1.68e+00    0    1.17e+00
2006 08 18  1110    53965   40200      0    1.71e+00    0    1.19e+00
2006 08 18  1115    53965   40500      0    1.67e+00    0    1.16e+00
2006 08 18  1120    53965   40800      0    1.70e+00    0    1.19e+00
2006 08 18  1125    53965   41100      0    1.69e+00    0    1.18e+00
2006 08 18  1130    53965   41400      0    1.69e+00    0    1.19e+00
2006 08 18  1135    53965   41700      0    1.64e+00    0    1.14e+00
2006 08 18  1140    53965   42000      0    1.70e+00    0    1.17e+00
2006 08 18  1145    53965   42300      0    1.70e+00    0    1.19e+00
2006 08 18  1150    53965   42600      0    1.68e+00    0    1.17e+00
2006 08 18  1155    53965   42900      0    1.67e+00    0    1.15e+00
2006 08 18  1200    53965   43200      0    1.67e+00    0    1.16e+00
2006 08 18  1205    53965   43500      0    1.67e+00    0    1.16e+00
2006 08 18  1210    53965   43800      0    1.66e+00    0    1.15e+00
2006 08 18  1215    53965   44100      0    1.69e+00    0    1.17e+00
2006 08 18  1220    53965   44400      0    1.68e+00    0    1.18e+00
2006 08 18  1225    53965   44700      0    1.67e+00    0    1.17e+00
2006 08 18  1230    53965   45000      0    1.68e+00    0    1.18e+00
2006 08 18  1235    53965   45300      0    1.68e+00    0    1.18e+00
2006 08 18  1240    53965   45600      0    1.69e+00    0    1.18e+00
2006 08 18  1245    53965   45900      0    1.68e+00    0    1.18e+00
2006 08 18  1250    53965   46200      0    1.65e+00    0    1.15e+00
2006 08 18  1255    53965   46500      0    1.65e+00    0    1.15e+00
2006 08 18  1300    53965   46800      0    1.70e+00    0    1.19e+00
2006 08 18  1305    53965   47100      0    1.68e+00    0    1.17e+00
2006 08 18  1310    53965   47400      0    1.68e+00    0    1.16e+00
2006 08 18  1315    53965   47700      0    1.68e+00    0    1.17e+00
2006 08 18  1320    53965   48000      0    1.68e+00    0    1.17e+00
2006 08 18  1325    53965   48300      0    1.68e+00    0    1.17e+00
2006 08 18  1330    53965   48600      0    1.65e+00    0    1.15e+00
2006 08 18  1335    53965   48900      0    1.64e+00    0    1.14e+00
2006 08 18  1340    53965   49200      0    1.66e+00    0    1.16e+00
2006 08 18  1345    53965   49500      0    1.65e+00    0    1.16e+00
2006 08 18  1350    53965   49800      0    1.69e+00    0    1.19e+00
2006 08 18  1355    53965   50100      0    1.67e+00    0    1.17e+00
2006 08 18  1400    53965   50400      0    1.65e+00    0    1.15e+00
2006 08 18  1405    53965   50700      0    1.65e+00    0    1.15e+00
2006 08 18  1410    53965   51000      0    1.66e+00    0    1.16e+00
2006 08 18  1415    53965   51300      0    1.65e+00    0    1.16e+00
2006 08 18  1420    53965   51600      0    1.66e+00    0    1.15e+00
2006 08 18  1425    53965   51900      0    1.65e+00    0    1.16e+00
2006 08 18  1430    53965   52200      0    1.64e+00    0    1.14e+00
2006 08 18  1435    53965   52500      0    1.66e+00    0    1.15e+00
2006 08 18  1440    53965   52800      0    1.65e+00    0    1.16e+00
2006 08 18  1445    53965   53100      0    1.68e+00    0    1.16e+00
2006 08 18  1450    53965   53400      0    1.66e+00    0    1.16e+00
2006 08 18  1455    53965   53700      0    1.66e+00    0    1.16e+00
2006 08 18  1500    53965   54000      0    1.65e+00    0    1.15e+00
2006 08 18  1505    53965   54300      0    1.65e+00    0    1.14e+00
2006 08 18  1510    53965   54600      0    1.63e+00    0    1.14e+00
2006 08 18  1515    53965   54900      0    1.64e+00    0    1.14e+00
2006 08 18  1520    53965   55200      0    1.70e+00    0    1.19e+00
2006 08 18  1525    53965   55500      0    1.65e+00    0    1.14e+00
2006 08 18  1530    53965   55800      0    1.68e+00    0    1.17e+00
2006 08 18  1535    53965   56100      0    1.70e+00    0    1.19e+00
2006 08 18  1540    53965   56400      0    1.65e+00    0    1.16e+00
2006 08 18  1545    53965   56700      0    1.65e+00    0    1.15e+00
2006 08 18  1550    53965   57000      0    1.62e+00    0    1.12e+00
2006 08 18  1555    53965   57300      0    1.62e+00    0    1.14e+00
2006 08 18  1600    53965   57600      0    1.72e+00    0    1.21e+00
2006 08 18  1605    53965   57900      0    1.65e+00    0    1.16e+00
2006 08 18  1610    53965   58200      0    1.69e+00    0    1.18e+00
2006 08 18  1615    53965   58500      0    1.64e+00    0    1.15e+00
2006 08 18  1620    53965   58800      0    1.65e+00    0    1.15e+00
2006 08 18  1625    53965   59100      0    1.66e+00    0    1.16e+00
2006 08 18  1630    53965   59400      0    1.67e+00    0    1.17e+00
2006 08 18  1635    53965   59700      0    1.66e+00    0    1.16e+00
2006 08 18  1640    53965   60000      0    1.64e+00    0    1.14e+00
2006 08 18  1645    53965   60300      0    1.67e+00    0    1.16e+00
2006 08 18  1650    53965   60600      0    1.65e+00    0    1.15e+00
2006 08 18  1655    53965   60900      0    1.66e+00    0    1.15e+00
2006 08 18  1700    53965   61200      0    1.62e+00    0    1.15e+00
2006 08 18  1705    53965   61500      0    1.63e+00    0    1.14e+00
2006 08 18  1710    53965   61800      0    1.65e+00    0    1.15e+00
2006 08 18  1715    53965   62100      0    1.62e+00    0    1.12e+00
2006 08 18  1720    53965   62400      0    1.63e+00    0    1.13e+00
2006 08 18  1725    53965   62700      0    1.66e+00    0    1.16e+00
2006 08 18  1730    53965   63000      0    1.65e+00    0    1.16e+00
2006 08 18  1735    53965   63300      0    1.62e+00    0    1.13e+00
2006 08 18  1740    53965   63600      0    1.68e+00    0    1.17e+00
2006 08 18  1745    53965   63900      0    1.67e+00    0    1.16e+00
2006 08 18  1750    53965   64200      0    1.66e+00    0    1.17e+00
2006 08 18  1755    53965   64500      0    1.63e+00    0    1.14e+00
2006 08 18  1800    53965   64800      0    1.64e+00    0    1.15e+00
2006 08 18  1805    53965   65100      0    1.63e+00    0    1.14e+00
2006 08 18  1810    53965   65400      0    1.68e+00    0    1.17e+00
2006 08 18  1815    53965   65700      0    1.70e+00    0    1.19e+00
2006 08 18  1820    53965   66000      0    1.65e+00    0    1.16e+00
2006 08 18  1825    53965   66300      0    1.65e+00    0    1.14e+00
2006 08 18  1830    53965   66600      0    1.61e+00    0    1.13e+00
2006 08 18  1835    53965   66900      0    1.67e+00    0    1.16e+00
2006 08 18  1840    53965   67200      0    1.62e+00    0    1.12e+00
2006 08 18  1845    53965   67500      0    1.64e+00    0    1.14e+00
2006 08 18  1850    53965   67800      0    1.63e+00    0    1.14e+00
2006 08 18  1855    53965   68100      0    1.67e+00    0    1.16e+00
2006 08 18  1900    53965   68400      0    1.60e+00    0    1.11e+00
2006 08 18  1905    53965   68700      0    1.65e+00    0    1.16e+00
2006 08 18  1910    53965   69000      0    1.69e+00    0    1.18e+00
2006 08 18  1915    53965   69300      0    1.70e+00    0    1.20e+00
2006 08 18  1920    53965   69600      0    1.63e+00    0    1.15e+00
2006 08 18  1925    53965   69900      0    1.63e+00    0    1.13e+00
2006 08 18  1930    53965   70200      0    1.61e+00    0    1.12e+00
2006 08 18  1935    53965   70500      0    1.65e+00    0    1.16e+00
2006 08 18  1940    53965   70800      0    1.66e+00    0    1.17e+00
2006 08 18  1945    53965   71100      0    1.67e+00    0    1.16e+00
2006 08 18  1950    53965   71400      0    1.70e+00    0    1.19e+00
2006 08 18  1955    53965   71700      0    1.67e+00    0    1.17e+00
2006 08 18  2000    53965   72000      0    1.65e+00    0    1.14e+00
2006 08 18  2005    53965   72300      0    1.68e+00    0    1.18e+00
2006 08 18  2010    53965   72600      0    1.64e+00    0    1.14e+00
2006 08 18  2015    53965   72900      0    1.67e+00    0    1.16e+00
2006 08 18  2020    53965   73200      0    1.67e+00    0    1.17e+00
2006 08 18  2025    53965   73500      0    1.67e+00    0    1.17e+00
2006 08 18  2030    53965   73800      0    1.64e+00    0    1.15e+00
2006 08 18  2035    53965   74100      0    1.66e+00    0    1.17e+00
2006 08 18  2040    53965   74400      0    1.65e+00    0    1.15e+00
2006 08 18  2045    53965   74700      0    1.63e+00    0    1.13e+00
2006 08 18  2050    53965   75000      0    1.65e+00    0    1.15e+00
2006 08 18  2055    53965   75300      0    1.65e+00    0    1.15e+00
2006 08 18  2100    53965   75600      0    1.64e+00    0    1.14e+00
2006 08 18  2105    53965   75900      0    1.69e+00    0    1.18e+00
2006 08 18  2110    53965   76200      0    1.63e+00    0    1.13e+00
2006 08 18  2115    53965   76500      0    1.64e+00    0    1.14e+00
2006 08 18  2120    53965   76800      0    1.65e+00    0    1.14e+00
2006 08 18  2125    53965   77100      0    1.62e+00    0    1.13e+00
2006 08 18  2130    53965   77400      0    1.64e+00    0    1.15e+00
2006 08 18  2135    53965   77700      0    1.60e+00    0    1.12e+00
2006 08 18  2140    53965   78000      0    1.65e+00    0    1.15e+00
2006 08 18  2145    53965   78300      0    1.67e+00    0    1.15e+00
2006 08 18  2150    53965   78600      0    1.67e+00    0    1.17e+00
2006 08 18  2155    53965   78900      0    1.66e+00    0    1.16e+00
2006 08 18  2200    53965   79200      0    1.69e+00    0    1.19e+00
2006 08 18  2205    53965   79500      0    1.65e+00    0    1.14e+00
2006 08 18  2210    53965   79800      0    1.66e+00    0    1.17e+00
2006 08 18  2215    53965   80100      0    1.64e+00    0    1.15e+00
2006 08 18  2220    53965   80400      0    1.65e+00    0    1.17e+00
2006 08 18  2225    53965   80700      0    1.65e+00    0    1.14e+00
2006 08 18  2230    53965   81000      0    1.67e+00    0    1.17e+00
2006 08 18  2235    53965   81300      0    1.64e+00    0    1.15e+00
2006 08 18  2240    53965   81600      0    1.66e+00    0    1.16e+00
2006 08 18  2245    53965   81900      0    1.64e+00    0    1.14e+00
2006 08 18  2250    53965   82200      0    1.70e+00    0    1.18e+00
2006 08 18  2255    53965   82500      0    1.65e+00    0    1.16e+00
2006 08 18  2300    53965   82800      0    1.66e+00    0    1.17e+00
2006 08 18  2305    53965   83100      0    1.68e+00    0    1.18e+00
2006 08 18  2310    53965   83400      0    1.65e+00    0    1.16e+00
2006 08 18  2315    53965   83700      0    1.66e+00    0    1.16e+00
2006 08 18  2320    53965   84000      0    1.66e+00    0    1.16e+00
2006 08 18  2325    53965   84300      0    1.69e+00    0    1.18e+00
2006 08 18  2330    53965   84600      0    1.69e+00    0    1.17e+00
2006 08 18  2335    53965   84900      0    1.66e+00    0    1.15e+00
2006 08 18  2340    53965   85200      0    1.64e+00    0    1.14e+00
2006 08 18  2345    53965   85500      0    1.63e+00    0    1.13e+00
2006 08 18  2350    53965   85800      0    1.67e+00    0    1.17e+00
2006 08 18  2355    53965   86100      0    1.69e+00    0    1.19e+00
