:Data_list: 20060626_ace_sis_5m.txt
:Created: 2006 Jun 27 0011 UT
# Prepared by the U.S. Dept. of Commerce, NOAA, Space Environment Center.
# Please send comments and suggestions to SEC.Webmaster@noaa.gov 
# 
# Units: proton flux p/cs2-sec-ster
# Status(S): 0 = nominal data, 1 to 8 = bad data record, 9 = no data
# Missing data values: -1.00e+05
# Source: ACE Satellite - Solar Isotope Spectrometer
#
# 5-minute averaged Real-time Integral Flux of High-energy Solar Protons
# 
#                 Modified Seconds
# UT Date   Time   Julian  of the      ---- Integral Proton Flux ----
# YR MO DA  HHMM     Day     Day       S    > 10 MeV    S    > 30 MeV
#--------------------------------------------------------------------
2006 06 26  0000    53912       0      0    1.71e+00    0    1.19e+00
2006 06 26  0005    53912     300      0    1.71e+00    0    1.20e+00
2006 06 26  0010    53912     600      0    1.68e+00    0    1.17e+00
2006 06 26  0015    53912     900      0    1.68e+00    0    1.19e+00
2006 06 26  0020    53912    1200      0    1.70e+00    0    1.19e+00
2006 06 26  0025    53912    1500      0    1.70e+00    0    1.19e+00
2006 06 26  0030    53912    1800      0    1.67e+00    0    1.16e+00
2006 06 26  0035    53912    2100      0    1.69e+00    0    1.18e+00
2006 06 26  0040    53912    2400      0    1.67e+00    0    1.17e+00
2006 06 26  0045    53912    2700      0    1.69e+00    0    1.20e+00
2006 06 26  0050    53912    3000      0    1.68e+00    0    1.18e+00
2006 06 26  0055    53912    3300      0    1.67e+00    0    1.15e+00
2006 06 26  0100    53912    3600      0    1.67e+00    0    1.18e+00
2006 06 26  0105    53912    3900      0    1.69e+00    0    1.19e+00
2006 06 26  0110    53912    4200      0    1.71e+00    0    1.19e+00
2006 06 26  0115    53912    4500      0    1.68e+00    0    1.19e+00
2006 06 26  0120    53912    4800      0    1.72e+00    0    1.21e+00
2006 06 26  0125    53912    5100      0    1.63e+00    0    1.15e+00
2006 06 26  0130    53912    5400      0    1.67e+00    0    1.17e+00
2006 06 26  0135    53912    5700      0    1.68e+00    0    1.17e+00
2006 06 26  0140    53912    6000      0    1.68e+00    0    1.17e+00
2006 06 26  0145    53912    6300      0    1.66e+00    0    1.16e+00
2006 06 26  0150    53912    6600      0    1.68e+00    0    1.16e+00
2006 06 26  0155    53912    6900      0    1.69e+00    0    1.18e+00
2006 06 26  0200    53912    7200      0    1.68e+00    0    1.16e+00
2006 06 26  0205    53912    7500      0    1.70e+00    0    1.20e+00
2006 06 26  0210    53912    7800      0    1.72e+00    0    1.21e+00
2006 06 26  0215    53912    8100      0    1.71e+00    0    1.20e+00
2006 06 26  0220    53912    8400      0    1.68e+00    0    1.17e+00
2006 06 26  0225    53912    8700      0    1.69e+00    0    1.18e+00
2006 06 26  0230    53912    9000      0    1.58e+00    0    1.11e+00
2006 06 26  0235    53912    9300      0    1.72e+00    0    1.21e+00
2006 06 26  0240    53912    9600      0    1.70e+00    0    1.20e+00
2006 06 26  0245    53912    9900      0    1.64e+00    0    1.16e+00
2006 06 26  0250    53912   10200      0    1.70e+00    0    1.19e+00
2006 06 26  0255    53912   10500      0    1.67e+00    0    1.17e+00
2006 06 26  0300    53912   10800      0    1.69e+00    0    1.19e+00
2006 06 26  0305    53912   11100      0    1.67e+00    0    1.17e+00
2006 06 26  0310    53912   11400      0    1.68e+00    0    1.16e+00
2006 06 26  0315    53912   11700      0    1.70e+00    0    1.18e+00
2006 06 26  0320    53912   12000      0    1.70e+00    0    1.18e+00
2006 06 26  0325    53912   12300      0    1.67e+00    0    1.16e+00
2006 06 26  0330    53912   12600      0    1.67e+00    0    1.17e+00
2006 06 26  0335    53912   12900      0    1.75e+00    0    1.22e+00
2006 06 26  0340    53912   13200      0    1.73e+00    0    1.21e+00
2006 06 26  0345    53912   13500      0    1.68e+00    0    1.16e+00
2006 06 26  0350    53912   13800      0    1.71e+00    0    1.20e+00
2006 06 26  0355    53912   14100      0    1.70e+00    0    1.18e+00
2006 06 26  0400    53912   14400      0    1.66e+00    0    1.17e+00
2006 06 26  0405    53912   14700      0    1.68e+00    0    1.19e+00
2006 06 26  0410    53912   15000      0    1.70e+00    0    1.19e+00
2006 06 26  0415    53912   15300      0    1.71e+00    0    1.20e+00
2006 06 26  0420    53912   15600      0    1.69e+00    0    1.18e+00
2006 06 26  0425    53912   15900      0    1.69e+00    0    1.20e+00
2006 06 26  0430    53912   16200      0    1.71e+00    0    1.19e+00
2006 06 26  0435    53912   16500      0    1.69e+00    0    1.19e+00
2006 06 26  0440    53912   16800      0    1.71e+00    0    1.19e+00
2006 06 26  0445    53912   17100      0    1.67e+00    0    1.17e+00
2006 06 26  0450    53912   17400      0    1.72e+00    0    1.22e+00
2006 06 26  0455    53912   17700      0    1.73e+00    0    1.22e+00
2006 06 26  0500    53912   18000      0    1.71e+00    0    1.18e+00
2006 06 26  0505    53912   18300      0    1.65e+00    0    1.16e+00
2006 06 26  0510    53912   18600      0    1.74e+00    0    1.22e+00
2006 06 26  0515    53912   18900      0    1.68e+00    0    1.18e+00
2006 06 26  0520    53912   19200      0    1.69e+00    0    1.19e+00
2006 06 26  0525    53912   19500      0    1.71e+00    0    1.20e+00
2006 06 26  0530    53912   19800      0    1.73e+00    0    1.21e+00
2006 06 26  0535    53912   20100      0    1.67e+00    0    1.16e+00
2006 06 26  0540    53912   20400      0    1.69e+00    0    1.18e+00
2006 06 26  0545    53912   20700      0    1.65e+00    0    1.16e+00
2006 06 26  0550    53912   21000      0    1.69e+00    0    1.18e+00
2006 06 26  0555    53912   21300      0    1.69e+00    0    1.18e+00
2006 06 26  0600    53912   21600      0    1.66e+00    0    1.15e+00
2006 06 26  0605    53912   21900      0    1.65e+00    0    1.16e+00
2006 06 26  0610    53912   22200      0    1.67e+00    0    1.17e+00
2006 06 26  0615    53912   22500      0    1.62e+00    0    1.14e+00
2006 06 26  0620    53912   22800      0    1.66e+00    0    1.16e+00
2006 06 26  0625    53912   23100      0    1.72e+00    0    1.21e+00
2006 06 26  0630    53912   23400      0    1.71e+00    0    1.21e+00
2006 06 26  0635    53912   23700      0    1.66e+00    0    1.16e+00
2006 06 26  0640    53912   24000      0    1.70e+00    0    1.20e+00
2006 06 26  0645    53912   24300      0    1.72e+00    0    1.21e+00
2006 06 26  0650    53912   24600      0    1.67e+00    0    1.17e+00
2006 06 26  0655    53912   24900      0    1.69e+00    0    1.20e+00
2006 06 26  0700    53912   25200      0    1.73e+00    0    1.21e+00
2006 06 26  0705    53912   25500      0    1.66e+00    0    1.16e+00
2006 06 26  0710    53912   25800      0    1.68e+00    0    1.17e+00
2006 06 26  0715    53912   26100      0    1.69e+00    0    1.18e+00
2006 06 26  0720    53912   26400      0    1.67e+00    0    1.16e+00
2006 06 26  0725    53912   26700      0    1.68e+00    0    1.18e+00
2006 06 26  0730    53912   27000      0    1.58e+00    0    1.09e+00
2006 06 26  0735    53912   27300      0    1.68e+00    0    1.18e+00
2006 06 26  0740    53912   27600      0    1.67e+00    0    1.16e+00
2006 06 26  0745    53912   27900      0    1.69e+00    0    1.18e+00
2006 06 26  0750    53912   28200      0    1.70e+00    0    1.20e+00
2006 06 26  0755    53912   28500      0    1.72e+00    0    1.20e+00
2006 06 26  0800    53912   28800      0    1.70e+00    0    1.19e+00
2006 06 26  0805    53912   29100      0    1.69e+00    0    1.19e+00
2006 06 26  0810    53912   29400      0    1.71e+00    0    1.20e+00
2006 06 26  0815    53912   29700      0    1.69e+00    0    1.18e+00
2006 06 26  0820    53912   30000      0    1.66e+00    0    1.16e+00
2006 06 26  0825    53912   30300      0    1.70e+00    0    1.19e+00
2006 06 26  0830    53912   30600      0    1.71e+00    0    1.21e+00
2006 06 26  0835    53912   30900      0    1.69e+00    0    1.17e+00
2006 06 26  0840    53912   31200      0    1.70e+00    0    1.18e+00
2006 06 26  0845    53912   31500      0    1.68e+00    0    1.18e+00
2006 06 26  0850    53912   31800      0    1.68e+00    0    1.17e+00
2006 06 26  0855    53912   32100      0    1.66e+00    0    1.14e+00
2006 06 26  0900    53912   32400      0    1.69e+00    0    1.19e+00
2006 06 26  0905    53912   32700      0    1.70e+00    0    1.20e+00
2006 06 26  0910    53912   33000      0    1.69e+00    0    1.20e+00
2006 06 26  0915    53912   33300      0    1.72e+00    0    1.20e+00
2006 06 26  0920    53912   33600      0    1.66e+00    0    1.17e+00
2006 06 26  0925    53912   33900      0    1.71e+00    0    1.20e+00
2006 06 26  0930    53912   34200      0    1.71e+00    0    1.20e+00
2006 06 26  0935    53912   34500      0    1.70e+00    0    1.19e+00
2006 06 26  0940    53912   34800      0    1.67e+00    0    1.17e+00
2006 06 26  0945    53912   35100      0    1.73e+00    0    1.22e+00
2006 06 26  0950    53912   35400      0    1.71e+00    0    1.21e+00
2006 06 26  0955    53912   35700      0    1.76e+00    0    1.24e+00
2006 06 26  1000    53912   36000      0    1.68e+00    0    1.17e+00
2006 06 26  1005    53912   36300      0    1.70e+00    0    1.19e+00
2006 06 26  1010    53912   36600      0    1.71e+00    0    1.20e+00
2006 06 26  1015    53912   36900      0    1.70e+00    0    1.21e+00
2006 06 26  1020    53912   37200      0    1.69e+00    0    1.19e+00
2006 06 26  1025    53912   37500      0    1.67e+00    0    1.18e+00
2006 06 26  1030    53912   37800      0    1.68e+00    0    1.17e+00
2006 06 26  1035    53912   38100      0    1.70e+00    0    1.19e+00
2006 06 26  1040    53912   38400      0    1.70e+00    0    1.19e+00
2006 06 26  1045    53912   38700      0    1.71e+00    0    1.20e+00
2006 06 26  1050    53912   39000      0    1.74e+00    0    1.21e+00
2006 06 26  1055    53912   39300      0    1.69e+00    0    1.19e+00
2006 06 26  1100    53912   39600      0    1.67e+00    0    1.16e+00
2006 06 26  1105    53912   39900      0    1.72e+00    0    1.20e+00
2006 06 26  1110    53912   40200      0    1.69e+00    0    1.19e+00
2006 06 26  1115    53912   40500      0    1.71e+00    0    1.21e+00
2006 06 26  1120    53912   40800      0    1.70e+00    0    1.19e+00
2006 06 26  1125    53912   41100      0    1.72e+00    0    1.20e+00
2006 06 26  1130    53912   41400      0    1.68e+00    0    1.18e+00
2006 06 26  1135    53912   41700      0    1.68e+00    0    1.18e+00
2006 06 26  1140    53912   42000      0    1.67e+00    0    1.17e+00
2006 06 26  1145    53912   42300      0    1.70e+00    0    1.20e+00
2006 06 26  1150    53912   42600      0    1.68e+00    0    1.18e+00
2006 06 26  1155    53912   42900      0    1.70e+00    0    1.20e+00
2006 06 26  1200    53912   43200      0    1.68e+00    0    1.18e+00
2006 06 26  1205    53912   43500      0    1.65e+00    0    1.16e+00
2006 06 26  1210    53912   43800      0    1.70e+00    0    1.19e+00
2006 06 26  1215    53912   44100      0    1.67e+00    0    1.18e+00
2006 06 26  1220    53912   44400      0    1.71e+00    0    1.19e+00
2006 06 26  1225    53912   44700      0    1.69e+00    0    1.17e+00
2006 06 26  1230    53912   45000      0    1.69e+00    0    1.17e+00
2006 06 26  1235    53912   45300      0    1.65e+00    0    1.15e+00
2006 06 26  1240    53912   45600      0    1.67e+00    0    1.17e+00
2006 06 26  1245    53912   45900      0    1.70e+00    0    1.19e+00
2006 06 26  1250    53912   46200      0    1.69e+00    0    1.18e+00
2006 06 26  1255    53912   46500      0    1.70e+00    0    1.19e+00
2006 06 26  1300    53912   46800      0    1.70e+00    0    1.18e+00
2006 06 26  1305    53912   47100      0    1.67e+00    0    1.16e+00
2006 06 26  1310    53912   47400      0    1.66e+00    0    1.16e+00
2006 06 26  1315    53912   47700      0    1.70e+00    0    1.18e+00
2006 06 26  1320    53912   48000      0    1.66e+00    0    1.16e+00
2006 06 26  1325    53912   48300      0    1.70e+00    0    1.20e+00
2006 06 26  1330    53912   48600      0    1.70e+00    0    1.20e+00
2006 06 26  1335    53912   48900      0    1.70e+00    0    1.20e+00
2006 06 26  1340    53912   49200      0    1.69e+00    0    1.19e+00
2006 06 26  1345    53912   49500      0    1.69e+00    0    1.19e+00
2006 06 26  1350    53912   49800      0    1.68e+00    0    1.17e+00
2006 06 26  1355    53912   50100      0    1.66e+00    0    1.16e+00
2006 06 26  1400    53912   50400      0    1.67e+00    0    1.17e+00
2006 06 26  1405    53912   50700      0    1.69e+00    0    1.18e+00
2006 06 26  1410    53912   51000      0    1.71e+00    0    1.21e+00
2006 06 26  1415    53912   51300      0    1.71e+00    0    1.20e+00
2006 06 26  1420    53912   51600      0    1.69e+00    0    1.17e+00
2006 06 26  1425    53912   51900      0    1.70e+00    0    1.19e+00
2006 06 26  1430    53912   52200      0    1.69e+00    0    1.19e+00
2006 06 26  1435    53912   52500      0    1.71e+00    0    1.19e+00
2006 06 26  1440    53912   52800      0    1.71e+00    0    1.20e+00
2006 06 26  1445    53912   53100      0    1.69e+00    0    1.18e+00
2006 06 26  1450    53912   53400      0    1.68e+00    0    1.17e+00
2006 06 26  1455    53912   53700      0    1.73e+00    0    1.21e+00
2006 06 26  1500    53912   54000      0    1.72e+00    0    1.22e+00
2006 06 26  1505    53912   54300      0    1.68e+00    0    1.17e+00
2006 06 26  1510    53912   54600      0    1.68e+00    0    1.17e+00
2006 06 26  1515    53912   54900      0    1.71e+00    0    1.21e+00
2006 06 26  1520    53912   55200      0    1.71e+00    0    1.20e+00
2006 06 26  1525    53912   55500      0    1.71e+00    0    1.19e+00
2006 06 26  1530    53912   55800      0    1.70e+00    0    1.19e+00
2006 06 26  1535    53912   56100      0    1.67e+00    0    1.17e+00
2006 06 26  1540    53912   56400      0    1.71e+00    0    1.21e+00
2006 06 26  1545    53912   56700      0    1.66e+00    0    1.16e+00
2006 06 26  1550    53912   57000      0    1.71e+00    0    1.19e+00
2006 06 26  1555    53912   57300      0    1.66e+00    0    1.16e+00
2006 06 26  1600    53912   57600      0    1.73e+00    0    1.21e+00
2006 06 26  1605    53912   57900      0    1.67e+00    0    1.17e+00
2006 06 26  1610    53912   58200      0    1.71e+00    0    1.21e+00
2006 06 26  1615    53912   58500      0    1.70e+00    0    1.18e+00
2006 06 26  1620    53912   58800      0    1.70e+00    0    1.19e+00
2006 06 26  1625    53912   59100      0    1.68e+00    0    1.18e+00
2006 06 26  1630    53912   59400      0    1.69e+00    0    1.19e+00
2006 06 26  1635    53912   59700      0    1.67e+00    0    1.17e+00
2006 06 26  1640    53912   60000      0    1.72e+00    0    1.21e+00
2006 06 26  1645    53912   60300      0    1.73e+00    0    1.23e+00
2006 06 26  1650    53912   60600      0    1.70e+00    0    1.20e+00
2006 06 26  1655    53912   60900      0    1.72e+00    0    1.20e+00
2006 06 26  1700    53912   61200      0    1.73e+00    0    1.21e+00
2006 06 26  1705    53912   61500      0    1.70e+00    0    1.19e+00
2006 06 26  1710    53912   61800      0    1.72e+00    0    1.21e+00
2006 06 26  1715    53912   62100      0    1.73e+00    0    1.21e+00
2006 06 26  1720    53912   62400      0    1.73e+00    0    1.21e+00
2006 06 26  1725    53912   62700      0    1.69e+00    0    1.19e+00
2006 06 26  1730    53912   63000      0    1.69e+00    0    1.17e+00
2006 06 26  1735    53912   63300      0    1.71e+00    0    1.20e+00
2006 06 26  1740    53912   63600      0    1.70e+00    0    1.20e+00
2006 06 26  1745    53912   63900      0    1.71e+00    0    1.20e+00
2006 06 26  1750    53912   64200      0    1.71e+00    0    1.20e+00
2006 06 26  1755    53912   64500      0    1.73e+00    0    1.21e+00
2006 06 26  1800    53912   64800      0    1.69e+00    0    1.19e+00
2006 06 26  1805    53912   65100      0    1.71e+00    0    1.20e+00
2006 06 26  1810    53912   65400      0    1.68e+00    0    1.17e+00
2006 06 26  1815    53912   65700      0    1.71e+00    0    1.19e+00
2006 06 26  1820    53912   66000      0    1.69e+00    0    1.19e+00
2006 06 26  1825    53912   66300      0    1.69e+00    0    1.19e+00
2006 06 26  1830    53912   66600      0    1.66e+00    0    1.16e+00
2006 06 26  1835    53912   66900      0    1.66e+00    0    1.16e+00
2006 06 26  1840    53912   67200      0    1.73e+00    0    1.22e+00
2006 06 26  1845    53912   67500      0    1.69e+00    0    1.18e+00
2006 06 26  1850    53912   67800      0    1.64e+00    0    1.16e+00
2006 06 26  1855    53912   68100      0    1.68e+00    0    1.18e+00
2006 06 26  1900    53912   68400      0    1.68e+00    0    1.17e+00
2006 06 26  1905    53912   68700      0    1.67e+00    0    1.18e+00
2006 06 26  1910    53912   69000      0    1.69e+00    0    1.18e+00
2006 06 26  1915    53912   69300      0    1.67e+00    0    1.17e+00
2006 06 26  1920    53912   69600      0    1.70e+00    0    1.20e+00
2006 06 26  1925    53912   69900      0    1.68e+00    0    1.18e+00
2006 06 26  1930    53912   70200      0    1.70e+00    0    1.19e+00
2006 06 26  1935    53912   70500      0    1.69e+00    0    1.18e+00
2006 06 26  1940    53912   70800      0    1.71e+00    0    1.20e+00
2006 06 26  1945    53912   71100      0    1.67e+00    0    1.16e+00
2006 06 26  1950    53912   71400      0    1.66e+00    0    1.16e+00
2006 06 26  1955    53912   71700      0    1.67e+00    0    1.18e+00
2006 06 26  2000    53912   72000      0    1.69e+00    0    1.19e+00
2006 06 26  2005    53912   72300      0    1.66e+00    0    1.16e+00
2006 06 26  2010    53912   72600      0    1.68e+00    0    1.17e+00
2006 06 26  2015    53912   72900      0    1.70e+00    0    1.19e+00
2006 06 26  2020    53912   73200      0    1.68e+00    0    1.18e+00
2006 06 26  2025    53912   73500      0    1.66e+00    0    1.17e+00
2006 06 26  2030    53912   73800      0    1.70e+00    0    1.19e+00
2006 06 26  2035    53912   74100      0    1.65e+00    0    1.17e+00
2006 06 26  2040    53912   74400      0    1.68e+00    0    1.18e+00
2006 06 26  2045    53912   74700      0    1.71e+00    0    1.20e+00
2006 06 26  2050    53912   75000      0    1.71e+00    0    1.21e+00
2006 06 26  2055    53912   75300      0    1.68e+00    0    1.18e+00
2006 06 26  2100    53912   75600      0    1.71e+00    0    1.19e+00
2006 06 26  2105    53912   75900      0    1.71e+00    0    1.20e+00
2006 06 26  2110    53912   76200      0    1.67e+00    0    1.18e+00
2006 06 26  2115    53912   76500      0    1.70e+00    0    1.20e+00
2006 06 26  2120    53912   76800      0    1.70e+00    0    1.18e+00
2006 06 26  2125    53912   77100      0    1.66e+00    0    1.16e+00
2006 06 26  2130    53912   77400      0    1.70e+00    0    1.18e+00
2006 06 26  2135    53912   77700      0    1.67e+00    0    1.18e+00
2006 06 26  2140    53912   78000      0    1.69e+00    0    1.19e+00
2006 06 26  2145    53912   78300      0    1.65e+00    0    1.15e+00
2006 06 26  2150    53912   78600      0    1.67e+00    0    1.17e+00
2006 06 26  2155    53912   78900      0    1.67e+00    0    1.16e+00
2006 06 26  2200    53912   79200      0    1.69e+00    0    1.18e+00
2006 06 26  2205    53912   79500      0    1.69e+00    0    1.17e+00
2006 06 26  2210    53912   79800      0    1.69e+00    0    1.19e+00
2006 06 26  2215    53912   80100      0    1.69e+00    0    1.18e+00
2006 06 26  2220    53912   80400      0    1.69e+00    0    1.18e+00
2006 06 26  2225    53912   80700      0    1.67e+00    0    1.17e+00
2006 06 26  2230    53912   81000      0    1.70e+00    0    1.19e+00
2006 06 26  2235    53912   81300      0    1.68e+00    0    1.18e+00
2006 06 26  2240    53912   81600      0    1.65e+00    0    1.16e+00
2006 06 26  2245    53912   81900      0    1.68e+00    0    1.18e+00
2006 06 26  2250    53912   82200      0    1.71e+00    0    1.20e+00
2006 06 26  2255    53912   82500      0    1.71e+00    0    1.20e+00
2006 06 26  2300    53912   82800      0    1.67e+00    0    1.17e+00
2006 06 26  2305    53912   83100      0    1.70e+00    0    1.20e+00
2006 06 26  2310    53912   83400      0    1.68e+00    0    1.18e+00
2006 06 26  2315    53912   83700      0    1.68e+00    0    1.19e+00
2006 06 26  2320    53912   84000      0    1.67e+00    0    1.16e+00
2006 06 26  2325    53912   84300      0    1.67e+00    0    1.16e+00
2006 06 26  2330    53912   84600      0    1.69e+00    0    1.19e+00
2006 06 26  2335    53912   84900      0    1.68e+00    0    1.17e+00
2006 06 26  2340    53912   85200      0    1.68e+00    0    1.18e+00
2006 06 26  2345    53912   85500      0    1.68e+00    0    1.16e+00
2006 06 26  2350    53912   85800      0    1.69e+00    0    1.18e+00
2006 06 26  2355    53912   86100      0    1.67e+00    0    1.17e+00
