:Data_list: 20060802_ace_sis_5m.txt
:Created: 2006 Aug 03 0011 UT
# Prepared by the U.S. Dept. of Commerce, NOAA, Space Environment Center.
# Please send comments and suggestions to SEC.Webmaster@noaa.gov 
# 
# Units: proton flux p/cs2-sec-ster
# Status(S): 0 = nominal data, 1 to 8 = bad data record, 9 = no data
# Missing data values: -1.00e+05
# Source: ACE Satellite - Solar Isotope Spectrometer
#
# 5-minute averaged Real-time Integral Flux of High-energy Solar Protons
# 
#                 Modified Seconds
# UT Date   Time   Julian  of the      ---- Integral Proton Flux ----
# YR MO DA  HHMM     Day     Day       S    > 10 MeV    S    > 30 MeV
#--------------------------------------------------------------------
2006 08 02  0000    53949       0      0    1.61e+00    0    1.13e+00
2006 08 02  0005    53949     300      0    1.65e+00    0    1.16e+00
2006 08 02  0010    53949     600      0    1.65e+00    0    1.17e+00
2006 08 02  0015    53949     900      0    1.67e+00    0    1.17e+00
2006 08 02  0020    53949    1200      0    1.67e+00    0    1.16e+00
2006 08 02  0025    53949    1500      0    1.65e+00    0    1.16e+00
2006 08 02  0030    53949    1800      0    1.65e+00    0    1.16e+00
2006 08 02  0035    53949    2100      0    1.62e+00    0    1.13e+00
2006 08 02  0040    53949    2400      0    1.71e+00    0    1.19e+00
2006 08 02  0045    53949    2700      0    1.65e+00    0    1.16e+00
2006 08 02  0050    53949    3000      0    1.65e+00    0    1.16e+00
2006 08 02  0055    53949    3300      0    1.66e+00    0    1.15e+00
2006 08 02  0100    53949    3600      0    1.66e+00    0    1.16e+00
2006 08 02  0105    53949    3900      0    1.70e+00    0    1.19e+00
2006 08 02  0110    53949    4200      0    1.67e+00    0    1.16e+00
2006 08 02  0115    53949    4500      0    1.65e+00    0    1.17e+00
2006 08 02  0120    53949    4800      0    1.63e+00    0    1.14e+00
2006 08 02  0125    53949    5100      0    1.68e+00    0    1.18e+00
2006 08 02  0130    53949    5400      0    1.68e+00    0    1.17e+00
2006 08 02  0135    53949    5700      0    1.67e+00    0    1.16e+00
2006 08 02  0140    53949    6000      0    1.68e+00    0    1.19e+00
2006 08 02  0145    53949    6300      0    1.65e+00    0    1.16e+00
2006 08 02  0150    53949    6600      0    1.65e+00    0    1.15e+00
2006 08 02  0155    53949    6900      0    1.64e+00    0    1.14e+00
2006 08 02  0200    53949    7200      0    1.65e+00    0    1.16e+00
2006 08 02  0205    53949    7500      0    1.67e+00    0    1.16e+00
2006 08 02  0210    53949    7800      0    1.65e+00    0    1.16e+00
2006 08 02  0215    53949    8100      0    1.68e+00    0    1.18e+00
2006 08 02  0220    53949    8400      0    1.69e+00    0    1.19e+00
2006 08 02  0225    53949    8700      0    1.66e+00    0    1.16e+00
2006 08 02  0230    53949    9000      0    1.63e+00    0    1.13e+00
2006 08 02  0235    53949    9300      0    1.63e+00    0    1.14e+00
2006 08 02  0240    53949    9600      0    1.66e+00    0    1.16e+00
2006 08 02  0245    53949    9900      0    1.68e+00    0    1.18e+00
2006 08 02  0250    53949   10200      0    1.69e+00    0    1.18e+00
2006 08 02  0255    53949   10500      0    1.66e+00    0    1.17e+00
2006 08 02  0300    53949   10800      0    1.69e+00    0    1.20e+00
2006 08 02  0305    53949   11100      0    1.69e+00    0    1.19e+00
2006 08 02  0310    53949   11400      0    1.65e+00    0    1.16e+00
2006 08 02  0315    53949   11700      0    1.67e+00    0    1.17e+00
2006 08 02  0320    53949   12000      0    1.66e+00    0    1.17e+00
2006 08 02  0325    53949   12300      0    1.67e+00    0    1.17e+00
2006 08 02  0330    53949   12600      0    1.66e+00    0    1.16e+00
2006 08 02  0335    53949   12900      0    1.66e+00    0    1.17e+00
2006 08 02  0340    53949   13200      0    1.68e+00    0    1.18e+00
2006 08 02  0345    53949   13500      0    1.66e+00    0    1.17e+00
2006 08 02  0350    53949   13800      0    1.64e+00    0    1.15e+00
2006 08 02  0355    53949   14100      0    1.64e+00    0    1.14e+00
2006 08 02  0400    53949   14400      0    1.69e+00    0    1.18e+00
2006 08 02  0405    53949   14700      0    1.69e+00    0    1.18e+00
2006 08 02  0410    53949   15000      0    1.66e+00    0    1.17e+00
2006 08 02  0415    53949   15300      0    1.65e+00    0    1.16e+00
2006 08 02  0420    53949   15600      0    1.61e+00    0    1.13e+00
2006 08 02  0425    53949   15900      0    1.64e+00    0    1.15e+00
2006 08 02  0430    53949   16200      0    1.65e+00    0    1.15e+00
2006 08 02  0435    53949   16500      0    1.65e+00    0    1.16e+00
2006 08 02  0440    53949   16800      0    1.66e+00    0    1.16e+00
2006 08 02  0445    53949   17100      0    1.64e+00    0    1.14e+00
2006 08 02  0450    53949   17400      0    1.66e+00    0    1.17e+00
2006 08 02  0455    53949   17700      0    1.65e+00    0    1.15e+00
2006 08 02  0500    53949   18000      0    1.67e+00    0    1.17e+00
2006 08 02  0505    53949   18300      0    1.64e+00    0    1.14e+00
2006 08 02  0510    53949   18600      0    1.61e+00    0    1.13e+00
2006 08 02  0515    53949   18900      0    1.64e+00    0    1.15e+00
2006 08 02  0520    53949   19200      0    1.66e+00    0    1.18e+00
2006 08 02  0525    53949   19500      0    1.65e+00    0    1.17e+00
2006 08 02  0530    53949   19800      0    1.66e+00    0    1.16e+00
2006 08 02  0535    53949   20100      0    1.65e+00    0    1.15e+00
2006 08 02  0540    53949   20400      0    1.65e+00    0    1.17e+00
2006 08 02  0545    53949   20700      0    1.65e+00    0    1.16e+00
2006 08 02  0550    53949   21000      0    1.66e+00    0    1.18e+00
2006 08 02  0555    53949   21300      0    1.63e+00    0    1.13e+00
2006 08 02  0600    53949   21600      0    1.65e+00    0    1.15e+00
2006 08 02  0605    53949   21900      0    1.67e+00    0    1.16e+00
2006 08 02  0610    53949   22200      0    1.66e+00    0    1.15e+00
2006 08 02  0615    53949   22500      0    1.65e+00    0    1.14e+00
2006 08 02  0620    53949   22800      0    1.66e+00    0    1.16e+00
2006 08 02  0625    53949   23100      0    1.64e+00    0    1.15e+00
2006 08 02  0630    53949   23400      0    1.64e+00    0    1.15e+00
2006 08 02  0635    53949   23700      0    1.66e+00    0    1.15e+00
2006 08 02  0640    53949   24000      0    1.61e+00    0    1.14e+00
2006 08 02  0645    53949   24300      0    1.66e+00    0    1.16e+00
2006 08 02  0650    53949   24600      0    1.62e+00    0    1.14e+00
2006 08 02  0655    53949   24900      0    1.64e+00    0    1.14e+00
2006 08 02  0700    53949   25200      0    1.65e+00    0    1.16e+00
2006 08 02  0705    53949   25500      0    1.62e+00    0    1.15e+00
2006 08 02  0710    53949   25800      0    1.67e+00    0    1.17e+00
2006 08 02  0715    53949   26100      0    1.67e+00    0    1.17e+00
2006 08 02  0720    53949   26400      0    1.63e+00    0    1.15e+00
2006 08 02  0725    53949   26700      0    1.64e+00    0    1.16e+00
2006 08 02  0730    53949   27000      0    1.67e+00    0    1.18e+00
2006 08 02  0735    53949   27300      0    1.62e+00    0    1.14e+00
2006 08 02  0740    53949   27600      0    1.66e+00    0    1.17e+00
2006 08 02  0745    53949   27900      0    1.65e+00    0    1.16e+00
2006 08 02  0750    53949   28200      0    1.67e+00    0    1.17e+00
2006 08 02  0755    53949   28500      0    1.63e+00    0    1.15e+00
2006 08 02  0800    53949   28800      0    1.65e+00    0    1.15e+00
2006 08 02  0805    53949   29100      0    1.66e+00    0    1.18e+00
2006 08 02  0810    53949   29400      0    1.66e+00    0    1.16e+00
2006 08 02  0815    53949   29700      0    1.65e+00    0    1.15e+00
2006 08 02  0820    53949   30000      0    1.68e+00    0    1.19e+00
2006 08 02  0825    53949   30300      0    1.64e+00    0    1.14e+00
2006 08 02  0830    53949   30600      0    1.63e+00    0    1.14e+00
2006 08 02  0835    53949   30900      0    1.65e+00    0    1.17e+00
2006 08 02  0840    53949   31200      0    1.60e+00    0    1.12e+00
2006 08 02  0845    53949   31500      0    1.65e+00    0    1.16e+00
2006 08 02  0850    53949   31800      0    1.65e+00    0    1.16e+00
2006 08 02  0855    53949   32100      0    1.64e+00    0    1.15e+00
2006 08 02  0900    53949   32400      0    1.66e+00    0    1.16e+00
2006 08 02  0905    53949   32700      0    1.66e+00    0    1.16e+00
2006 08 02  0910    53949   33000      0    1.65e+00    0    1.16e+00
2006 08 02  0915    53949   33300      0    1.61e+00    0    1.12e+00
2006 08 02  0920    53949   33600      0    1.63e+00    0    1.14e+00
2006 08 02  0925    53949   33900      0    1.66e+00    0    1.16e+00
2006 08 02  0930    53949   34200      0    1.61e+00    0    1.12e+00
2006 08 02  0935    53949   34500      0    1.67e+00    0    1.18e+00
2006 08 02  0940    53949   34800      0    1.63e+00    0    1.13e+00
2006 08 02  0945    53949   35100      0    1.67e+00    0    1.16e+00
2006 08 02  0950    53949   35400      0    1.68e+00    0    1.17e+00
2006 08 02  0955    53949   35700      0    1.61e+00    0    1.12e+00
2006 08 02  1000    53949   36000      0    1.65e+00    0    1.15e+00
2006 08 02  1005    53949   36300      0    1.65e+00    0    1.16e+00
2006 08 02  1010    53949   36600      0    1.62e+00    0    1.14e+00
2006 08 02  1015    53949   36900      0    1.65e+00    0    1.15e+00
2006 08 02  1020    53949   37200      0    1.63e+00    0    1.15e+00
2006 08 02  1025    53949   37500      0    1.65e+00    0    1.16e+00
2006 08 02  1030    53949   37800      0    1.66e+00    0    1.15e+00
2006 08 02  1035    53949   38100      0    1.66e+00    0    1.16e+00
2006 08 02  1040    53949   38400      0    1.67e+00    0    1.18e+00
2006 08 02  1045    53949   38700      0    1.66e+00    0    1.16e+00
2006 08 02  1050    53949   39000      0    1.68e+00    0    1.18e+00
2006 08 02  1055    53949   39300      0    1.65e+00    0    1.16e+00
2006 08 02  1100    53949   39600      0    1.67e+00    0    1.16e+00
2006 08 02  1105    53949   39900      0    1.64e+00    0    1.14e+00
2006 08 02  1110    53949   40200      0    1.63e+00    0    1.14e+00
2006 08 02  1115    53949   40500      0    1.67e+00    0    1.17e+00
2006 08 02  1120    53949   40800      0    1.66e+00    0    1.16e+00
2006 08 02  1125    53949   41100      0    1.64e+00    0    1.13e+00
2006 08 02  1130    53949   41400      0    1.72e+00    0    1.20e+00
2006 08 02  1135    53949   41700      0    1.65e+00    0    1.15e+00
2006 08 02  1140    53949   42000      0    1.68e+00    0    1.18e+00
2006 08 02  1145    53949   42300      0    1.67e+00    0    1.17e+00
2006 08 02  1150    53949   42600      0    1.64e+00    0    1.15e+00
2006 08 02  1155    53949   42900      0    1.66e+00    0    1.15e+00
2006 08 02  1200    53949   43200      0    1.64e+00    0    1.14e+00
2006 08 02  1205    53949   43500      0    1.67e+00    0    1.17e+00
2006 08 02  1210    53949   43800      0    1.63e+00    0    1.14e+00
2006 08 02  1215    53949   44100      0    1.61e+00    0    1.12e+00
2006 08 02  1220    53949   44400      0    1.62e+00    0    1.13e+00
2006 08 02  1225    53949   44700      0    1.65e+00    0    1.17e+00
2006 08 02  1230    53949   45000      0    1.63e+00    0    1.12e+00
2006 08 02  1235    53949   45300      0    1.68e+00    0    1.19e+00
2006 08 02  1240    53949   45600      0    1.63e+00    0    1.14e+00
2006 08 02  1245    53949   45900      0    1.64e+00    0    1.15e+00
2006 08 02  1250    53949   46200      0    1.67e+00    0    1.16e+00
2006 08 02  1255    53949   46500      0    1.67e+00    0    1.16e+00
2006 08 02  1300    53949   46800      0    1.68e+00    0    1.18e+00
2006 08 02  1305    53949   47100      0    1.64e+00    0    1.16e+00
2006 08 02  1310    53949   47400      0    1.65e+00    0    1.15e+00
2006 08 02  1315    53949   47700      0    1.63e+00    0    1.13e+00
2006 08 02  1320    53949   48000      0    1.64e+00    0    1.14e+00
2006 08 02  1325    53949   48300      0    1.64e+00    0    1.16e+00
2006 08 02  1330    53949   48600      0    1.63e+00    0    1.15e+00
2006 08 02  1335    53949   48900      0    1.69e+00    0    1.19e+00
2006 08 02  1340    53949   49200      0    1.64e+00    0    1.14e+00
2006 08 02  1345    53949   49500      0    1.62e+00    0    1.14e+00
2006 08 02  1350    53949   49800      0    1.65e+00    0    1.16e+00
2006 08 02  1355    53949   50100      0    1.63e+00    0    1.14e+00
2006 08 02  1400    53949   50400      0    1.65e+00    0    1.16e+00
2006 08 02  1405    53949   50700      0    1.58e+00    0    1.09e+00
2006 08 02  1410    53949   51000      0    1.64e+00    0    1.15e+00
2006 08 02  1415    53949   51300      0    1.66e+00    0    1.17e+00
2006 08 02  1420    53949   51600      0    1.62e+00    0    1.14e+00
2006 08 02  1425    53949   51900      0    1.65e+00    0    1.15e+00
2006 08 02  1430    53949   52200      0    1.63e+00    0    1.14e+00
2006 08 02  1435    53949   52500      0    1.64e+00    0    1.14e+00
2006 08 02  1440    53949   52800      0    1.65e+00    0    1.16e+00
2006 08 02  1445    53949   53100      0    1.61e+00    0    1.12e+00
2006 08 02  1450    53949   53400      0    1.68e+00    0    1.18e+00
2006 08 02  1455    53949   53700      0    1.67e+00    0    1.16e+00
2006 08 02  1500    53949   54000      0    1.64e+00    0    1.14e+00
2006 08 02  1505    53949   54300      0    1.67e+00    0    1.17e+00
2006 08 02  1510    53949   54600      0    1.65e+00    0    1.16e+00
2006 08 02  1515    53949   54900      0    1.64e+00    0    1.15e+00
2006 08 02  1520    53949   55200      0    1.65e+00    0    1.17e+00
2006 08 02  1525    53949   55500      0    1.65e+00    0    1.16e+00
2006 08 02  1530    53949   55800      0    1.71e+00    0    1.21e+00
2006 08 02  1535    53949   56100      0    1.66e+00    0    1.17e+00
2006 08 02  1540    53949   56400      0    1.64e+00    0    1.16e+00
2006 08 02  1545    53949   56700      0    1.64e+00    0    1.15e+00
2006 08 02  1550    53949   57000      0    1.70e+00    0    1.18e+00
2006 08 02  1555    53949   57300      0    1.64e+00    0    1.14e+00
2006 08 02  1600    53949   57600      0    1.64e+00    0    1.14e+00
2006 08 02  1605    53949   57900      0    1.67e+00    0    1.17e+00
2006 08 02  1610    53949   58200      0    1.69e+00    0    1.18e+00
2006 08 02  1615    53949   58500      0    1.65e+00    0    1.16e+00
2006 08 02  1620    53949   58800      0    1.61e+00    0    1.13e+00
2006 08 02  1625    53949   59100      0    1.67e+00    0    1.17e+00
2006 08 02  1630    53949   59400      0    1.69e+00    0    1.18e+00
2006 08 02  1635    53949   59700      0    1.67e+00    0    1.17e+00
2006 08 02  1640    53949   60000      0    1.63e+00    0    1.14e+00
2006 08 02  1645    53949   60300      0    1.69e+00    0    1.18e+00
2006 08 02  1650    53949   60600      0    1.61e+00    0    1.12e+00
2006 08 02  1655    53949   60900      0    1.67e+00    0    1.19e+00
2006 08 02  1700    53949   61200      0    1.68e+00    0    1.18e+00
2006 08 02  1705    53949   61500      0    1.66e+00    0    1.16e+00
2006 08 02  1710    53949   61800      0    1.64e+00    0    1.15e+00
2006 08 02  1715    53949   62100      0    1.66e+00    0    1.18e+00
2006 08 02  1720    53949   62400      0    1.68e+00    0    1.17e+00
2006 08 02  1725    53949   62700      0    1.69e+00    0    1.18e+00
2006 08 02  1730    53949   63000      0    1.64e+00    0    1.15e+00
2006 08 02  1735    53949   63300      0    1.63e+00    0    1.14e+00
2006 08 02  1740    53949   63600      0    1.64e+00    0    1.14e+00
2006 08 02  1745    53949   63900      0    1.66e+00    0    1.17e+00
2006 08 02  1750    53949   64200      0    1.65e+00    0    1.16e+00
2006 08 02  1755    53949   64500      0    1.67e+00    0    1.17e+00
2006 08 02  1800    53949   64800      0    1.66e+00    0    1.16e+00
2006 08 02  1805    53949   65100      0    1.63e+00    0    1.14e+00
2006 08 02  1810    53949   65400      0    1.67e+00    0    1.16e+00
2006 08 02  1815    53949   65700      0    1.66e+00    0    1.17e+00
2006 08 02  1820    53949   66000      0    1.65e+00    0    1.16e+00
2006 08 02  1825    53949   66300      0    1.65e+00    0    1.15e+00
2006 08 02  1830    53949   66600      0    1.67e+00    0    1.15e+00
2006 08 02  1835    53949   66900      0    1.64e+00    0    1.15e+00
2006 08 02  1840    53949   67200      0    1.63e+00    0    1.14e+00
2006 08 02  1845    53949   67500      0    1.66e+00    0    1.17e+00
2006 08 02  1850    53949   67800      0    1.68e+00    0    1.18e+00
2006 08 02  1855    53949   68100      0    1.63e+00    0    1.14e+00
2006 08 02  1900    53949   68400      0    1.62e+00    0    1.13e+00
2006 08 02  1905    53949   68700      0    1.66e+00    0    1.17e+00
2006 08 02  1910    53949   69000      0    1.65e+00    0    1.16e+00
2006 08 02  1915    53949   69300      0    1.64e+00    0    1.15e+00
2006 08 02  1920    53949   69600      0    1.64e+00    0    1.15e+00
2006 08 02  1925    53949   69900      0    1.65e+00    0    1.16e+00
2006 08 02  1930    53949   70200      0    1.65e+00    0    1.15e+00
2006 08 02  1935    53949   70500      0    1.68e+00    0    1.17e+00
2006 08 02  1940    53949   70800      0    1.67e+00    0    1.16e+00
2006 08 02  1945    53949   71100      0    1.64e+00    0    1.15e+00
2006 08 02  1950    53949   71400      0    1.63e+00    0    1.14e+00
2006 08 02  1955    53949   71700      0    1.64e+00    0    1.15e+00
2006 08 02  2000    53949   72000      0    1.65e+00    0    1.16e+00
2006 08 02  2005    53949   72300      0    1.69e+00    0    1.18e+00
2006 08 02  2010    53949   72600      0    1.65e+00    0    1.15e+00
2006 08 02  2015    53949   72900      0    1.68e+00    0    1.20e+00
2006 08 02  2020    53949   73200      0    1.64e+00    0    1.16e+00
2006 08 02  2025    53949   73500      0    1.66e+00    0    1.16e+00
2006 08 02  2030    53949   73800      0    1.64e+00    0    1.15e+00
2006 08 02  2035    53949   74100      0    1.64e+00    0    1.15e+00
2006 08 02  2040    53949   74400      0    1.69e+00    0    1.19e+00
2006 08 02  2045    53949   74700      0    1.63e+00    0    1.14e+00
2006 08 02  2050    53949   75000      0    1.67e+00    0    1.17e+00
2006 08 02  2055    53949   75300      0    1.65e+00    0    1.15e+00
2006 08 02  2100    53949   75600      0    1.68e+00    0    1.18e+00
2006 08 02  2105    53949   75900      0    1.63e+00    0    1.14e+00
2006 08 02  2110    53949   76200      0    1.65e+00    0    1.16e+00
2006 08 02  2115    53949   76500      0    1.64e+00    0    1.15e+00
2006 08 02  2120    53949   76800      0    1.65e+00    0    1.17e+00
2006 08 02  2125    53949   77100      0    1.64e+00    0    1.15e+00
2006 08 02  2130    53949   77400      0    1.65e+00    0    1.16e+00
2006 08 02  2135    53949   77700      0    1.65e+00    0    1.16e+00
2006 08 02  2140    53949   78000      0    1.67e+00    0    1.17e+00
2006 08 02  2145    53949   78300      0    1.67e+00    0    1.17e+00
2006 08 02  2150    53949   78600      0    1.63e+00    0    1.14e+00
2006 08 02  2155    53949   78900      0    1.67e+00    0    1.17e+00
2006 08 02  2200    53949   79200      0    1.68e+00    0    1.18e+00
2006 08 02  2205    53949   79500      0    1.66e+00    0    1.16e+00
2006 08 02  2210    53949   79800      0    1.65e+00    0    1.15e+00
2006 08 02  2215    53949   80100      0    1.65e+00    0    1.17e+00
2006 08 02  2220    53949   80400      0    1.68e+00    0    1.17e+00
2006 08 02  2225    53949   80700      0    1.65e+00    0    1.16e+00
2006 08 02  2230    53949   81000      0    1.68e+00    0    1.17e+00
2006 08 02  2235    53949   81300      0    1.66e+00    0    1.15e+00
2006 08 02  2240    53949   81600      0    1.64e+00    0    1.14e+00
2006 08 02  2245    53949   81900      0    1.68e+00    0    1.18e+00
2006 08 02  2250    53949   82200      0    1.64e+00    0    1.15e+00
2006 08 02  2255    53949   82500      0    1.66e+00    0    1.17e+00
2006 08 02  2300    53949   82800      0    1.62e+00    0    1.14e+00
2006 08 02  2305    53949   83100      0    1.67e+00    0    1.17e+00
2006 08 02  2310    53949   83400      0    1.62e+00    0    1.14e+00
2006 08 02  2315    53949   83700      0    1.65e+00    0    1.16e+00
2006 08 02  2320    53949   84000      0    1.63e+00    0    1.15e+00
2006 08 02  2325    53949   84300      0    1.68e+00    0    1.20e+00
2006 08 02  2330    53949   84600      0    1.67e+00    0    1.17e+00
2006 08 02  2335    53949   84900      9   -1.00e+05    9   -1.00e+05
2006 08 02  2340    53949   85200      9   -1.00e+05    9   -1.00e+05
2006 08 02  2345    53949   85500      9   -1.00e+05    9   -1.00e+05
2006 08 02  2350    53949   85800      9   -1.00e+05    9   -1.00e+05
2006 08 02  2355    53949   86100      9   -1.00e+05    9   -1.00e+05
