:Data_list: 20060812_ace_sis_5m.txt
:Created: 2006 Aug 13 0011 UT
# Prepared by the U.S. Dept. of Commerce, NOAA, Space Environment Center.
# Please send comments and suggestions to SEC.Webmaster@noaa.gov 
# 
# Units: proton flux p/cs2-sec-ster
# Status(S): 0 = nominal data, 1 to 8 = bad data record, 9 = no data
# Missing data values: -1.00e+05
# Source: ACE Satellite - Solar Isotope Spectrometer
#
# 5-minute averaged Real-time Integral Flux of High-energy Solar Protons
# 
#                 Modified Seconds
# UT Date   Time   Julian  of the      ---- Integral Proton Flux ----
# YR MO DA  HHMM     Day     Day       S    > 10 MeV    S    > 30 MeV
#--------------------------------------------------------------------
2006 08 12  0000    53959       0      0    1.68e+00    0    1.18e+00
2006 08 12  0005    53959     300      0    1.67e+00    0    1.17e+00
2006 08 12  0010    53959     600      0    1.64e+00    0    1.14e+00
2006 08 12  0015    53959     900      0    1.66e+00    0    1.15e+00
2006 08 12  0020    53959    1200      0    1.68e+00    0    1.17e+00
2006 08 12  0025    53959    1500      0    1.68e+00    0    1.19e+00
2006 08 12  0030    53959    1800      0    1.64e+00    0    1.14e+00
2006 08 12  0035    53959    2100      0    1.63e+00    0    1.12e+00
2006 08 12  0040    53959    2400      0    1.62e+00    0    1.15e+00
2006 08 12  0045    53959    2700      0    1.65e+00    0    1.16e+00
2006 08 12  0050    53959    3000      0    1.63e+00    0    1.14e+00
2006 08 12  0055    53959    3300      0    1.68e+00    0    1.17e+00
2006 08 12  0100    53959    3600      0    1.66e+00    0    1.17e+00
2006 08 12  0105    53959    3900      0    1.65e+00    0    1.14e+00
2006 08 12  0110    53959    4200      0    1.65e+00    0    1.16e+00
2006 08 12  0115    53959    4500      0    1.64e+00    0    1.15e+00
2006 08 12  0120    53959    4800      0    1.65e+00    0    1.14e+00
2006 08 12  0125    53959    5100      0    1.70e+00    0    1.19e+00
2006 08 12  0130    53959    5400      0    1.65e+00    0    1.16e+00
2006 08 12  0135    53959    5700      0    1.68e+00    0    1.17e+00
2006 08 12  0140    53959    6000      0    1.62e+00    0    1.14e+00
2006 08 12  0145    53959    6300      0    1.65e+00    0    1.16e+00
2006 08 12  0150    53959    6600      0    1.67e+00    0    1.16e+00
2006 08 12  0155    53959    6900      0    1.65e+00    0    1.16e+00
2006 08 12  0200    53959    7200      0    1.66e+00    0    1.17e+00
2006 08 12  0205    53959    7500      0    1.66e+00    0    1.16e+00
2006 08 12  0210    53959    7800      0    1.69e+00    0    1.19e+00
2006 08 12  0215    53959    8100      0    1.66e+00    0    1.17e+00
2006 08 12  0220    53959    8400      0    1.67e+00    0    1.17e+00
2006 08 12  0225    53959    8700      0    1.65e+00    0    1.15e+00
2006 08 12  0230    53959    9000      0    1.62e+00    0    1.12e+00
2006 08 12  0235    53959    9300      0    1.66e+00    0    1.17e+00
2006 08 12  0240    53959    9600      0    1.60e+00    0    1.11e+00
2006 08 12  0245    53959    9900      0    1.67e+00    0    1.18e+00
2006 08 12  0250    53959   10200      0    1.65e+00    0    1.16e+00
2006 08 12  0255    53959   10500      0    1.65e+00    0    1.16e+00
2006 08 12  0300    53959   10800      0    1.65e+00    0    1.16e+00
2006 08 12  0305    53959   11100      0    1.65e+00    0    1.16e+00
2006 08 12  0310    53959   11400      0    1.66e+00    0    1.16e+00
2006 08 12  0315    53959   11700      0    1.65e+00    0    1.16e+00
2006 08 12  0320    53959   12000      0    1.66e+00    0    1.16e+00
2006 08 12  0325    53959   12300      0    1.64e+00    0    1.14e+00
2006 08 12  0330    53959   12600      0    1.67e+00    0    1.17e+00
2006 08 12  0335    53959   12900      0    1.61e+00    0    1.13e+00
2006 08 12  0340    53959   13200      0    1.62e+00    0    1.13e+00
2006 08 12  0345    53959   13500      0    1.63e+00    0    1.14e+00
2006 08 12  0350    53959   13800      0    1.66e+00    0    1.17e+00
2006 08 12  0355    53959   14100      0    1.69e+00    0    1.18e+00
2006 08 12  0400    53959   14400      0    1.66e+00    0    1.15e+00
2006 08 12  0405    53959   14700      0    1.69e+00    0    1.18e+00
2006 08 12  0410    53959   15000      0    1.68e+00    0    1.17e+00
2006 08 12  0415    53959   15300      0    1.66e+00    0    1.16e+00
2006 08 12  0420    53959   15600      0    1.68e+00    0    1.17e+00
2006 08 12  0425    53959   15900      0    1.64e+00    0    1.14e+00
2006 08 12  0430    53959   16200      0    1.69e+00    0    1.18e+00
2006 08 12  0435    53959   16500      0    1.69e+00    0    1.18e+00
2006 08 12  0440    53959   16800      0    1.64e+00    0    1.15e+00
2006 08 12  0445    53959   17100      0    1.66e+00    0    1.17e+00
2006 08 12  0450    53959   17400      0    1.67e+00    0    1.18e+00
2006 08 12  0455    53959   17700      0    1.64e+00    0    1.15e+00
2006 08 12  0500    53959   18000      0    1.69e+00    0    1.17e+00
2006 08 12  0505    53959   18300      0    1.66e+00    0    1.17e+00
2006 08 12  0510    53959   18600      0    1.66e+00    0    1.16e+00
2006 08 12  0515    53959   18900      0    1.61e+00    0    1.12e+00
2006 08 12  0520    53959   19200      0    1.64e+00    0    1.15e+00
2006 08 12  0525    53959   19500      0    1.64e+00    0    1.15e+00
2006 08 12  0530    53959   19800      0    1.64e+00    0    1.14e+00
2006 08 12  0535    53959   20100      0    1.66e+00    0    1.15e+00
2006 08 12  0540    53959   20400      0    1.63e+00    0    1.13e+00
2006 08 12  0545    53959   20700      0    1.65e+00    0    1.16e+00
2006 08 12  0550    53959   21000      0    1.63e+00    0    1.15e+00
2006 08 12  0555    53959   21300      0    1.66e+00    0    1.17e+00
2006 08 12  0600    53959   21600      0    1.71e+00    0    1.21e+00
2006 08 12  0605    53959   21900      0    1.63e+00    0    1.14e+00
2006 08 12  0610    53959   22200      0    1.66e+00    0    1.17e+00
2006 08 12  0615    53959   22500      0    1.64e+00    0    1.15e+00
2006 08 12  0620    53959   22800      0    1.67e+00    0    1.17e+00
2006 08 12  0625    53959   23100      0    1.67e+00    0    1.17e+00
2006 08 12  0630    53959   23400      0    1.66e+00    0    1.16e+00
2006 08 12  0635    53959   23700      0    1.66e+00    0    1.16e+00
2006 08 12  0640    53959   24000      0    1.65e+00    0    1.16e+00
2006 08 12  0645    53959   24300      0    1.66e+00    0    1.17e+00
2006 08 12  0650    53959   24600      0    1.68e+00    0    1.18e+00
2006 08 12  0655    53959   24900      0    1.64e+00    0    1.14e+00
2006 08 12  0700    53959   25200      0    1.65e+00    0    1.15e+00
2006 08 12  0705    53959   25500      0    1.67e+00    0    1.17e+00
2006 08 12  0710    53959   25800      0    1.61e+00    0    1.14e+00
2006 08 12  0715    53959   26100      0    1.64e+00    0    1.15e+00
2006 08 12  0720    53959   26400      0    1.66e+00    0    1.17e+00
2006 08 12  0725    53959   26700      0    1.67e+00    0    1.17e+00
2006 08 12  0730    53959   27000      0    1.66e+00    0    1.16e+00
2006 08 12  0735    53959   27300      0    1.64e+00    0    1.15e+00
2006 08 12  0740    53959   27600      0    1.66e+00    0    1.17e+00
2006 08 12  0745    53959   27900      0    1.65e+00    0    1.15e+00
2006 08 12  0750    53959   28200      0    1.63e+00    0    1.14e+00
2006 08 12  0755    53959   28500      0    1.65e+00    0    1.16e+00
2006 08 12  0800    53959   28800      0    1.61e+00    0    1.13e+00
2006 08 12  0805    53959   29100      0    1.69e+00    0    1.19e+00
2006 08 12  0810    53959   29400      0    1.67e+00    0    1.16e+00
2006 08 12  0815    53959   29700      0    1.67e+00    0    1.18e+00
2006 08 12  0820    53959   30000      0    1.66e+00    0    1.17e+00
2006 08 12  0825    53959   30300      0    1.68e+00    0    1.17e+00
2006 08 12  0830    53959   30600      0    1.66e+00    0    1.16e+00
2006 08 12  0835    53959   30900      0    1.63e+00    0    1.15e+00
2006 08 12  0840    53959   31200      0    1.66e+00    0    1.16e+00
2006 08 12  0845    53959   31500      0    1.64e+00    0    1.15e+00
2006 08 12  0850    53959   31800      0    1.64e+00    0    1.16e+00
2006 08 12  0855    53959   32100      0    1.67e+00    0    1.17e+00
2006 08 12  0900    53959   32400      0    1.65e+00    0    1.15e+00
2006 08 12  0905    53959   32700      0    1.62e+00    0    1.12e+00
2006 08 12  0910    53959   33000      0    1.65e+00    0    1.16e+00
2006 08 12  0915    53959   33300      0    1.67e+00    0    1.17e+00
2006 08 12  0920    53959   33600      0    1.66e+00    0    1.17e+00
2006 08 12  0925    53959   33900      0    1.64e+00    0    1.15e+00
2006 08 12  0930    53959   34200      0    1.63e+00    0    1.14e+00
2006 08 12  0935    53959   34500      0    1.69e+00    0    1.19e+00
2006 08 12  0940    53959   34800      0    1.68e+00    0    1.18e+00
2006 08 12  0945    53959   35100      0    1.66e+00    0    1.16e+00
2006 08 12  0950    53959   35400      0    1.69e+00    0    1.19e+00
2006 08 12  0955    53959   35700      0    1.66e+00    0    1.17e+00
2006 08 12  1000    53959   36000      0    1.64e+00    0    1.15e+00
2006 08 12  1005    53959   36300      0    1.65e+00    0    1.15e+00
2006 08 12  1010    53959   36600      0    1.66e+00    0    1.16e+00
2006 08 12  1015    53959   36900      0    1.67e+00    0    1.16e+00
2006 08 12  1020    53959   37200      0    1.66e+00    0    1.15e+00
2006 08 12  1025    53959   37500      0    1.67e+00    0    1.16e+00
2006 08 12  1030    53959   37800      0    1.64e+00    0    1.15e+00
2006 08 12  1035    53959   38100      0    1.64e+00    0    1.15e+00
2006 08 12  1040    53959   38400      0    1.67e+00    0    1.18e+00
2006 08 12  1045    53959   38700      0    1.64e+00    0    1.14e+00
2006 08 12  1050    53959   39000      0    1.67e+00    0    1.16e+00
2006 08 12  1055    53959   39300      0    1.65e+00    0    1.15e+00
2006 08 12  1100    53959   39600      0    1.66e+00    0    1.17e+00
2006 08 12  1105    53959   39900      0    1.64e+00    0    1.15e+00
2006 08 12  1110    53959   40200      0    1.67e+00    0    1.18e+00
2006 08 12  1115    53959   40500      0    1.68e+00    0    1.16e+00
2006 08 12  1120    53959   40800      0    1.66e+00    0    1.18e+00
2006 08 12  1125    53959   41100      0    1.63e+00    0    1.15e+00
2006 08 12  1130    53959   41400      0    1.65e+00    0    1.14e+00
2006 08 12  1135    53959   41700      0    1.63e+00    0    1.16e+00
2006 08 12  1140    53959   42000      0    1.67e+00    0    1.18e+00
2006 08 12  1145    53959   42300      0    1.63e+00    0    1.14e+00
2006 08 12  1150    53959   42600      0    1.68e+00    0    1.17e+00
2006 08 12  1155    53959   42900      0    1.70e+00    0    1.20e+00
2006 08 12  1200    53959   43200      0    1.67e+00    0    1.17e+00
2006 08 12  1205    53959   43500      0    1.64e+00    0    1.14e+00
2006 08 12  1210    53959   43800      0    1.67e+00    0    1.17e+00
2006 08 12  1215    53959   44100      0    1.65e+00    0    1.16e+00
2006 08 12  1220    53959   44400      0    1.63e+00    0    1.15e+00
2006 08 12  1225    53959   44700      0    1.63e+00    0    1.13e+00
2006 08 12  1230    53959   45000      0    1.65e+00    0    1.16e+00
2006 08 12  1235    53959   45300      0    1.66e+00    0    1.17e+00
2006 08 12  1240    53959   45600      0    1.65e+00    0    1.15e+00
2006 08 12  1245    53959   45900      0    1.61e+00    0    1.14e+00
2006 08 12  1250    53959   46200      0    1.65e+00    0    1.15e+00
2006 08 12  1255    53959   46500      0    1.65e+00    0    1.15e+00
2006 08 12  1300    53959   46800      0    1.69e+00    0    1.18e+00
2006 08 12  1305    53959   47100      0    1.67e+00    0    1.17e+00
2006 08 12  1310    53959   47400      0    1.66e+00    0    1.17e+00
2006 08 12  1315    53959   47700      0    1.66e+00    0    1.16e+00
2006 08 12  1320    53959   48000      0    1.63e+00    0    1.14e+00
2006 08 12  1325    53959   48300      0    1.67e+00    0    1.17e+00
2006 08 12  1330    53959   48600      0    1.65e+00    0    1.14e+00
2006 08 12  1335    53959   48900      0    1.66e+00    0    1.15e+00
2006 08 12  1340    53959   49200      0    1.65e+00    0    1.16e+00
2006 08 12  1345    53959   49500      0    1.67e+00    0    1.16e+00
2006 08 12  1350    53959   49800      0    1.66e+00    0    1.16e+00
2006 08 12  1355    53959   50100      0    1.65e+00    0    1.16e+00
2006 08 12  1400    53959   50400      0    1.65e+00    0    1.16e+00
2006 08 12  1405    53959   50700      0    1.63e+00    0    1.15e+00
2006 08 12  1410    53959   51000      0    1.63e+00    0    1.13e+00
2006 08 12  1415    53959   51300      0    1.68e+00    0    1.18e+00
2006 08 12  1420    53959   51600      0    1.69e+00    0    1.18e+00
2006 08 12  1425    53959   51900      0    1.63e+00    0    1.14e+00
2006 08 12  1430    53959   52200      0    1.66e+00    0    1.18e+00
2006 08 12  1435    53959   52500      0    1.66e+00    0    1.17e+00
2006 08 12  1440    53959   52800      0    1.68e+00    0    1.18e+00
2006 08 12  1445    53959   53100      0    1.69e+00    0    1.18e+00
2006 08 12  1450    53959   53400      0    1.68e+00    0    1.18e+00
2006 08 12  1455    53959   53700      0    1.65e+00    0    1.16e+00
2006 08 12  1500    53959   54000      0    1.67e+00    0    1.18e+00
2006 08 12  1505    53959   54300      0    1.68e+00    0    1.17e+00
2006 08 12  1510    53959   54600      0    1.66e+00    0    1.17e+00
2006 08 12  1515    53959   54900      0    1.67e+00    0    1.17e+00
2006 08 12  1520    53959   55200      0    1.64e+00    0    1.15e+00
2006 08 12  1525    53959   55500      0    1.69e+00    0    1.18e+00
2006 08 12  1530    53959   55800      0    1.65e+00    0    1.15e+00
2006 08 12  1535    53959   56100      0    1.63e+00    0    1.14e+00
2006 08 12  1540    53959   56400      0    1.66e+00    0    1.16e+00
2006 08 12  1545    53959   56700      0    1.68e+00    0    1.16e+00
2006 08 12  1550    53959   57000      0    1.68e+00    0    1.18e+00
2006 08 12  1555    53959   57300      0    1.64e+00    0    1.14e+00
2006 08 12  1600    53959   57600      0    1.69e+00    0    1.17e+00
2006 08 12  1605    53959   57900      0    1.67e+00    0    1.17e+00
2006 08 12  1610    53959   58200      0    1.64e+00    0    1.15e+00
2006 08 12  1615    53959   58500      0    1.65e+00    0    1.18e+00
2006 08 12  1620    53959   58800      0    1.69e+00    0    1.20e+00
2006 08 12  1625    53959   59100      0    1.66e+00    0    1.17e+00
2006 08 12  1630    53959   59400      0    1.67e+00    0    1.18e+00
2006 08 12  1635    53959   59700      0    1.70e+00    0    1.20e+00
2006 08 12  1640    53959   60000      0    1.64e+00    0    1.15e+00
2006 08 12  1645    53959   60300      0    1.68e+00    0    1.18e+00
2006 08 12  1650    53959   60600      0    1.67e+00    0    1.17e+00
2006 08 12  1655    53959   60900      0    1.63e+00    0    1.14e+00
2006 08 12  1700    53959   61200      0    1.69e+00    0    1.18e+00
2006 08 12  1705    53959   61500      0    1.68e+00    0    1.19e+00
2006 08 12  1710    53959   61800      0    1.66e+00    0    1.15e+00
2006 08 12  1715    53959   62100      0    1.70e+00    0    1.19e+00
2006 08 12  1720    53959   62400      0    1.68e+00    0    1.19e+00
2006 08 12  1725    53959   62700      0    1.65e+00    0    1.16e+00
2006 08 12  1730    53959   63000      0    1.68e+00    0    1.18e+00
2006 08 12  1735    53959   63300      0    1.60e+00    0    1.12e+00
2006 08 12  1740    53959   63600      0    1.65e+00    0    1.15e+00
2006 08 12  1745    53959   63900      0    1.64e+00    0    1.16e+00
2006 08 12  1750    53959   64200      0    1.65e+00    0    1.15e+00
2006 08 12  1755    53959   64500      0    1.68e+00    0    1.18e+00
2006 08 12  1800    53959   64800      0    1.68e+00    0    1.17e+00
2006 08 12  1805    53959   65100      0    1.68e+00    0    1.18e+00
2006 08 12  1810    53959   65400      0    1.66e+00    0    1.16e+00
2006 08 12  1815    53959   65700      0    1.67e+00    0    1.18e+00
2006 08 12  1820    53959   66000      0    1.65e+00    0    1.16e+00
2006 08 12  1825    53959   66300      0    1.66e+00    0    1.16e+00
2006 08 12  1830    53959   66600      0    1.65e+00    0    1.16e+00
2006 08 12  1835    53959   66900      0    1.63e+00    0    1.14e+00
2006 08 12  1840    53959   67200      0    1.65e+00    0    1.15e+00
2006 08 12  1845    53959   67500      0    1.70e+00    0    1.21e+00
2006 08 12  1850    53959   67800      0    1.68e+00    0    1.19e+00
2006 08 12  1855    53959   68100      0    1.63e+00    0    1.14e+00
2006 08 12  1900    53959   68400      0    1.69e+00    0    1.18e+00
2006 08 12  1905    53959   68700      0    1.67e+00    0    1.16e+00
2006 08 12  1910    53959   69000      0    1.63e+00    0    1.13e+00
2006 08 12  1915    53959   69300      0    1.65e+00    0    1.15e+00
2006 08 12  1920    53959   69600      0    1.66e+00    0    1.16e+00
2006 08 12  1925    53959   69900      0    1.66e+00    0    1.16e+00
2006 08 12  1930    53959   70200      0    1.67e+00    0    1.17e+00
2006 08 12  1935    53959   70500      0    1.67e+00    0    1.18e+00
2006 08 12  1940    53959   70800      0    1.63e+00    0    1.15e+00
2006 08 12  1945    53959   71100      0    1.62e+00    0    1.14e+00
2006 08 12  1950    53959   71400      0    1.69e+00    0    1.18e+00
2006 08 12  1955    53959   71700      9   -1.00e+05    9   -1.00e+05
2006 08 12  2000    53959   72000      9   -1.00e+05    9   -1.00e+05
2006 08 12  2005    53959   72300      9   -1.00e+05    9   -1.00e+05
2006 08 12  2010    53959   72600      0    1.66e+00    0    1.16e+00
2006 08 12  2015    53959   72900      0    1.69e+00    0    1.18e+00
2006 08 12  2020    53959   73200      0    1.67e+00    0    1.16e+00
2006 08 12  2025    53959   73500      0    1.69e+00    0    1.18e+00
2006 08 12  2030    53959   73800      0    1.67e+00    0    1.17e+00
2006 08 12  2035    53959   74100      0    1.68e+00    0    1.19e+00
2006 08 12  2040    53959   74400      0    1.68e+00    0    1.18e+00
2006 08 12  2045    53959   74700      0    1.67e+00    0    1.17e+00
2006 08 12  2050    53959   75000      0    1.65e+00    0    1.17e+00
2006 08 12  2055    53959   75300      0    1.70e+00    0    1.19e+00
2006 08 12  2100    53959   75600      0    1.67e+00    0    1.16e+00
2006 08 12  2105    53959   75900      0    1.66e+00    0    1.16e+00
2006 08 12  2110    53959   76200      0    1.67e+00    0    1.17e+00
2006 08 12  2115    53959   76500      0    1.69e+00    0    1.18e+00
2006 08 12  2120    53959   76800      0    1.66e+00    0    1.17e+00
2006 08 12  2125    53959   77100      0    1.68e+00    0    1.18e+00
2006 08 12  2130    53959   77400      0    1.71e+00    0    1.19e+00
2006 08 12  2135    53959   77700      0    1.68e+00    0    1.17e+00
2006 08 12  2140    53959   78000      0    1.66e+00    0    1.17e+00
2006 08 12  2145    53959   78300      0    1.66e+00    0    1.16e+00
2006 08 12  2150    53959   78600      0    1.67e+00    0    1.17e+00
2006 08 12  2155    53959   78900      0    1.66e+00    0    1.16e+00
2006 08 12  2200    53959   79200      0    1.69e+00    0    1.19e+00
2006 08 12  2205    53959   79500      0    1.66e+00    0    1.16e+00
2006 08 12  2210    53959   79800      0    1.66e+00    0    1.17e+00
2006 08 12  2215    53959   80100      0    1.68e+00    0    1.17e+00
2006 08 12  2220    53959   80400      0    1.65e+00    0    1.16e+00
2006 08 12  2225    53959   80700      0    1.64e+00    0    1.15e+00
2006 08 12  2230    53959   81000      0    1.68e+00    0    1.18e+00
2006 08 12  2235    53959   81300      0    1.69e+00    0    1.20e+00
2006 08 12  2240    53959   81600      0    1.68e+00    0    1.17e+00
2006 08 12  2245    53959   81900      0    1.65e+00    0    1.16e+00
2006 08 12  2250    53959   82200      0    1.68e+00    0    1.18e+00
2006 08 12  2255    53959   82500      0    1.67e+00    0    1.17e+00
2006 08 12  2300    53959   82800      0    1.67e+00    0    1.17e+00
2006 08 12  2305    53959   83100      0    1.67e+00    0    1.15e+00
2006 08 12  2310    53959   83400      0    1.67e+00    0    1.18e+00
2006 08 12  2315    53959   83700      0    1.65e+00    0    1.17e+00
2006 08 12  2320    53959   84000      0    1.66e+00    0    1.17e+00
2006 08 12  2325    53959   84300      0    1.64e+00    0    1.15e+00
2006 08 12  2330    53959   84600      0    1.61e+00    0    1.13e+00
2006 08 12  2335    53959   84900      0    1.63e+00    0    1.14e+00
2006 08 12  2340    53959   85200      0    1.64e+00    0    1.16e+00
2006 08 12  2345    53959   85500      0    1.64e+00    0    1.14e+00
2006 08 12  2350    53959   85800      0    1.65e+00    0    1.16e+00
2006 08 12  2355    53959   86100      0    1.64e+00    0    1.15e+00
