:Data_list: 20060817_ace_sis_5m.txt
:Created: 2006 Aug 18 0011 UT
# Prepared by the U.S. Dept. of Commerce, NOAA, Space Environment Center.
# Please send comments and suggestions to SEC.Webmaster@noaa.gov 
# 
# Units: proton flux p/cs2-sec-ster
# Status(S): 0 = nominal data, 1 to 8 = bad data record, 9 = no data
# Missing data values: -1.00e+05
# Source: ACE Satellite - Solar Isotope Spectrometer
#
# 5-minute averaged Real-time Integral Flux of High-energy Solar Protons
# 
#                 Modified Seconds
# UT Date   Time   Julian  of the      ---- Integral Proton Flux ----
# YR MO DA  HHMM     Day     Day       S    > 10 MeV    S    > 30 MeV
#--------------------------------------------------------------------
2006 08 17  0000    53964       0      0    1.72e+00    0    1.20e+00
2006 08 17  0005    53964     300      0    1.69e+00    0    1.17e+00
2006 08 17  0010    53964     600      0    1.69e+00    0    1.19e+00
2006 08 17  0015    53964     900      0    1.67e+00    0    1.16e+00
2006 08 17  0020    53964    1200      0    1.71e+00    0    1.19e+00
2006 08 17  0025    53964    1500      0    1.66e+00    0    1.15e+00
2006 08 17  0030    53964    1800      0    1.67e+00    0    1.15e+00
2006 08 17  0035    53964    2100      0    1.68e+00    0    1.16e+00
2006 08 17  0040    53964    2400      0    1.68e+00    0    1.17e+00
2006 08 17  0045    53964    2700      0    1.70e+00    0    1.17e+00
2006 08 17  0050    53964    3000      0    1.67e+00    0    1.16e+00
2006 08 17  0055    53964    3300      0    1.68e+00    0    1.16e+00
2006 08 17  0100    53964    3600      0    1.71e+00    0    1.20e+00
2006 08 17  0105    53964    3900      0    1.72e+00    0    1.18e+00
2006 08 17  0110    53964    4200      0    1.74e+00    0    1.22e+00
2006 08 17  0115    53964    4500      0    1.67e+00    0    1.17e+00
2006 08 17  0120    53964    4800      0    1.72e+00    0    1.20e+00
2006 08 17  0125    53964    5100      0    1.64e+00    0    1.14e+00
2006 08 17  0130    53964    5400      0    1.68e+00    0    1.18e+00
2006 08 17  0135    53964    5700      0    1.70e+00    0    1.19e+00
2006 08 17  0140    53964    6000      0    1.71e+00    0    1.18e+00
2006 08 17  0145    53964    6300      0    1.67e+00    0    1.17e+00
2006 08 17  0150    53964    6600      0    1.72e+00    0    1.20e+00
2006 08 17  0155    53964    6900      0    1.66e+00    0    1.15e+00
2006 08 17  0200    53964    7200      0    1.70e+00    0    1.18e+00
2006 08 17  0205    53964    7500      0    1.68e+00    0    1.16e+00
2006 08 17  0210    53964    7800      0    1.74e+00    0    1.21e+00
2006 08 17  0215    53964    8100      0    1.66e+00    0    1.15e+00
2006 08 17  0220    53964    8400      0    1.69e+00    0    1.16e+00
2006 08 17  0225    53964    8700      0    1.72e+00    0    1.20e+00
2006 08 17  0230    53964    9000      0    1.74e+00    0    1.21e+00
2006 08 17  0235    53964    9300      0    1.70e+00    0    1.17e+00
2006 08 17  0240    53964    9600      0    1.68e+00    0    1.16e+00
2006 08 17  0245    53964    9900      0    1.75e+00    0    1.21e+00
2006 08 17  0250    53964   10200      0    1.73e+00    0    1.20e+00
2006 08 17  0255    53964   10500      0    1.70e+00    0    1.19e+00
2006 08 17  0300    53964   10800      0    1.69e+00    0    1.17e+00
2006 08 17  0305    53964   11100      0    1.69e+00    0    1.16e+00
2006 08 17  0310    53964   11400      0    1.71e+00    0    1.19e+00
2006 08 17  0315    53964   11700      0    1.73e+00    0    1.21e+00
2006 08 17  0320    53964   12000      0    1.73e+00    0    1.20e+00
2006 08 17  0325    53964   12300      0    1.72e+00    0    1.19e+00
2006 08 17  0330    53964   12600      0    1.70e+00    0    1.17e+00
2006 08 17  0335    53964   12900      0    1.66e+00    0    1.15e+00
2006 08 17  0340    53964   13200      0    1.70e+00    0    1.19e+00
2006 08 17  0345    53964   13500      0    1.71e+00    0    1.20e+00
2006 08 17  0350    53964   13800      0    1.73e+00    0    1.19e+00
2006 08 17  0355    53964   14100      0    1.69e+00    0    1.17e+00
2006 08 17  0400    53964   14400      0    1.71e+00    0    1.17e+00
2006 08 17  0405    53964   14700      0    1.71e+00    0    1.20e+00
2006 08 17  0410    53964   15000      0    1.71e+00    0    1.19e+00
2006 08 17  0415    53964   15300      0    1.70e+00    0    1.18e+00
2006 08 17  0420    53964   15600      0    1.70e+00    0    1.17e+00
2006 08 17  0425    53964   15900      0    1.69e+00    0    1.17e+00
2006 08 17  0430    53964   16200      0    1.68e+00    0    1.17e+00
2006 08 17  0435    53964   16500      0    1.73e+00    0    1.20e+00
2006 08 17  0440    53964   16800      0    1.76e+00    0    1.21e+00
2006 08 17  0445    53964   17100      0    1.70e+00    0    1.17e+00
2006 08 17  0450    53964   17400      0    1.73e+00    0    1.19e+00
2006 08 17  0455    53964   17700      0    1.69e+00    0    1.15e+00
2006 08 17  0500    53964   18000      0    1.72e+00    0    1.18e+00
2006 08 17  0505    53964   18300      0    1.71e+00    0    1.17e+00
2006 08 17  0510    53964   18600      0    1.73e+00    0    1.18e+00
2006 08 17  0515    53964   18900      0    1.69e+00    0    1.15e+00
2006 08 17  0520    53964   19200      0    1.71e+00    0    1.17e+00
2006 08 17  0525    53964   19500      0    1.70e+00    0    1.16e+00
2006 08 17  0530    53964   19800      0    1.71e+00    0    1.19e+00
2006 08 17  0535    53964   20100      0    1.74e+00    0    1.19e+00
2006 08 17  0540    53964   20400      0    1.70e+00    0    1.17e+00
2006 08 17  0545    53964   20700      0    1.73e+00    0    1.19e+00
2006 08 17  0550    53964   21000      0    1.69e+00    0    1.17e+00
2006 08 17  0555    53964   21300      0    1.73e+00    0    1.19e+00
2006 08 17  0600    53964   21600      0    1.73e+00    0    1.21e+00
2006 08 17  0605    53964   21900      0    1.73e+00    0    1.20e+00
2006 08 17  0610    53964   22200      0    1.70e+00    0    1.17e+00
2006 08 17  0615    53964   22500      0    1.73e+00    0    1.19e+00
2006 08 17  0620    53964   22800      0    1.70e+00    0    1.16e+00
2006 08 17  0625    53964   23100      0    1.68e+00    0    1.16e+00
2006 08 17  0630    53964   23400      0    1.71e+00    0    1.18e+00
2006 08 17  0635    53964   23700      0    1.71e+00    0    1.17e+00
2006 08 17  0640    53964   24000      0    1.71e+00    0    1.18e+00
2006 08 17  0645    53964   24300      0    1.76e+00    0    1.23e+00
2006 08 17  0650    53964   24600      0    1.72e+00    0    1.18e+00
2006 08 17  0655    53964   24900      0    1.73e+00    0    1.19e+00
2006 08 17  0700    53964   25200      0    1.74e+00    0    1.19e+00
2006 08 17  0705    53964   25500      0    1.70e+00    0    1.18e+00
2006 08 17  0710    53964   25800      0    1.72e+00    0    1.19e+00
2006 08 17  0715    53964   26100      0    1.72e+00    0    1.17e+00
2006 08 17  0720    53964   26400      0    1.72e+00    0    1.17e+00
2006 08 17  0725    53964   26700      0    1.68e+00    0    1.16e+00
2006 08 17  0730    53964   27000      0    1.71e+00    0    1.18e+00
2006 08 17  0735    53964   27300      0    1.73e+00    0    1.19e+00
2006 08 17  0740    53964   27600      0    1.74e+00    0    1.20e+00
2006 08 17  0745    53964   27900      0    1.70e+00    0    1.16e+00
2006 08 17  0750    53964   28200      0    1.71e+00    0    1.17e+00
2006 08 17  0755    53964   28500      0    1.73e+00    0    1.20e+00
2006 08 17  0800    53964   28800      0    1.70e+00    0    1.16e+00
2006 08 17  0805    53964   29100      0    1.78e+00    0    1.22e+00
2006 08 17  0810    53964   29400      0    1.72e+00    0    1.18e+00
2006 08 17  0815    53964   29700      0    1.69e+00    0    1.17e+00
2006 08 17  0820    53964   30000      0    1.69e+00    0    1.15e+00
2006 08 17  0825    53964   30300      0    1.75e+00    0    1.20e+00
2006 08 17  0830    53964   30600      0    1.72e+00    0    1.18e+00
2006 08 17  0835    53964   30900      0    1.74e+00    0    1.20e+00
2006 08 17  0840    53964   31200      0    1.74e+00    0    1.21e+00
2006 08 17  0845    53964   31500      0    1.71e+00    0    1.17e+00
2006 08 17  0850    53964   31800      0    1.69e+00    0    1.16e+00
2006 08 17  0855    53964   32100      0    1.73e+00    0    1.18e+00
2006 08 17  0900    53964   32400      0    1.72e+00    0    1.16e+00
2006 08 17  0905    53964   32700      0    1.69e+00    0    1.16e+00
2006 08 17  0910    53964   33000      0    1.75e+00    0    1.19e+00
2006 08 17  0915    53964   33300      0    1.74e+00    0    1.20e+00
2006 08 17  0920    53964   33600      0    1.68e+00    0    1.16e+00
2006 08 17  0925    53964   33900      0    1.73e+00    0    1.18e+00
2006 08 17  0930    53964   34200      0    1.72e+00    0    1.18e+00
2006 08 17  0935    53964   34500      0    1.72e+00    0    1.18e+00
2006 08 17  0940    53964   34800      0    1.74e+00    0    1.20e+00
2006 08 17  0945    53964   35100      0    1.78e+00    0    1.21e+00
2006 08 17  0950    53964   35400      0    1.74e+00    0    1.19e+00
2006 08 17  0955    53964   35700      0    1.73e+00    0    1.19e+00
2006 08 17  1000    53964   36000      0    1.71e+00    0    1.17e+00
2006 08 17  1005    53964   36300      0    1.71e+00    0    1.16e+00
2006 08 17  1010    53964   36600      0    1.70e+00    0    1.16e+00
2006 08 17  1015    53964   36900      0    1.71e+00    0    1.16e+00
2006 08 17  1020    53964   37200      0    1.61e+00    0    1.10e+00
2006 08 17  1025    53964   37500      0    1.73e+00    0    1.19e+00
2006 08 17  1030    53964   37800      0    1.72e+00    0    1.19e+00
2006 08 17  1035    53964   38100      0    1.69e+00    0    1.15e+00
2006 08 17  1040    53964   38400      0    1.68e+00    0    1.14e+00
2006 08 17  1045    53964   38700      0    1.71e+00    0    1.18e+00
2006 08 17  1050    53964   39000      0    1.74e+00    0    1.19e+00
2006 08 17  1055    53964   39300      0    1.71e+00    0    1.18e+00
2006 08 17  1100    53964   39600      0    1.68e+00    0    1.15e+00
2006 08 17  1105    53964   39900      0    1.70e+00    0    1.16e+00
2006 08 17  1110    53964   40200      0    1.70e+00    0    1.17e+00
2006 08 17  1115    53964   40500      0    1.71e+00    0    1.18e+00
2006 08 17  1120    53964   40800      0    1.75e+00    0    1.19e+00
2006 08 17  1125    53964   41100      0    1.74e+00    0    1.18e+00
2006 08 17  1130    53964   41400      0    1.71e+00    0    1.17e+00
2006 08 17  1135    53964   41700      0    1.71e+00    0    1.17e+00
2006 08 17  1140    53964   42000      0    1.71e+00    0    1.16e+00
2006 08 17  1145    53964   42300      0    1.72e+00    0    1.18e+00
2006 08 17  1150    53964   42600      0    1.73e+00    0    1.17e+00
2006 08 17  1155    53964   42900      0    1.69e+00    0    1.16e+00
2006 08 17  1200    53964   43200      0    1.70e+00    0    1.16e+00
2006 08 17  1205    53964   43500      0    1.73e+00    0    1.18e+00
2006 08 17  1210    53964   43800      0    1.76e+00    0    1.20e+00
2006 08 17  1215    53964   44100      0    1.71e+00    0    1.17e+00
2006 08 17  1220    53964   44400      0    1.72e+00    0    1.17e+00
2006 08 17  1225    53964   44700      0    1.59e+00    0    1.09e+00
2006 08 17  1230    53964   45000      0    1.70e+00    0    1.15e+00
2006 08 17  1235    53964   45300      0    1.72e+00    0    1.17e+00
2006 08 17  1240    53964   45600      0    1.68e+00    0    1.14e+00
2006 08 17  1245    53964   45900      0    1.73e+00    0    1.19e+00
2006 08 17  1250    53964   46200      0    1.69e+00    0    1.14e+00
2006 08 17  1255    53964   46500      0    1.75e+00    0    1.19e+00
2006 08 17  1300    53964   46800      0    1.71e+00    0    1.16e+00
2006 08 17  1305    53964   47100      0    1.74e+00    0    1.18e+00
2006 08 17  1310    53964   47400      0    1.69e+00    0    1.15e+00
2006 08 17  1315    53964   47700      0    1.73e+00    0    1.17e+00
2006 08 17  1320    53964   48000      0    1.72e+00    0    1.18e+00
2006 08 17  1325    53964   48300      0    1.75e+00    0    1.20e+00
2006 08 17  1330    53964   48600      0    1.69e+00    0    1.15e+00
2006 08 17  1335    53964   48900      0    1.72e+00    0    1.18e+00
2006 08 17  1340    53964   49200      0    1.69e+00    0    1.16e+00
2006 08 17  1345    53964   49500      0    1.71e+00    0    1.18e+00
2006 08 17  1350    53964   49800      0    1.71e+00    0    1.17e+00
2006 08 17  1355    53964   50100      0    1.69e+00    0    1.14e+00
2006 08 17  1400    53964   50400      0    1.70e+00    0    1.17e+00
2006 08 17  1405    53964   50700      0    1.70e+00    0    1.16e+00
2006 08 17  1410    53964   51000      0    1.73e+00    0    1.20e+00
2006 08 17  1415    53964   51300      0    1.71e+00    0    1.16e+00
2006 08 17  1420    53964   51600      0    1.74e+00    0    1.18e+00
2006 08 17  1425    53964   51900      0    1.68e+00    0    1.15e+00
2006 08 17  1430    53964   52200      0    1.70e+00    0    1.15e+00
2006 08 17  1435    53964   52500      0    1.70e+00    0    1.16e+00
2006 08 17  1440    53964   52800      0    1.68e+00    0    1.15e+00
2006 08 17  1445    53964   53100      0    1.71e+00    0    1.17e+00
2006 08 17  1450    53964   53400      0    1.73e+00    0    1.18e+00
2006 08 17  1455    53964   53700      0    1.67e+00    0    1.15e+00
2006 08 17  1500    53964   54000      0    1.70e+00    0    1.16e+00
2006 08 17  1505    53964   54300      0    1.72e+00    0    1.20e+00
2006 08 17  1510    53964   54600      0    1.73e+00    0    1.17e+00
2006 08 17  1515    53964   54900      0    1.72e+00    0    1.18e+00
2006 08 17  1520    53964   55200      0    1.73e+00    0    1.18e+00
2006 08 17  1525    53964   55500      0    1.71e+00    0    1.17e+00
2006 08 17  1530    53964   55800      0    1.67e+00    0    1.14e+00
2006 08 17  1535    53964   56100      0    1.69e+00    0    1.15e+00
2006 08 17  1540    53964   56400      0    1.68e+00    0    1.14e+00
2006 08 17  1545    53964   56700      0    1.69e+00    0    1.16e+00
2006 08 17  1550    53964   57000      0    1.70e+00    0    1.16e+00
2006 08 17  1555    53964   57300      0    1.71e+00    0    1.17e+00
2006 08 17  1600    53964   57600      0    1.73e+00    0    1.18e+00
2006 08 17  1605    53964   57900      0    1.68e+00    0    1.15e+00
2006 08 17  1610    53964   58200      0    1.75e+00    0    1.20e+00
2006 08 17  1615    53964   58500      0    1.71e+00    0    1.17e+00
2006 08 17  1620    53964   58800      0    1.72e+00    0    1.18e+00
2006 08 17  1625    53964   59100      0    1.71e+00    0    1.17e+00
2006 08 17  1630    53964   59400      0    1.68e+00    0    1.15e+00
2006 08 17  1635    53964   59700      0    1.68e+00    0    1.16e+00
2006 08 17  1640    53964   60000      0    1.71e+00    0    1.17e+00
2006 08 17  1645    53964   60300      0    1.70e+00    0    1.16e+00
2006 08 17  1650    53964   60600      0    1.69e+00    0    1.16e+00
2006 08 17  1655    53964   60900      0    1.72e+00    0    1.16e+00
2006 08 17  1700    53964   61200      0    1.62e+00    0    1.12e+00
2006 08 17  1705    53964   61500      0    1.72e+00    0    1.18e+00
2006 08 17  1710    53964   61800      0    1.70e+00    0    1.17e+00
2006 08 17  1715    53964   62100      0    1.73e+00    0    1.19e+00
2006 08 17  1720    53964   62400      0    1.71e+00    0    1.18e+00
2006 08 17  1725    53964   62700      0    1.71e+00    0    1.17e+00
2006 08 17  1730    53964   63000      0    1.70e+00    0    1.16e+00
2006 08 17  1735    53964   63300      0    1.74e+00    0    1.20e+00
2006 08 17  1740    53964   63600      0    1.72e+00    0    1.17e+00
2006 08 17  1745    53964   63900      0    1.69e+00    0    1.16e+00
2006 08 17  1750    53964   64200      0    1.70e+00    0    1.17e+00
2006 08 17  1755    53964   64500      0    1.70e+00    0    1.16e+00
2006 08 17  1800    53964   64800      0    1.70e+00    0    1.17e+00
2006 08 17  1805    53964   65100      0    1.70e+00    0    1.16e+00
2006 08 17  1810    53964   65400      0    1.67e+00    0    1.14e+00
2006 08 17  1815    53964   65700      0    1.70e+00    0    1.17e+00
2006 08 17  1820    53964   66000      0    1.72e+00    0    1.20e+00
2006 08 17  1825    53964   66300      0    1.72e+00    0    1.17e+00
2006 08 17  1830    53964   66600      0    1.69e+00    0    1.16e+00
2006 08 17  1835    53964   66900      0    1.73e+00    0    1.19e+00
2006 08 17  1840    53964   67200      0    1.69e+00    0    1.17e+00
2006 08 17  1845    53964   67500      0    1.69e+00    0    1.17e+00
2006 08 17  1850    53964   67800      0    1.70e+00    0    1.16e+00
2006 08 17  1855    53964   68100      0    1.71e+00    0    1.18e+00
2006 08 17  1900    53964   68400      0    1.72e+00    0    1.18e+00
2006 08 17  1905    53964   68700      0    1.73e+00    0    1.19e+00
2006 08 17  1910    53964   69000      0    1.71e+00    0    1.18e+00
2006 08 17  1915    53964   69300      0    1.67e+00    0    1.14e+00
2006 08 17  1920    53964   69600      0    1.72e+00    0    1.18e+00
2006 08 17  1925    53964   69900      0    1.68e+00    0    1.15e+00
2006 08 17  1930    53964   70200      0    1.72e+00    0    1.18e+00
2006 08 17  1935    53964   70500      0    1.74e+00    0    1.21e+00
2006 08 17  1940    53964   70800      0    1.67e+00    0    1.14e+00
2006 08 17  1945    53964   71100      0    1.70e+00    0    1.18e+00
2006 08 17  1950    53964   71400      0    1.69e+00    0    1.16e+00
2006 08 17  1955    53964   71700      0    1.70e+00    0    1.17e+00
2006 08 17  2000    53964   72000      0    1.69e+00    0    1.16e+00
2006 08 17  2005    53964   72300      0    1.70e+00    0    1.17e+00
2006 08 17  2010    53964   72600      0    1.71e+00    0    1.17e+00
2006 08 17  2015    53964   72900      0    1.70e+00    0    1.18e+00
2006 08 17  2020    53964   73200      0    1.64e+00    0    1.12e+00
2006 08 17  2025    53964   73500      0    1.69e+00    0    1.17e+00
2006 08 17  2030    53964   73800      0    1.65e+00    0    1.14e+00
2006 08 17  2035    53964   74100      0    1.68e+00    0    1.16e+00
2006 08 17  2040    53964   74400      0    1.68e+00    0    1.16e+00
2006 08 17  2045    53964   74700      0    1.73e+00    0    1.20e+00
2006 08 17  2050    53964   75000      0    1.69e+00    0    1.16e+00
2006 08 17  2055    53964   75300      0    1.70e+00    0    1.20e+00
2006 08 17  2100    53964   75600      0    1.71e+00    0    1.18e+00
2006 08 17  2105    53964   75900      0    1.72e+00    0    1.19e+00
2006 08 17  2110    53964   76200      0    1.73e+00    0    1.19e+00
2006 08 17  2115    53964   76500      0    1.68e+00    0    1.18e+00
2006 08 17  2120    53964   76800      0    1.71e+00    0    1.17e+00
2006 08 17  2125    53964   77100      0    1.69e+00    0    1.16e+00
2006 08 17  2130    53964   77400      0    1.70e+00    0    1.17e+00
2006 08 17  2135    53964   77700      0    1.69e+00    0    1.17e+00
2006 08 17  2140    53964   78000      0    1.70e+00    0    1.16e+00
2006 08 17  2145    53964   78300      0    1.69e+00    0    1.17e+00
2006 08 17  2150    53964   78600      0    1.70e+00    0    1.17e+00
2006 08 17  2155    53964   78900      0    1.69e+00    0    1.19e+00
2006 08 17  2200    53964   79200      0    1.70e+00    0    1.17e+00
2006 08 17  2205    53964   79500      0    1.61e+00    0    1.11e+00
2006 08 17  2210    53964   79800      0    1.72e+00    0    1.19e+00
2006 08 17  2215    53964   80100      0    1.70e+00    0    1.19e+00
2006 08 17  2220    53964   80400      0    1.71e+00    0    1.18e+00
2006 08 17  2225    53964   80700      0    1.72e+00    0    1.18e+00
2006 08 17  2230    53964   81000      0    1.66e+00    0    1.15e+00
2006 08 17  2235    53964   81300      0    1.71e+00    0    1.19e+00
2006 08 17  2240    53964   81600      0    1.67e+00    0    1.15e+00
2006 08 17  2245    53964   81900      0    1.70e+00    0    1.16e+00
2006 08 17  2250    53964   82200      0    1.66e+00    0    1.13e+00
2006 08 17  2255    53964   82500      0    1.73e+00    0    1.20e+00
2006 08 17  2300    53964   82800      0    1.67e+00    0    1.16e+00
2006 08 17  2305    53964   83100      0    1.72e+00    0    1.20e+00
2006 08 17  2310    53964   83400      0    1.68e+00    0    1.16e+00
2006 08 17  2315    53964   83700      0    1.68e+00    0    1.16e+00
2006 08 17  2320    53964   84000      0    1.70e+00    0    1.17e+00
2006 08 17  2325    53964   84300      0    1.73e+00    0    1.20e+00
2006 08 17  2330    53964   84600      0    1.72e+00    0    1.20e+00
2006 08 17  2335    53964   84900      0    1.71e+00    0    1.18e+00
2006 08 17  2340    53964   85200      0    1.71e+00    0    1.17e+00
2006 08 17  2345    53964   85500      0    1.69e+00    0    1.16e+00
2006 08 17  2350    53964   85800      9   -1.00e+05    9   -1.00e+05
2006 08 17  2355    53964   86100      9   -1.00e+05    9   -1.00e+05
