:Data_list: 20060303_ace_sis_5m.txt
:Created: 2006 Mar 04 0011 UT
# Prepared by the U.S. Dept. of Commerce, NOAA, Space Environment Center.
# Please send comments and suggestions to SEC.Webmaster@noaa.gov 
# 
# Units: proton flux p/cs2-sec-ster
# Status(S): 0 = nominal data, 1 to 8 = bad data record, 9 = no data
# Missing data values: -1.00e+05
# Source: ACE Satellite - Solar Isotope Spectrometer
#
# 5-minute averaged Real-time Integral Flux of High-energy Solar Protons
# 
#                 Modified Seconds
# UT Date   Time   Julian  of the      ---- Integral Proton Flux ----
# YR MO DA  HHMM     Day     Day       S    > 10 MeV    S    > 30 MeV
#--------------------------------------------------------------------
2006 03 03  0000    53797       0      0    1.51e+00    0    1.06e+00
2006 03 03  0005    53797     300      0    1.49e+00    0    1.07e+00
2006 03 03  0010    53797     600      0    1.49e+00    0    1.05e+00
2006 03 03  0015    53797     900      0    1.46e+00    0    1.02e+00
2006 03 03  0020    53797    1200      0    1.49e+00    0    1.04e+00
2006 03 03  0025    53797    1500      0    1.54e+00    0    1.07e+00
2006 03 03  0030    53797    1800      0    1.51e+00    0    1.07e+00
2006 03 03  0035    53797    2100      0    1.49e+00    0    1.04e+00
2006 03 03  0040    53797    2400      0    1.48e+00    0    1.04e+00
2006 03 03  0045    53797    2700      0    1.49e+00    0    1.04e+00
2006 03 03  0050    53797    3000      0    1.49e+00    0    1.04e+00
2006 03 03  0055    53797    3300      0    1.54e+00    0    1.09e+00
2006 03 03  0100    53797    3600      0    1.42e+00    0    1.01e+00
2006 03 03  0105    53797    3900      0    1.50e+00    0    1.06e+00
2006 03 03  0110    53797    4200      0    1.49e+00    0    1.06e+00
2006 03 03  0115    53797    4500      0    1.47e+00    0    1.04e+00
2006 03 03  0120    53797    4800      0    1.52e+00    0    1.06e+00
2006 03 03  0125    53797    5100      0    1.49e+00    0    1.04e+00
2006 03 03  0130    53797    5400      0    1.54e+00    0    1.07e+00
2006 03 03  0135    53797    5700      0    1.52e+00    0    1.08e+00
2006 03 03  0140    53797    6000      0    1.50e+00    0    1.05e+00
2006 03 03  0145    53797    6300      0    1.55e+00    0    1.08e+00
2006 03 03  0150    53797    6600      0    1.49e+00    0    1.03e+00
2006 03 03  0155    53797    6900      0    1.49e+00    0    1.04e+00
2006 03 03  0200    53797    7200      0    1.50e+00    0    1.05e+00
2006 03 03  0205    53797    7500      0    1.50e+00    0    1.04e+00
2006 03 03  0210    53797    7800      0    1.51e+00    0    1.06e+00
2006 03 03  0215    53797    8100      0    1.48e+00    0    1.04e+00
2006 03 03  0220    53797    8400      0    1.46e+00    0    1.02e+00
2006 03 03  0225    53797    8700      0    1.49e+00    0    1.06e+00
2006 03 03  0230    53797    9000      0    1.51e+00    0    1.07e+00
2006 03 03  0235    53797    9300      0    1.51e+00    0    1.07e+00
2006 03 03  0240    53797    9600      0    1.49e+00    0    1.04e+00
2006 03 03  0245    53797    9900      0    1.54e+00    0    1.08e+00
2006 03 03  0250    53797   10200      0    1.53e+00    0    1.06e+00
2006 03 03  0255    53797   10500      0    1.50e+00    0    1.04e+00
2006 03 03  0300    53797   10800      0    1.52e+00    0    1.08e+00
2006 03 03  0305    53797   11100      0    1.51e+00    0    1.06e+00
2006 03 03  0310    53797   11400      0    1.51e+00    0    1.06e+00
2006 03 03  0315    53797   11700      0    1.52e+00    0    1.09e+00
2006 03 03  0320    53797   12000      0    1.49e+00    0    1.05e+00
2006 03 03  0325    53797   12300      0    1.48e+00    0    1.04e+00
2006 03 03  0330    53797   12600      0    1.52e+00    0    1.07e+00
2006 03 03  0335    53797   12900      0    1.53e+00    0    1.07e+00
2006 03 03  0340    53797   13200      0    1.51e+00    0    1.06e+00
2006 03 03  0345    53797   13500      0    1.53e+00    0    1.08e+00
2006 03 03  0350    53797   13800      0    1.50e+00    0    1.04e+00
2006 03 03  0355    53797   14100      0    1.49e+00    0    1.04e+00
2006 03 03  0400    53797   14400      0    1.51e+00    0    1.07e+00
2006 03 03  0405    53797   14700      0    1.53e+00    0    1.07e+00
2006 03 03  0410    53797   15000      0    1.46e+00    0    1.02e+00
2006 03 03  0415    53797   15300      0    1.51e+00    0    1.06e+00
2006 03 03  0420    53797   15600      0    1.52e+00    0    1.07e+00
2006 03 03  0425    53797   15900      0    1.53e+00    0    1.07e+00
2006 03 03  0430    53797   16200      0    1.50e+00    0    1.06e+00
2006 03 03  0435    53797   16500      0    1.51e+00    0    1.05e+00
2006 03 03  0440    53797   16800      0    1.52e+00    0    1.08e+00
2006 03 03  0445    53797   17100      0    1.53e+00    0    1.07e+00
2006 03 03  0450    53797   17400      0    1.52e+00    0    1.06e+00
2006 03 03  0455    53797   17700      0    1.50e+00    0    1.05e+00
2006 03 03  0500    53797   18000      0    1.53e+00    0    1.08e+00
2006 03 03  0505    53797   18300      0    1.51e+00    0    1.05e+00
2006 03 03  0510    53797   18600      0    1.53e+00    0    1.07e+00
2006 03 03  0515    53797   18900      0    1.48e+00    0    1.04e+00
2006 03 03  0520    53797   19200      0    1.50e+00    0    1.04e+00
2006 03 03  0525    53797   19500      0    1.48e+00    0    1.05e+00
2006 03 03  0530    53797   19800      0    1.54e+00    0    1.08e+00
2006 03 03  0535    53797   20100      0    1.51e+00    0    1.07e+00
2006 03 03  0540    53797   20400      0    1.49e+00    0    1.05e+00
2006 03 03  0545    53797   20700      0    1.48e+00    0    1.04e+00
2006 03 03  0550    53797   21000      0    1.56e+00    0    1.09e+00
2006 03 03  0555    53797   21300      0    1.52e+00    0    1.07e+00
2006 03 03  0600    53797   21600      0    1.50e+00    0    1.05e+00
2006 03 03  0605    53797   21900      0    1.51e+00    0    1.06e+00
2006 03 03  0610    53797   22200      0    1.52e+00    0    1.07e+00
2006 03 03  0615    53797   22500      0    1.50e+00    0    1.05e+00
2006 03 03  0620    53797   22800      0    1.50e+00    0    1.06e+00
2006 03 03  0625    53797   23100      0    1.50e+00    0    1.06e+00
2006 03 03  0630    53797   23400      0    1.53e+00    0    1.07e+00
2006 03 03  0635    53797   23700      0    1.49e+00    0    1.05e+00
2006 03 03  0640    53797   24000      0    1.51e+00    0    1.05e+00
2006 03 03  0645    53797   24300      0    1.52e+00    0    1.07e+00
2006 03 03  0650    53797   24600      0    1.51e+00    0    1.06e+00
2006 03 03  0655    53797   24900      0    1.49e+00    0    1.04e+00
2006 03 03  0700    53797   25200      0    1.51e+00    0    1.06e+00
2006 03 03  0705    53797   25500      0    1.50e+00    0    1.06e+00
2006 03 03  0710    53797   25800      0    1.52e+00    0    1.07e+00
2006 03 03  0715    53797   26100      0    1.49e+00    0    1.05e+00
2006 03 03  0720    53797   26400      0    1.50e+00    0    1.06e+00
2006 03 03  0725    53797   26700      0    1.54e+00    0    1.09e+00
2006 03 03  0730    53797   27000      0    1.50e+00    0    1.05e+00
2006 03 03  0735    53797   27300      0    1.54e+00    0    1.08e+00
2006 03 03  0740    53797   27600      0    1.50e+00    0    1.05e+00
2006 03 03  0745    53797   27900      0    1.54e+00    0    1.07e+00
2006 03 03  0750    53797   28200      0    1.52e+00    0    1.08e+00
2006 03 03  0755    53797   28500      0    1.52e+00    0    1.06e+00
2006 03 03  0800    53797   28800      0    1.49e+00    0    1.06e+00
2006 03 03  0805    53797   29100      0    1.49e+00    0    1.05e+00
2006 03 03  0810    53797   29400      0    1.48e+00    0    1.03e+00
2006 03 03  0815    53797   29700      0    1.45e+00    0    1.02e+00
2006 03 03  0820    53797   30000      0    1.50e+00    0    1.06e+00
2006 03 03  0825    53797   30300      0    1.52e+00    0    1.06e+00
2006 03 03  0830    53797   30600      0    1.49e+00    0    1.03e+00
2006 03 03  0835    53797   30900      0    1.53e+00    0    1.07e+00
2006 03 03  0840    53797   31200      0    1.52e+00    0    1.06e+00
2006 03 03  0845    53797   31500      0    1.52e+00    0    1.08e+00
2006 03 03  0850    53797   31800      0    1.50e+00    0    1.05e+00
2006 03 03  0855    53797   32100      0    1.50e+00    0    1.05e+00
2006 03 03  0900    53797   32400      0    1.49e+00    0    1.06e+00
2006 03 03  0905    53797   32700      0    1.49e+00    0    1.05e+00
2006 03 03  0910    53797   33000      0    1.50e+00    0    1.05e+00
2006 03 03  0915    53797   33300      0    1.48e+00    0    1.04e+00
2006 03 03  0920    53797   33600      0    1.53e+00    0    1.07e+00
2006 03 03  0925    53797   33900      0    1.51e+00    0    1.04e+00
2006 03 03  0930    53797   34200      0    1.53e+00    0    1.06e+00
2006 03 03  0935    53797   34500      0    1.50e+00    0    1.06e+00
2006 03 03  0940    53797   34800      0    1.51e+00    0    1.07e+00
2006 03 03  0945    53797   35100      0    1.47e+00    0    1.03e+00
2006 03 03  0950    53797   35400      0    1.42e+00    0    1.01e+00
2006 03 03  0955    53797   35700      0    1.51e+00    0    1.06e+00
2006 03 03  1000    53797   36000      0    1.50e+00    0    1.05e+00
2006 03 03  1005    53797   36300      0    1.50e+00    0    1.06e+00
2006 03 03  1010    53797   36600      0    1.50e+00    0    1.06e+00
2006 03 03  1015    53797   36900      0    1.53e+00    0    1.06e+00
2006 03 03  1020    53797   37200      0    1.48e+00    0    1.05e+00
2006 03 03  1025    53797   37500      0    1.52e+00    0    1.07e+00
2006 03 03  1030    53797   37800      0    1.54e+00    0    1.09e+00
2006 03 03  1035    53797   38100      0    1.49e+00    0    1.03e+00
2006 03 03  1040    53797   38400      0    1.50e+00    0    1.05e+00
2006 03 03  1045    53797   38700      0    1.47e+00    0    1.04e+00
2006 03 03  1050    53797   39000      0    1.52e+00    0    1.07e+00
2006 03 03  1055    53797   39300      0    1.49e+00    0    1.05e+00
2006 03 03  1100    53797   39600      0    1.51e+00    0    1.06e+00
2006 03 03  1105    53797   39900      0    1.55e+00    0    1.08e+00
2006 03 03  1110    53797   40200      0    1.49e+00    0    1.05e+00
2006 03 03  1115    53797   40500      0    1.52e+00    0    1.06e+00
2006 03 03  1120    53797   40800      0    1.52e+00    0    1.07e+00
2006 03 03  1125    53797   41100      0    1.51e+00    0    1.06e+00
2006 03 03  1130    53797   41400      0    1.51e+00    0    1.06e+00
2006 03 03  1135    53797   41700      0    1.51e+00    0    1.06e+00
2006 03 03  1140    53797   42000      0    1.45e+00    0    1.01e+00
2006 03 03  1145    53797   42300      0    1.49e+00    0    1.06e+00
2006 03 03  1150    53797   42600      0    1.48e+00    0    1.04e+00
2006 03 03  1155    53797   42900      0    1.52e+00    0    1.06e+00
2006 03 03  1200    53797   43200      0    1.49e+00    0    1.05e+00
2006 03 03  1205    53797   43500      0    1.53e+00    0    1.07e+00
2006 03 03  1210    53797   43800      0    1.49e+00    0    1.04e+00
2006 03 03  1215    53797   44100      0    1.52e+00    0    1.07e+00
2006 03 03  1220    53797   44400      0    1.52e+00    0    1.06e+00
2006 03 03  1225    53797   44700      0    1.51e+00    0    1.06e+00
2006 03 03  1230    53797   45000      0    1.52e+00    0    1.06e+00
2006 03 03  1235    53797   45300      0    1.51e+00    0    1.05e+00
2006 03 03  1240    53797   45600      0    1.51e+00    0    1.06e+00
2006 03 03  1245    53797   45900      0    1.50e+00    0    1.06e+00
2006 03 03  1250    53797   46200      0    1.52e+00    0    1.08e+00
2006 03 03  1255    53797   46500      0    1.50e+00    0    1.06e+00
2006 03 03  1300    53797   46800      0    1.51e+00    0    1.06e+00
2006 03 03  1305    53797   47100      0    1.48e+00    0    1.03e+00
2006 03 03  1310    53797   47400      0    1.50e+00    0    1.06e+00
2006 03 03  1315    53797   47700      0    1.52e+00    0    1.06e+00
2006 03 03  1320    53797   48000      0    1.50e+00    0    1.05e+00
2006 03 03  1325    53797   48300      0    1.50e+00    0    1.06e+00
2006 03 03  1330    53797   48600      0    1.52e+00    0    1.06e+00
2006 03 03  1335    53797   48900      0    1.50e+00    0    1.05e+00
2006 03 03  1340    53797   49200      0    1.50e+00    0    1.06e+00
2006 03 03  1345    53797   49500      0    1.50e+00    0    1.06e+00
2006 03 03  1350    53797   49800      0    1.52e+00    0    1.07e+00
2006 03 03  1355    53797   50100      0    1.51e+00    0    1.06e+00
2006 03 03  1400    53797   50400      0    1.51e+00    0    1.05e+00
2006 03 03  1405    53797   50700      0    1.49e+00    0    1.04e+00
2006 03 03  1410    53797   51000      0    1.51e+00    0    1.06e+00
2006 03 03  1415    53797   51300      0    1.52e+00    0    1.08e+00
2006 03 03  1420    53797   51600      0    1.50e+00    0    1.05e+00
2006 03 03  1425    53797   51900      0    1.51e+00    0    1.06e+00
2006 03 03  1430    53797   52200      0    1.54e+00    0    1.08e+00
2006 03 03  1435    53797   52500      0    1.50e+00    0    1.06e+00
2006 03 03  1440    53797   52800      0    1.51e+00    0    1.06e+00
2006 03 03  1445    53797   53100      0    1.50e+00    0    1.05e+00
2006 03 03  1450    53797   53400      0    1.47e+00    0    1.03e+00
2006 03 03  1455    53797   53700      0    1.49e+00    0    1.05e+00
2006 03 03  1500    53797   54000      0    1.49e+00    0    1.05e+00
2006 03 03  1505    53797   54300      0    1.42e+00    0    1.01e+00
2006 03 03  1510    53797   54600      0    1.50e+00    0    1.05e+00
2006 03 03  1515    53797   54900      0    1.51e+00    0    1.06e+00
2006 03 03  1520    53797   55200      0    1.49e+00    0    1.04e+00
2006 03 03  1525    53797   55500      0    1.50e+00    0    1.05e+00
2006 03 03  1530    53797   55800      0    1.51e+00    0    1.06e+00
2006 03 03  1535    53797   56100      0    1.52e+00    0    1.07e+00
2006 03 03  1540    53797   56400      0    1.50e+00    0    1.05e+00
2006 03 03  1545    53797   56700      0    1.56e+00    0    1.10e+00
2006 03 03  1550    53797   57000      0    1.47e+00    0    1.04e+00
2006 03 03  1555    53797   57300      0    1.50e+00    0    1.05e+00
2006 03 03  1600    53797   57600      0    1.49e+00    0    1.03e+00
2006 03 03  1605    53797   57900      0    1.51e+00    0    1.06e+00
2006 03 03  1610    53797   58200      0    1.50e+00    0    1.06e+00
2006 03 03  1615    53797   58500      0    1.51e+00    0    1.05e+00
2006 03 03  1620    53797   58800      0    1.51e+00    0    1.05e+00
2006 03 03  1625    53797   59100      0    1.51e+00    0    1.06e+00
2006 03 03  1630    53797   59400      0    1.50e+00    0    1.06e+00
2006 03 03  1635    53797   59700      0    1.51e+00    0    1.05e+00
2006 03 03  1640    53797   60000      0    1.48e+00    0    1.05e+00
2006 03 03  1645    53797   60300      0    1.50e+00    0    1.05e+00
2006 03 03  1650    53797   60600      0    1.50e+00    0    1.05e+00
2006 03 03  1655    53797   60900      0    1.48e+00    0    1.04e+00
2006 03 03  1700    53797   61200      0    1.50e+00    0    1.06e+00
2006 03 03  1705    53797   61500      0    1.52e+00    0    1.06e+00
2006 03 03  1710    53797   61800      0    1.48e+00    0    1.04e+00
2006 03 03  1715    53797   62100      0    1.48e+00    0    1.04e+00
2006 03 03  1720    53797   62400      0    1.49e+00    0    1.04e+00
2006 03 03  1725    53797   62700      0    1.49e+00    0    1.04e+00
2006 03 03  1730    53797   63000      0    1.48e+00    0    1.04e+00
2006 03 03  1735    53797   63300      0    1.49e+00    0    1.04e+00
2006 03 03  1740    53797   63600      0    1.52e+00    0    1.07e+00
2006 03 03  1745    53797   63900      0    1.53e+00    0    1.08e+00
2006 03 03  1750    53797   64200      0    1.50e+00    0    1.05e+00
2006 03 03  1755    53797   64500      0    1.46e+00    0    1.02e+00
2006 03 03  1800    53797   64800      0    1.48e+00    0    1.04e+00
2006 03 03  1805    53797   65100      0    1.49e+00    0    1.05e+00
2006 03 03  1810    53797   65400      0    1.47e+00    0    1.03e+00
2006 03 03  1815    53797   65700      0    1.48e+00    0    1.04e+00
2006 03 03  1820    53797   66000      0    1.49e+00    0    1.05e+00
2006 03 03  1825    53797   66300      0    1.52e+00    0    1.08e+00
2006 03 03  1830    53797   66600      0    1.52e+00    0    1.06e+00
2006 03 03  1835    53797   66900      0    1.51e+00    0    1.06e+00
2006 03 03  1840    53797   67200      0    1.48e+00    0    1.04e+00
2006 03 03  1845    53797   67500      0    1.48e+00    0    1.04e+00
2006 03 03  1850    53797   67800      0    1.48e+00    0    1.04e+00
2006 03 03  1855    53797   68100      0    1.50e+00    0    1.04e+00
2006 03 03  1900    53797   68400      0    1.47e+00    0    1.03e+00
2006 03 03  1905    53797   68700      0    1.49e+00    0    1.04e+00
2006 03 03  1910    53797   69000      0    1.49e+00    0    1.05e+00
2006 03 03  1915    53797   69300      0    1.48e+00    0    1.04e+00
2006 03 03  1920    53797   69600      0    1.48e+00    0    1.05e+00
2006 03 03  1925    53797   69900      0    1.47e+00    0    1.04e+00
2006 03 03  1930    53797   70200      0    1.51e+00    0    1.05e+00
2006 03 03  1935    53797   70500      0    1.49e+00    0    1.05e+00
2006 03 03  1940    53797   70800      0    1.52e+00    0    1.07e+00
2006 03 03  1945    53797   71100      0    1.49e+00    0    1.04e+00
2006 03 03  1950    53797   71400      0    1.47e+00    0    1.02e+00
2006 03 03  1955    53797   71700      0    1.48e+00    0    1.03e+00
2006 03 03  2000    53797   72000      0    1.46e+00    0    1.03e+00
2006 03 03  2005    53797   72300      0    1.52e+00    0    1.07e+00
2006 03 03  2010    53797   72600      0    1.47e+00    0    1.03e+00
2006 03 03  2015    53797   72900      0    1.47e+00    0    1.04e+00
2006 03 03  2020    53797   73200      0    1.49e+00    0    1.06e+00
2006 03 03  2025    53797   73500      0    1.50e+00    0    1.05e+00
2006 03 03  2030    53797   73800      0    1.51e+00    0    1.05e+00
2006 03 03  2035    53797   74100      0    1.48e+00    0    1.04e+00
2006 03 03  2040    53797   74400      0    1.51e+00    0    1.06e+00
2006 03 03  2045    53797   74700      0    1.50e+00    0    1.06e+00
2006 03 03  2050    53797   75000      0    1.54e+00    0    1.08e+00
2006 03 03  2055    53797   75300      0    1.52e+00    0    1.07e+00
2006 03 03  2100    53797   75600      0    1.52e+00    0    1.07e+00
2006 03 03  2105    53797   75900      0    1.50e+00    0    1.04e+00
2006 03 03  2110    53797   76200      0    1.48e+00    0    1.04e+00
2006 03 03  2115    53797   76500      0    1.51e+00    0    1.06e+00
2006 03 03  2120    53797   76800      0    1.46e+00    0    1.04e+00
2006 03 03  2125    53797   77100      0    1.49e+00    0    1.04e+00
2006 03 03  2130    53797   77400      0    1.52e+00    0    1.08e+00
2006 03 03  2135    53797   77700      0    1.50e+00    0    1.04e+00
2006 03 03  2140    53797   78000      0    1.50e+00    0    1.04e+00
2006 03 03  2145    53797   78300      0    1.42e+00    0    1.01e+00
2006 03 03  2150    53797   78600      0    1.48e+00    0    1.04e+00
2006 03 03  2155    53797   78900      0    1.51e+00    0    1.05e+00
2006 03 03  2200    53797   79200      0    1.52e+00    0    1.07e+00
2006 03 03  2205    53797   79500      0    1.54e+00    0    1.09e+00
2006 03 03  2210    53797   79800      0    1.52e+00    0    1.06e+00
2006 03 03  2215    53797   80100      0    1.54e+00    0    1.08e+00
2006 03 03  2220    53797   80400      0    1.51e+00    0    1.07e+00
2006 03 03  2225    53797   80700      0    1.49e+00    0    1.04e+00
2006 03 03  2230    53797   81000      0    1.48e+00    0    1.04e+00
2006 03 03  2235    53797   81300      0    1.50e+00    0    1.06e+00
2006 03 03  2240    53797   81600      0    1.53e+00    0    1.08e+00
2006 03 03  2245    53797   81900      0    1.51e+00    0    1.07e+00
2006 03 03  2250    53797   82200      0    1.52e+00    0    1.06e+00
2006 03 03  2255    53797   82500      0    1.46e+00    0    1.03e+00
2006 03 03  2300    53797   82800      0    1.51e+00    0    1.07e+00
2006 03 03  2305    53797   83100      0    1.48e+00    0    1.03e+00
2006 03 03  2310    53797   83400      0    1.47e+00    0    1.04e+00
2006 03 03  2315    53797   83700      0    1.48e+00    0    1.03e+00
2006 03 03  2320    53797   84000      0    1.47e+00    0    1.03e+00
2006 03 03  2325    53797   84300      0    1.52e+00    0    1.07e+00
2006 03 03  2330    53797   84600      0    1.49e+00    0    1.05e+00
2006 03 03  2335    53797   84900      0    1.47e+00    0    1.03e+00
2006 03 03  2340    53797   85200      0    1.48e+00    0    1.03e+00
2006 03 03  2345    53797   85500      0    1.51e+00    0    1.04e+00
2006 03 03  2350    53797   85800      0    1.49e+00    0    1.04e+00
2006 03 03  2355    53797   86100      0    1.53e+00    0    1.08e+00
