:Data_list: 20060819_ace_sis_5m.txt
:Created: 2006 Aug 20 0011 UT
# Prepared by the U.S. Dept. of Commerce, NOAA, Space Environment Center.
# Please send comments and suggestions to SEC.Webmaster@noaa.gov 
# 
# Units: proton flux p/cs2-sec-ster
# Status(S): 0 = nominal data, 1 to 8 = bad data record, 9 = no data
# Missing data values: -1.00e+05
# Source: ACE Satellite - Solar Isotope Spectrometer
#
# 5-minute averaged Real-time Integral Flux of High-energy Solar Protons
# 
#                 Modified Seconds
# UT Date   Time   Julian  of the      ---- Integral Proton Flux ----
# YR MO DA  HHMM     Day     Day       S    > 10 MeV    S    > 30 MeV
#--------------------------------------------------------------------
2006 08 19  0000    53966       0      0    1.67e+00    0    1.18e+00
2006 08 19  0005    53966     300      0    1.66e+00    0    1.17e+00
2006 08 19  0010    53966     600      0    1.67e+00    0    1.17e+00
2006 08 19  0015    53966     900      0    1.68e+00    0    1.16e+00
2006 08 19  0020    53966    1200      0    1.65e+00    0    1.14e+00
2006 08 19  0025    53966    1500      0    1.67e+00    0    1.16e+00
2006 08 19  0030    53966    1800      0    1.71e+00    0    1.19e+00
2006 08 19  0035    53966    2100      0    1.65e+00    0    1.15e+00
2006 08 19  0040    53966    2400      0    1.65e+00    0    1.14e+00
2006 08 19  0045    53966    2700      0    1.65e+00    0    1.16e+00
2006 08 19  0050    53966    3000      0    1.69e+00    0    1.18e+00
2006 08 19  0055    53966    3300      0    1.65e+00    0    1.15e+00
2006 08 19  0100    53966    3600      0    1.63e+00    0    1.14e+00
2006 08 19  0105    53966    3900      0    1.70e+00    0    1.20e+00
2006 08 19  0110    53966    4200      0    1.70e+00    0    1.19e+00
2006 08 19  0115    53966    4500      0    1.66e+00    0    1.16e+00
2006 08 19  0120    53966    4800      0    1.65e+00    0    1.16e+00
2006 08 19  0125    53966    5100      0    1.69e+00    0    1.19e+00
2006 08 19  0130    53966    5400      0    1.62e+00    0    1.13e+00
2006 08 19  0135    53966    5700      0    1.66e+00    0    1.15e+00
2006 08 19  0140    53966    6000      0    1.72e+00    0    1.21e+00
2006 08 19  0145    53966    6300      0    1.67e+00    0    1.17e+00
2006 08 19  0150    53966    6600      0    1.71e+00    0    1.18e+00
2006 08 19  0155    53966    6900      0    1.66e+00    0    1.16e+00
2006 08 19  0200    53966    7200      0    1.62e+00    0    1.12e+00
2006 08 19  0205    53966    7500      0    1.69e+00    0    1.18e+00
2006 08 19  0210    53966    7800      0    1.71e+00    0    1.20e+00
2006 08 19  0215    53966    8100      0    1.66e+00    0    1.15e+00
2006 08 19  0220    53966    8400      0    1.68e+00    0    1.18e+00
2006 08 19  0225    53966    8700      0    1.71e+00    0    1.20e+00
2006 08 19  0230    53966    9000      0    1.67e+00    0    1.18e+00
2006 08 19  0235    53966    9300      0    1.65e+00    0    1.15e+00
2006 08 19  0240    53966    9600      0    1.71e+00    0    1.19e+00
2006 08 19  0245    53966    9900      0    1.68e+00    0    1.18e+00
2006 08 19  0250    53966   10200      0    1.65e+00    0    1.15e+00
2006 08 19  0255    53966   10500      0    1.63e+00    0    1.14e+00
2006 08 19  0300    53966   10800      0    1.65e+00    0    1.16e+00
2006 08 19  0305    53966   11100      0    1.64e+00    0    1.14e+00
2006 08 19  0310    53966   11400      0    1.66e+00    0    1.16e+00
2006 08 19  0315    53966   11700      0    1.57e+00    0    1.10e+00
2006 08 19  0320    53966   12000      0    1.66e+00    0    1.17e+00
2006 08 19  0325    53966   12300      0    1.68e+00    0    1.18e+00
2006 08 19  0330    53966   12600      0    1.66e+00    0    1.18e+00
2006 08 19  0335    53966   12900      0    1.69e+00    0    1.20e+00
2006 08 19  0340    53966   13200      0    1.66e+00    0    1.16e+00
2006 08 19  0345    53966   13500      0    1.70e+00    0    1.19e+00
2006 08 19  0350    53966   13800      0    1.68e+00    0    1.17e+00
2006 08 19  0355    53966   14100      0    1.66e+00    0    1.18e+00
2006 08 19  0400    53966   14400      0    1.64e+00    0    1.16e+00
2006 08 19  0405    53966   14700      0    1.67e+00    0    1.18e+00
2006 08 19  0410    53966   15000      0    1.67e+00    0    1.16e+00
2006 08 19  0415    53966   15300      0    1.67e+00    0    1.17e+00
2006 08 19  0420    53966   15600      0    1.66e+00    0    1.15e+00
2006 08 19  0425    53966   15900      0    1.68e+00    0    1.17e+00
2006 08 19  0430    53966   16200      0    1.69e+00    0    1.18e+00
2006 08 19  0435    53966   16500      0    1.67e+00    0    1.16e+00
2006 08 19  0440    53966   16800      0    1.67e+00    0    1.17e+00
2006 08 19  0445    53966   17100      0    1.69e+00    0    1.18e+00
2006 08 19  0450    53966   17400      0    1.66e+00    0    1.16e+00
2006 08 19  0455    53966   17700      0    1.65e+00    0    1.15e+00
2006 08 19  0500    53966   18000      0    1.65e+00    0    1.15e+00
2006 08 19  0505    53966   18300      0    1.67e+00    0    1.17e+00
2006 08 19  0510    53966   18600      0    1.64e+00    0    1.14e+00
2006 08 19  0515    53966   18900      0    1.71e+00    0    1.19e+00
2006 08 19  0520    53966   19200      0    1.70e+00    0    1.19e+00
2006 08 19  0525    53966   19500      0    1.66e+00    0    1.18e+00
2006 08 19  0530    53966   19800      0    1.69e+00    0    1.18e+00
2006 08 19  0535    53966   20100      0    1.67e+00    0    1.18e+00
2006 08 19  0540    53966   20400      0    1.67e+00    0    1.17e+00
2006 08 19  0545    53966   20700      0    1.68e+00    0    1.17e+00
2006 08 19  0550    53966   21000      0    1.65e+00    0    1.16e+00
2006 08 19  0555    53966   21300      0    1.67e+00    0    1.18e+00
2006 08 19  0600    53966   21600      0    1.66e+00    0    1.16e+00
2006 08 19  0605    53966   21900      0    1.69e+00    0    1.18e+00
2006 08 19  0610    53966   22200      0    1.67e+00    0    1.16e+00
2006 08 19  0615    53966   22500      0    1.65e+00    0    1.14e+00
2006 08 19  0620    53966   22800      0    1.67e+00    0    1.16e+00
2006 08 19  0625    53966   23100      0    1.67e+00    0    1.16e+00
2006 08 19  0630    53966   23400      0    1.68e+00    0    1.17e+00
2006 08 19  0635    53966   23700      0    1.68e+00    0    1.18e+00
2006 08 19  0640    53966   24000      0    1.65e+00    0    1.14e+00
2006 08 19  0645    53966   24300      0    1.68e+00    0    1.17e+00
2006 08 19  0650    53966   24600      0    1.66e+00    0    1.16e+00
2006 08 19  0655    53966   24900      0    1.67e+00    0    1.18e+00
2006 08 19  0700    53966   25200      0    1.69e+00    0    1.17e+00
2006 08 19  0705    53966   25500      0    1.64e+00    0    1.14e+00
2006 08 19  0710    53966   25800      0    1.70e+00    0    1.19e+00
2006 08 19  0715    53966   26100      0    1.68e+00    0    1.17e+00
2006 08 19  0720    53966   26400      0    1.68e+00    0    1.19e+00
2006 08 19  0725    53966   26700      0    1.66e+00    0    1.16e+00
2006 08 19  0730    53966   27000      0    1.66e+00    0    1.17e+00
2006 08 19  0735    53966   27300      0    1.66e+00    0    1.16e+00
2006 08 19  0740    53966   27600      0    1.68e+00    0    1.18e+00
2006 08 19  0745    53966   27900      0    1.67e+00    0    1.17e+00
2006 08 19  0750    53966   28200      0    1.64e+00    0    1.13e+00
2006 08 19  0755    53966   28500      0    1.63e+00    0    1.14e+00
2006 08 19  0800    53966   28800      0    1.69e+00    0    1.18e+00
2006 08 19  0805    53966   29100      0    1.67e+00    0    1.17e+00
2006 08 19  0810    53966   29400      0    1.67e+00    0    1.16e+00
2006 08 19  0815    53966   29700      0    1.65e+00    0    1.16e+00
2006 08 19  0820    53966   30000      0    1.66e+00    0    1.17e+00
2006 08 19  0825    53966   30300      0    1.64e+00    0    1.15e+00
2006 08 19  0830    53966   30600      0    1.67e+00    0    1.18e+00
2006 08 19  0835    53966   30900      0    1.67e+00    0    1.17e+00
2006 08 19  0840    53966   31200      0    1.66e+00    0    1.17e+00
2006 08 19  0845    53966   31500      0    1.67e+00    0    1.18e+00
2006 08 19  0850    53966   31800      0    1.65e+00    0    1.16e+00
2006 08 19  0855    53966   32100      0    1.68e+00    0    1.18e+00
2006 08 19  0900    53966   32400      0    1.68e+00    0    1.17e+00
2006 08 19  0905    53966   32700      0    1.64e+00    0    1.15e+00
2006 08 19  0910    53966   33000      0    1.66e+00    0    1.17e+00
2006 08 19  0915    53966   33300      0    1.65e+00    0    1.16e+00
2006 08 19  0920    53966   33600      0    1.56e+00    0    1.08e+00
2006 08 19  0925    53966   33900      0    1.59e+00    0    1.11e+00
2006 08 19  0930    53966   34200      0    1.69e+00    0    1.18e+00
2006 08 19  0935    53966   34500      0    1.67e+00    0    1.18e+00
2006 08 19  0940    53966   34800      0    1.69e+00    0    1.18e+00
2006 08 19  0945    53966   35100      0    1.68e+00    0    1.18e+00
2006 08 19  0950    53966   35400      0    1.68e+00    0    1.18e+00
2006 08 19  0955    53966   35700      0    1.66e+00    0    1.16e+00
2006 08 19  1000    53966   36000      0    1.72e+00    0    1.21e+00
2006 08 19  1005    53966   36300      0    1.64e+00    0    1.14e+00
2006 08 19  1010    53966   36600      0    1.67e+00    0    1.17e+00
2006 08 19  1015    53966   36900      0    1.66e+00    0    1.16e+00
2006 08 19  1020    53966   37200      0    1.67e+00    0    1.17e+00
2006 08 19  1025    53966   37500      0    1.67e+00    0    1.16e+00
2006 08 19  1030    53966   37800      0    1.63e+00    0    1.13e+00
2006 08 19  1035    53966   38100      0    1.67e+00    0    1.18e+00
2006 08 19  1040    53966   38400      0    1.66e+00    0    1.17e+00
2006 08 19  1045    53966   38700      0    1.70e+00    0    1.18e+00
2006 08 19  1050    53966   39000      0    1.67e+00    0    1.16e+00
2006 08 19  1055    53966   39300      0    1.66e+00    0    1.16e+00
2006 08 19  1100    53966   39600      0    1.68e+00    0    1.19e+00
2006 08 19  1105    53966   39900      0    1.68e+00    0    1.16e+00
2006 08 19  1110    53966   40200      0    1.67e+00    0    1.17e+00
2006 08 19  1115    53966   40500      0    1.67e+00    0    1.16e+00
2006 08 19  1120    53966   40800      0    1.70e+00    0    1.19e+00
2006 08 19  1125    53966   41100      0    1.66e+00    0    1.17e+00
2006 08 19  1130    53966   41400      0    1.65e+00    0    1.16e+00
2006 08 19  1135    53966   41700      0    1.68e+00    0    1.19e+00
2006 08 19  1140    53966   42000      0    1.67e+00    0    1.17e+00
2006 08 19  1145    53966   42300      0    1.62e+00    0    1.13e+00
2006 08 19  1150    53966   42600      0    1.68e+00    0    1.17e+00
2006 08 19  1155    53966   42900      0    1.67e+00    0    1.16e+00
2006 08 19  1200    53966   43200      0    1.64e+00    0    1.16e+00
2006 08 19  1205    53966   43500      0    1.65e+00    0    1.16e+00
2006 08 19  1210    53966   43800      0    1.61e+00    0    1.14e+00
2006 08 19  1215    53966   44100      0    1.68e+00    0    1.17e+00
2006 08 19  1220    53966   44400      0    1.66e+00    0    1.15e+00
2006 08 19  1225    53966   44700      0    1.62e+00    0    1.13e+00
2006 08 19  1230    53966   45000      0    1.64e+00    0    1.15e+00
2006 08 19  1235    53966   45300      0    1.64e+00    0    1.14e+00
2006 08 19  1240    53966   45600      0    1.66e+00    0    1.17e+00
2006 08 19  1245    53966   45900      0    1.64e+00    0    1.14e+00
2006 08 19  1250    53966   46200      0    1.68e+00    0    1.18e+00
2006 08 19  1255    53966   46500      0    1.64e+00    0    1.15e+00
2006 08 19  1300    53966   46800      0    1.66e+00    0    1.16e+00
2006 08 19  1305    53966   47100      0    1.64e+00    0    1.15e+00
2006 08 19  1310    53966   47400      0    1.66e+00    0    1.15e+00
2006 08 19  1315    53966   47700      0    1.65e+00    0    1.14e+00
2006 08 19  1320    53966   48000      0    1.65e+00    0    1.14e+00
2006 08 19  1325    53966   48300      0    1.64e+00    0    1.16e+00
2006 08 19  1330    53966   48600      0    1.66e+00    0    1.16e+00
2006 08 19  1335    53966   48900      0    1.64e+00    0    1.14e+00
2006 08 19  1340    53966   49200      0    1.66e+00    0    1.15e+00
2006 08 19  1345    53966   49500      0    1.67e+00    0    1.16e+00
2006 08 19  1350    53966   49800      0    1.64e+00    0    1.15e+00
2006 08 19  1355    53966   50100      0    1.65e+00    0    1.18e+00
2006 08 19  1400    53966   50400      0    1.66e+00    0    1.15e+00
2006 08 19  1405    53966   50700      0    1.64e+00    0    1.15e+00
2006 08 19  1410    53966   51000      0    1.64e+00    0    1.14e+00
2006 08 19  1415    53966   51300      0    1.61e+00    0    1.12e+00
2006 08 19  1420    53966   51600      0    1.65e+00    0    1.16e+00
2006 08 19  1425    53966   51900      0    1.65e+00    0    1.17e+00
2006 08 19  1430    53966   52200      0    1.63e+00    0    1.14e+00
2006 08 19  1435    53966   52500      0    1.65e+00    0    1.16e+00
2006 08 19  1440    53966   52800      0    1.62e+00    0    1.13e+00
2006 08 19  1445    53966   53100      0    1.67e+00    0    1.17e+00
2006 08 19  1450    53966   53400      0    1.62e+00    0    1.14e+00
2006 08 19  1455    53966   53700      0    1.65e+00    0    1.15e+00
2006 08 19  1500    53966   54000      0    1.65e+00    0    1.15e+00
2006 08 19  1505    53966   54300      0    1.62e+00    0    1.13e+00
2006 08 19  1510    53966   54600      0    1.66e+00    0    1.16e+00
2006 08 19  1515    53966   54900      0    1.63e+00    0    1.14e+00
2006 08 19  1520    53966   55200      0    1.66e+00    0    1.16e+00
2006 08 19  1525    53966   55500      0    1.63e+00    0    1.14e+00
2006 08 19  1530    53966   55800      0    1.65e+00    0    1.16e+00
2006 08 19  1535    53966   56100      0    1.65e+00    0    1.15e+00
2006 08 19  1540    53966   56400      0    1.64e+00    0    1.16e+00
2006 08 19  1545    53966   56700      0    1.64e+00    0    1.15e+00
2006 08 19  1550    53966   57000      0    1.67e+00    0    1.18e+00
2006 08 19  1555    53966   57300      0    1.64e+00    0    1.15e+00
2006 08 19  1600    53966   57600      0    1.69e+00    0    1.19e+00
2006 08 19  1605    53966   57900      0    1.68e+00    0    1.18e+00
2006 08 19  1610    53966   58200      0    1.63e+00    0    1.13e+00
2006 08 19  1615    53966   58500      0    1.65e+00    0    1.15e+00
2006 08 19  1620    53966   58800      0    1.63e+00    0    1.14e+00
2006 08 19  1625    53966   59100      0    1.70e+00    0    1.18e+00
2006 08 19  1630    53966   59400      0    1.65e+00    0    1.16e+00
2006 08 19  1635    53966   59700      0    1.59e+00    0    1.10e+00
2006 08 19  1640    53966   60000      0    1.66e+00    0    1.17e+00
2006 08 19  1645    53966   60300      0    1.66e+00    0    1.16e+00
2006 08 19  1650    53966   60600      0    1.67e+00    0    1.17e+00
2006 08 19  1655    53966   60900      0    1.62e+00    0    1.13e+00
2006 08 19  1700    53966   61200      0    1.68e+00    0    1.18e+00
2006 08 19  1705    53966   61500      0    1.67e+00    0    1.17e+00
2006 08 19  1710    53966   61800      0    1.64e+00    0    1.14e+00
2006 08 19  1715    53966   62100      0    1.64e+00    0    1.16e+00
2006 08 19  1720    53966   62400      0    1.63e+00    0    1.14e+00
2006 08 19  1725    53966   62700      0    1.65e+00    0    1.16e+00
2006 08 19  1730    53966   63000      0    1.64e+00    0    1.14e+00
2006 08 19  1735    53966   63300      0    1.66e+00    0    1.17e+00
2006 08 19  1740    53966   63600      0    1.66e+00    0    1.16e+00
2006 08 19  1745    53966   63900      0    1.67e+00    0    1.16e+00
2006 08 19  1750    53966   64200      0    1.64e+00    0    1.15e+00
2006 08 19  1755    53966   64500      0    1.64e+00    0    1.14e+00
2006 08 19  1800    53966   64800      0    1.64e+00    0    1.15e+00
2006 08 19  1805    53966   65100      0    1.65e+00    0    1.15e+00
2006 08 19  1810    53966   65400      0    1.62e+00    0    1.14e+00
2006 08 19  1815    53966   65700      0    1.67e+00    0    1.15e+00
2006 08 19  1820    53966   66000      0    1.67e+00    0    1.17e+00
2006 08 19  1825    53966   66300      0    1.68e+00    0    1.17e+00
2006 08 19  1830    53966   66600      0    1.64e+00    0    1.15e+00
2006 08 19  1835    53966   66900      0    1.66e+00    0    1.17e+00
2006 08 19  1840    53966   67200      0    1.67e+00    0    1.18e+00
2006 08 19  1845    53966   67500      0    1.66e+00    0    1.16e+00
2006 08 19  1850    53966   67800      0    1.66e+00    0    1.15e+00
2006 08 19  1855    53966   68100      0    1.64e+00    0    1.13e+00
2006 08 19  1900    53966   68400      0    1.63e+00    0    1.14e+00
2006 08 19  1905    53966   68700      0    1.63e+00    0    1.13e+00
2006 08 19  1910    53966   69000      0    1.64e+00    0    1.14e+00
2006 08 19  1915    53966   69300      0    1.65e+00    0    1.16e+00
2006 08 19  1920    53966   69600      0    1.64e+00    0    1.15e+00
2006 08 19  1925    53966   69900      0    1.65e+00    0    1.16e+00
2006 08 19  1930    53966   70200      9   -1.00e+05    9   -1.00e+05
2006 08 19  1935    53966   70500      0    1.64e+00    0    1.15e+00
2006 08 19  1940    53966   70800      0    1.66e+00    0    1.16e+00
2006 08 19  1945    53966   71100      0    1.67e+00    0    1.17e+00
2006 08 19  1950    53966   71400      0    1.67e+00    0    1.18e+00
2006 08 19  1955    53966   71700      0    1.69e+00    0    1.19e+00
2006 08 19  2000    53966   72000      0    1.66e+00    0    1.17e+00
2006 08 19  2005    53966   72300      0    1.64e+00    0    1.14e+00
2006 08 19  2010    53966   72600      0    1.67e+00    0    1.17e+00
2006 08 19  2015    53966   72900      0    1.65e+00    0    1.15e+00
2006 08 19  2020    53966   73200      0    1.66e+00    0    1.16e+00
2006 08 19  2025    53966   73500      0    1.61e+00    0    1.13e+00
2006 08 19  2030    53966   73800      0    1.64e+00    0    1.14e+00
2006 08 19  2035    53966   74100      0    1.68e+00    0    1.16e+00
2006 08 19  2040    53966   74400      0    1.66e+00    0    1.16e+00
2006 08 19  2045    53966   74700      0    1.69e+00    0    1.19e+00
2006 08 19  2050    53966   75000      0    1.68e+00    0    1.18e+00
2006 08 19  2055    53966   75300      0    1.69e+00    0    1.19e+00
2006 08 19  2100    53966   75600      0    1.66e+00    0    1.16e+00
2006 08 19  2105    53966   75900      0    1.67e+00    0    1.17e+00
2006 08 19  2110    53966   76200      0    1.65e+00    0    1.15e+00
2006 08 19  2115    53966   76500      0    1.67e+00    0    1.18e+00
2006 08 19  2120    53966   76800      0    1.65e+00    0    1.18e+00
2006 08 19  2125    53966   77100      0    1.63e+00    0    1.14e+00
2006 08 19  2130    53966   77400      0    1.66e+00    0    1.16e+00
2006 08 19  2135    53966   77700      0    1.66e+00    0    1.16e+00
2006 08 19  2140    53966   78000      0    1.66e+00    0    1.16e+00
2006 08 19  2145    53966   78300      0    1.63e+00    0    1.14e+00
2006 08 19  2150    53966   78600      0    1.65e+00    0    1.15e+00
2006 08 19  2155    53966   78900      0    1.66e+00    0    1.17e+00
2006 08 19  2200    53966   79200      0    1.73e+00    0    1.23e+00
2006 08 19  2205    53966   79500      0    1.74e+00    0    1.24e+00
2006 08 19  2210    53966   79800      0    1.67e+00    0    1.16e+00
2006 08 19  2215    53966   80100      0    1.63e+00    0    1.16e+00
2006 08 19  2220    53966   80400      0    1.63e+00    0    1.13e+00
2006 08 19  2225    53966   80700      0    1.65e+00    0    1.15e+00
2006 08 19  2230    53966   81000      0    1.68e+00    0    1.19e+00
2006 08 19  2235    53966   81300      0    1.64e+00    0    1.15e+00
2006 08 19  2240    53966   81600      0    1.65e+00    0    1.16e+00
2006 08 19  2245    53966   81900      0    1.64e+00    0    1.14e+00
2006 08 19  2250    53966   82200      0    1.65e+00    0    1.15e+00
2006 08 19  2255    53966   82500      0    1.61e+00    0    1.11e+00
2006 08 19  2300    53966   82800      0    1.63e+00    0    1.14e+00
2006 08 19  2305    53966   83100      0    1.61e+00    0    1.13e+00
2006 08 19  2310    53966   83400      0    1.66e+00    0    1.17e+00
2006 08 19  2315    53966   83700      0    1.64e+00    0    1.15e+00
2006 08 19  2320    53966   84000      0    1.62e+00    0    1.14e+00
2006 08 19  2325    53966   84300      0    1.64e+00    0    1.15e+00
2006 08 19  2330    53966   84600      0    1.65e+00    0    1.15e+00
2006 08 19  2335    53966   84900      0    1.62e+00    0    1.14e+00
2006 08 19  2340    53966   85200      0    1.65e+00    0    1.15e+00
2006 08 19  2345    53966   85500      0    1.66e+00    0    1.16e+00
2006 08 19  2350    53966   85800      0    1.66e+00    0    1.17e+00
2006 08 19  2355    53966   86100      0    1.62e+00    0    1.14e+00
