:Data_list: 20061017_ace_sis_5m.txt
:Created: 2006 Oct 18 0011 UT
# Prepared by the U.S. Dept. of Commerce, NOAA, Space Environment Center.
# Please send comments and suggestions to SEC.Webmaster@noaa.gov 
# 
# Units: proton flux p/cs2-sec-ster
# Status(S): 0 = nominal data, 1 to 8 = bad data record, 9 = no data
# Missing data values: -1.00e+05
# Source: ACE Satellite - Solar Isotope Spectrometer
#
# 5-minute averaged Real-time Integral Flux of High-energy Solar Protons
# 
#                 Modified Seconds
# UT Date   Time   Julian  of the      ---- Integral Proton Flux ----
# YR MO DA  HHMM     Day     Day       S    > 10 MeV    S    > 30 MeV
#--------------------------------------------------------------------
2006 10 17  0000    54025       0      0    1.68e+00    0    1.18e+00
2006 10 17  0005    54025     300      0    1.69e+00    0    1.18e+00
2006 10 17  0010    54025     600      0    1.73e+00    0    1.22e+00
2006 10 17  0015    54025     900      0    1.70e+00    0    1.18e+00
2006 10 17  0020    54025    1200      0    1.72e+00    0    1.20e+00
2006 10 17  0025    54025    1500      0    1.70e+00    0    1.19e+00
2006 10 17  0030    54025    1800      0    1.71e+00    0    1.19e+00
2006 10 17  0035    54025    2100      0    1.70e+00    0    1.18e+00
2006 10 17  0040    54025    2400      0    1.73e+00    0    1.21e+00
2006 10 17  0045    54025    2700      0    1.69e+00    0    1.19e+00
2006 10 17  0050    54025    3000      0    1.72e+00    0    1.21e+00
2006 10 17  0055    54025    3300      0    1.70e+00    0    1.19e+00
2006 10 17  0100    54025    3600      0    1.69e+00    0    1.19e+00
2006 10 17  0105    54025    3900      0    1.71e+00    0    1.20e+00
2006 10 17  0110    54025    4200      0    1.68e+00    0    1.17e+00
2006 10 17  0115    54025    4500      0    1.74e+00    0    1.23e+00
2006 10 17  0120    54025    4800      0    1.68e+00    0    1.18e+00
2006 10 17  0125    54025    5100      0    1.69e+00    0    1.19e+00
2006 10 17  0130    54025    5400      0    1.72e+00    0    1.21e+00
2006 10 17  0135    54025    5700      0    1.67e+00    0    1.17e+00
2006 10 17  0140    54025    6000      0    1.67e+00    0    1.16e+00
2006 10 17  0145    54025    6300      0    1.70e+00    0    1.18e+00
2006 10 17  0150    54025    6600      0    1.69e+00    0    1.19e+00
2006 10 17  0155    54025    6900      0    1.71e+00    0    1.20e+00
2006 10 17  0200    54025    7200      0    1.70e+00    0    1.20e+00
2006 10 17  0205    54025    7500      0    1.69e+00    0    1.18e+00
2006 10 17  0210    54025    7800      0    1.71e+00    0    1.21e+00
2006 10 17  0215    54025    8100      0    1.71e+00    0    1.20e+00
2006 10 17  0220    54025    8400      0    1.70e+00    0    1.19e+00
2006 10 17  0225    54025    8700      0    1.71e+00    0    1.20e+00
2006 10 17  0230    54025    9000      0    1.69e+00    0    1.19e+00
2006 10 17  0235    54025    9300      0    1.71e+00    0    1.20e+00
2006 10 17  0240    54025    9600      0    1.75e+00    0    1.23e+00
2006 10 17  0245    54025    9900      0    1.75e+00    0    1.23e+00
2006 10 17  0250    54025   10200      0    1.71e+00    0    1.20e+00
2006 10 17  0255    54025   10500      0    1.73e+00    0    1.22e+00
2006 10 17  0300    54025   10800      0    1.73e+00    0    1.22e+00
2006 10 17  0305    54025   11100      0    1.68e+00    0    1.17e+00
2006 10 17  0310    54025   11400      0    1.71e+00    0    1.20e+00
2006 10 17  0315    54025   11700      0    1.69e+00    0    1.18e+00
2006 10 17  0320    54025   12000      0    1.70e+00    0    1.19e+00
2006 10 17  0325    54025   12300      0    1.67e+00    0    1.18e+00
2006 10 17  0330    54025   12600      0    1.70e+00    0    1.20e+00
2006 10 17  0335    54025   12900      0    1.69e+00    0    1.18e+00
2006 10 17  0340    54025   13200      0    1.69e+00    0    1.20e+00
2006 10 17  0345    54025   13500      0    1.71e+00    0    1.20e+00
2006 10 17  0350    54025   13800      0    1.68e+00    0    1.17e+00
2006 10 17  0355    54025   14100      0    1.72e+00    0    1.21e+00
2006 10 17  0400    54025   14400      0    1.70e+00    0    1.19e+00
2006 10 17  0405    54025   14700      0    1.69e+00    0    1.17e+00
2006 10 17  0410    54025   15000      0    1.71e+00    0    1.20e+00
2006 10 17  0415    54025   15300      0    1.71e+00    0    1.19e+00
2006 10 17  0420    54025   15600      0    1.72e+00    0    1.21e+00
2006 10 17  0425    54025   15900      0    1.71e+00    0    1.21e+00
2006 10 17  0430    54025   16200      0    1.70e+00    0    1.19e+00
2006 10 17  0435    54025   16500      0    1.71e+00    0    1.20e+00
2006 10 17  0440    54025   16800      0    1.68e+00    0    1.17e+00
2006 10 17  0445    54025   17100      0    1.69e+00    0    1.19e+00
2006 10 17  0450    54025   17400      0    1.70e+00    0    1.19e+00
2006 10 17  0455    54025   17700      0    1.71e+00    0    1.19e+00
2006 10 17  0500    54025   18000      0    1.74e+00    0    1.22e+00
2006 10 17  0505    54025   18300      0    1.72e+00    0    1.20e+00
2006 10 17  0510    54025   18600      0    1.72e+00    0    1.20e+00
2006 10 17  0515    54025   18900      0    1.68e+00    0    1.18e+00
2006 10 17  0520    54025   19200      0    1.73e+00    0    1.22e+00
2006 10 17  0525    54025   19500      0    1.70e+00    0    1.20e+00
2006 10 17  0530    54025   19800      0    1.71e+00    0    1.20e+00
2006 10 17  0535    54025   20100      0    1.70e+00    0    1.19e+00
2006 10 17  0540    54025   20400      0    1.70e+00    0    1.19e+00
2006 10 17  0545    54025   20700      0    1.72e+00    0    1.20e+00
2006 10 17  0550    54025   21000      0    1.70e+00    0    1.19e+00
2006 10 17  0555    54025   21300      0    1.60e+00    0    1.11e+00
2006 10 17  0600    54025   21600      0    1.71e+00    0    1.20e+00
2006 10 17  0605    54025   21900      0    1.71e+00    0    1.19e+00
2006 10 17  0610    54025   22200      0    1.69e+00    0    1.19e+00
2006 10 17  0615    54025   22500      0    1.74e+00    0    1.22e+00
2006 10 17  0620    54025   22800      0    1.69e+00    0    1.19e+00
2006 10 17  0625    54025   23100      0    1.66e+00    0    1.16e+00
2006 10 17  0630    54025   23400      0    1.70e+00    0    1.21e+00
2006 10 17  0635    54025   23700      0    1.74e+00    0    1.23e+00
2006 10 17  0640    54025   24000      0    1.71e+00    0    1.19e+00
2006 10 17  0645    54025   24300      0    1.69e+00    0    1.19e+00
2006 10 17  0650    54025   24600      0    1.71e+00    0    1.20e+00
2006 10 17  0655    54025   24900      0    1.72e+00    0    1.20e+00
2006 10 17  0700    54025   25200      0    1.71e+00    0    1.21e+00
2006 10 17  0705    54025   25500      0    1.69e+00    0    1.18e+00
2006 10 17  0710    54025   25800      0    1.69e+00    0    1.18e+00
2006 10 17  0715    54025   26100      0    1.70e+00    0    1.18e+00
2006 10 17  0720    54025   26400      0    1.69e+00    0    1.18e+00
2006 10 17  0725    54025   26700      0    1.71e+00    0    1.21e+00
2006 10 17  0730    54025   27000      0    1.70e+00    0    1.19e+00
2006 10 17  0735    54025   27300      0    1.72e+00    0    1.21e+00
2006 10 17  0740    54025   27600      0    1.73e+00    0    1.22e+00
2006 10 17  0745    54025   27900      0    1.71e+00    0    1.20e+00
2006 10 17  0750    54025   28200      0    1.73e+00    0    1.21e+00
2006 10 17  0755    54025   28500      0    1.71e+00    0    1.21e+00
2006 10 17  0800    54025   28800      0    1.71e+00    0    1.20e+00
2006 10 17  0805    54025   29100      0    1.70e+00    0    1.20e+00
2006 10 17  0810    54025   29400      0    1.68e+00    0    1.18e+00
2006 10 17  0815    54025   29700      0    1.69e+00    0    1.19e+00
2006 10 17  0820    54025   30000      0    1.70e+00    0    1.20e+00
2006 10 17  0825    54025   30300      0    1.73e+00    0    1.22e+00
2006 10 17  0830    54025   30600      0    1.73e+00    0    1.21e+00
2006 10 17  0835    54025   30900      0    1.69e+00    0    1.19e+00
2006 10 17  0840    54025   31200      0    1.74e+00    0    1.22e+00
2006 10 17  0845    54025   31500      0    1.74e+00    0    1.22e+00
2006 10 17  0850    54025   31800      0    1.73e+00    0    1.22e+00
2006 10 17  0855    54025   32100      0    1.71e+00    0    1.21e+00
2006 10 17  0900    54025   32400      0    1.70e+00    0    1.19e+00
2006 10 17  0905    54025   32700      0    1.72e+00    0    1.21e+00
2006 10 17  0910    54025   33000      0    1.70e+00    0    1.20e+00
2006 10 17  0915    54025   33300      0    1.72e+00    0    1.20e+00
2006 10 17  0920    54025   33600      0    1.75e+00    0    1.21e+00
2006 10 17  0925    54025   33900      0    1.68e+00    0    1.16e+00
2006 10 17  0930    54025   34200      0    1.73e+00    0    1.22e+00
2006 10 17  0935    54025   34500      0    1.71e+00    0    1.20e+00
2006 10 17  0940    54025   34800      0    1.68e+00    0    1.19e+00
2006 10 17  0945    54025   35100      0    1.68e+00    0    1.17e+00
2006 10 17  0950    54025   35400      0    1.72e+00    0    1.21e+00
2006 10 17  0955    54025   35700      0    1.72e+00    0    1.19e+00
2006 10 17  1000    54025   36000      0    1.76e+00    0    1.24e+00
2006 10 17  1005    54025   36300      0    1.72e+00    0    1.20e+00
2006 10 17  1010    54025   36600      0    1.69e+00    0    1.17e+00
2006 10 17  1015    54025   36900      0    1.72e+00    0    1.20e+00
2006 10 17  1020    54025   37200      0    1.73e+00    0    1.21e+00
2006 10 17  1025    54025   37500      0    1.68e+00    0    1.17e+00
2006 10 17  1030    54025   37800      0    1.76e+00    0    1.23e+00
2006 10 17  1035    54025   38100      0    1.71e+00    0    1.20e+00
2006 10 17  1040    54025   38400      0    1.71e+00    0    1.20e+00
2006 10 17  1045    54025   38700      0    1.72e+00    0    1.21e+00
2006 10 17  1050    54025   39000      0    1.72e+00    0    1.21e+00
2006 10 17  1055    54025   39300      0    1.71e+00    0    1.20e+00
2006 10 17  1100    54025   39600      0    1.71e+00    0    1.21e+00
2006 10 17  1105    54025   39900      0    1.72e+00    0    1.20e+00
2006 10 17  1110    54025   40200      0    1.73e+00    0    1.21e+00
2006 10 17  1115    54025   40500      0    1.71e+00    0    1.19e+00
2006 10 17  1120    54025   40800      0    1.68e+00    0    1.17e+00
2006 10 17  1125    54025   41100      0    1.67e+00    0    1.17e+00
2006 10 17  1130    54025   41400      0    1.69e+00    0    1.18e+00
2006 10 17  1135    54025   41700      0    1.71e+00    0    1.20e+00
2006 10 17  1140    54025   42000      0    1.72e+00    0    1.20e+00
2006 10 17  1145    54025   42300      0    1.73e+00    0    1.21e+00
2006 10 17  1150    54025   42600      0    1.70e+00    0    1.18e+00
2006 10 17  1155    54025   42900      0    1.71e+00    0    1.20e+00
2006 10 17  1200    54025   43200      0    1.70e+00    0    1.20e+00
2006 10 17  1205    54025   43500      0    1.73e+00    0    1.20e+00
2006 10 17  1210    54025   43800      0    1.71e+00    0    1.20e+00
2006 10 17  1215    54025   44100      0    1.72e+00    0    1.21e+00
2006 10 17  1220    54025   44400      0    1.74e+00    0    1.23e+00
2006 10 17  1225    54025   44700      0    1.73e+00    0    1.21e+00
2006 10 17  1230    54025   45000      0    1.74e+00    0    1.21e+00
2006 10 17  1235    54025   45300      0    1.71e+00    0    1.17e+00
2006 10 17  1240    54025   45600      0    1.71e+00    0    1.18e+00
2006 10 17  1245    54025   45900      0    1.71e+00    0    1.19e+00
2006 10 17  1250    54025   46200      0    1.73e+00    0    1.22e+00
2006 10 17  1255    54025   46500      0    1.74e+00    0    1.21e+00
2006 10 17  1300    54025   46800      0    1.71e+00    0    1.19e+00
2006 10 17  1305    54025   47100      0    1.74e+00    0    1.23e+00
2006 10 17  1310    54025   47400      0    1.67e+00    0    1.18e+00
2006 10 17  1315    54025   47700      0    1.74e+00    0    1.22e+00
2006 10 17  1320    54025   48000      0    1.71e+00    0    1.19e+00
2006 10 17  1325    54025   48300      0    1.75e+00    0    1.22e+00
2006 10 17  1330    54025   48600      0    1.73e+00    0    1.21e+00
2006 10 17  1335    54025   48900      0    1.70e+00    0    1.18e+00
2006 10 17  1340    54025   49200      0    1.71e+00    0    1.21e+00
2006 10 17  1345    54025   49500      0    1.73e+00    0    1.22e+00
2006 10 17  1350    54025   49800      0    1.70e+00    0    1.21e+00
2006 10 17  1355    54025   50100      0    1.75e+00    0    1.23e+00
2006 10 17  1400    54025   50400      0    1.74e+00    0    1.22e+00
2006 10 17  1405    54025   50700      0    1.69e+00    0    1.17e+00
2006 10 17  1410    54025   51000      0    1.70e+00    0    1.20e+00
2006 10 17  1415    54025   51300      0    1.72e+00    0    1.21e+00
2006 10 17  1420    54025   51600      0    1.69e+00    0    1.17e+00
2006 10 17  1425    54025   51900      0    1.71e+00    0    1.20e+00
2006 10 17  1430    54025   52200      0    1.76e+00    0    1.23e+00
2006 10 17  1435    54025   52500      0    1.74e+00    0    1.21e+00
2006 10 17  1440    54025   52800      0    1.75e+00    0    1.23e+00
2006 10 17  1445    54025   53100      0    1.74e+00    0    1.23e+00
2006 10 17  1450    54025   53400      0    1.69e+00    0    1.18e+00
2006 10 17  1455    54025   53700      0    1.74e+00    0    1.22e+00
2006 10 17  1500    54025   54000      0    1.73e+00    0    1.21e+00
2006 10 17  1505    54025   54300      0    1.72e+00    0    1.21e+00
2006 10 17  1510    54025   54600      0    1.74e+00    0    1.22e+00
2006 10 17  1515    54025   54900      0    1.76e+00    0    1.23e+00
2006 10 17  1520    54025   55200      0    1.74e+00    0    1.23e+00
2006 10 17  1525    54025   55500      0    1.72e+00    0    1.21e+00
2006 10 17  1530    54025   55800      0    1.72e+00    0    1.20e+00
2006 10 17  1535    54025   56100      0    1.71e+00    0    1.21e+00
2006 10 17  1540    54025   56400      0    1.74e+00    0    1.22e+00
2006 10 17  1545    54025   56700      0    1.71e+00    0    1.20e+00
2006 10 17  1550    54025   57000      0    1.75e+00    0    1.22e+00
2006 10 17  1555    54025   57300      0    1.70e+00    0    1.19e+00
2006 10 17  1600    54025   57600      0    1.73e+00    0    1.22e+00
2006 10 17  1605    54025   57900      0    1.71e+00    0    1.20e+00
2006 10 17  1610    54025   58200      9   -1.00e+05    9   -1.00e+05
2006 10 17  1615    54025   58500      9   -1.00e+05    9   -1.00e+05
2006 10 17  1620    54025   58800      9   -1.00e+05    9   -1.00e+05
2006 10 17  1625    54025   59100      9   -1.00e+05    9   -1.00e+05
2006 10 17  1630    54025   59400      9   -1.00e+05    9   -1.00e+05
2006 10 17  1635    54025   59700      9   -1.00e+05    9   -1.00e+05
2006 10 17  1640    54025   60000      9   -1.00e+05    9   -1.00e+05
2006 10 17  1645    54025   60300      9   -1.00e+05    9   -1.00e+05
2006 10 17  1650    54025   60600      9   -1.00e+05    9   -1.00e+05
2006 10 17  1655    54025   60900      9   -1.00e+05    9   -1.00e+05
2006 10 17  1700    54025   61200      9   -1.00e+05    9   -1.00e+05
2006 10 17  1705    54025   61500      9   -1.00e+05    9   -1.00e+05
2006 10 17  1710    54025   61800      9   -1.00e+05    9   -1.00e+05
2006 10 17  1715    54025   62100      9   -1.00e+05    9   -1.00e+05
2006 10 17  1720    54025   62400      9   -1.00e+05    9   -1.00e+05
2006 10 17  1725    54025   62700      9   -1.00e+05    9   -1.00e+05
2006 10 17  1730    54025   63000      0    1.70e+00    0    1.18e+00
2006 10 17  1735    54025   63300      0    1.71e+00    0    1.20e+00
2006 10 17  1740    54025   63600      0    1.73e+00    0    1.20e+00
2006 10 17  1745    54025   63900      0    1.73e+00    0    1.22e+00
2006 10 17  1750    54025   64200      0    1.70e+00    0    1.18e+00
2006 10 17  1755    54025   64500      0    1.72e+00    0    1.20e+00
2006 10 17  1800    54025   64800      0    1.74e+00    0    1.22e+00
2006 10 17  1805    54025   65100      0    1.73e+00    0    1.22e+00
2006 10 17  1810    54025   65400      0    1.73e+00    0    1.21e+00
2006 10 17  1815    54025   65700      0    1.76e+00    0    1.23e+00
2006 10 17  1820    54025   66000      0    1.70e+00    0    1.19e+00
2006 10 17  1825    54025   66300      0    1.69e+00    0    1.19e+00
2006 10 17  1830    54025   66600      0    1.73e+00    0    1.21e+00
2006 10 17  1835    54025   66900      0    1.75e+00    0    1.24e+00
2006 10 17  1840    54025   67200      0    1.70e+00    0    1.19e+00
2006 10 17  1845    54025   67500      0    1.73e+00    0    1.22e+00
2006 10 17  1850    54025   67800      0    1.76e+00    0    1.25e+00
2006 10 17  1855    54025   68100      0    1.72e+00    0    1.21e+00
2006 10 17  1900    54025   68400      0    1.75e+00    0    1.22e+00
2006 10 17  1905    54025   68700      0    1.72e+00    0    1.21e+00
2006 10 17  1910    54025   69000      0    1.72e+00    0    1.20e+00
2006 10 17  1915    54025   69300      0    1.72e+00    0    1.21e+00
2006 10 17  1920    54025   69600      0    1.76e+00    0    1.24e+00
2006 10 17  1925    54025   69900      0    1.73e+00    0    1.21e+00
2006 10 17  1930    54025   70200      0    1.70e+00    0    1.18e+00
2006 10 17  1935    54025   70500      0    1.73e+00    0    1.21e+00
2006 10 17  1940    54025   70800      0    1.72e+00    0    1.20e+00
2006 10 17  1945    54025   71100      0    1.69e+00    0    1.18e+00
2006 10 17  1950    54025   71400      0    1.73e+00    0    1.21e+00
2006 10 17  1955    54025   71700      0    1.76e+00    0    1.23e+00
2006 10 17  2000    54025   72000      0    1.78e+00    0    1.26e+00
2006 10 17  2005    54025   72300      0    1.70e+00    0    1.19e+00
2006 10 17  2010    54025   72600      0    1.75e+00    0    1.23e+00
2006 10 17  2015    54025   72900      0    1.79e+00    0    1.26e+00
2006 10 17  2020    54025   73200      0    1.75e+00    0    1.24e+00
2006 10 17  2025    54025   73500      0    1.74e+00    0    1.21e+00
2006 10 17  2030    54025   73800      0    1.70e+00    0    1.19e+00
2006 10 17  2035    54025   74100      0    1.74e+00    0    1.22e+00
2006 10 17  2040    54025   74400      0    1.69e+00    0    1.18e+00
2006 10 17  2045    54025   74700      9   -1.00e+05    9   -1.00e+05
2006 10 17  2050    54025   75000      9   -1.00e+05    9   -1.00e+05
2006 10 17  2055    54025   75300      9   -1.00e+05    9   -1.00e+05
2006 10 17  2100    54025   75600      9   -1.00e+05    9   -1.00e+05
2006 10 17  2105    54025   75900      9   -1.00e+05    9   -1.00e+05
2006 10 17  2110    54025   76200      9   -1.00e+05    9   -1.00e+05
2006 10 17  2115    54025   76500      9   -1.00e+05    9   -1.00e+05
2006 10 17  2120    54025   76800      0    1.70e+00    0    1.19e+00
2006 10 17  2125    54025   77100      0    1.73e+00    0    1.21e+00
2006 10 17  2130    54025   77400      9   -1.00e+05    9   -1.00e+05
2006 10 17  2135    54025   77700      9   -1.00e+05    9   -1.00e+05
2006 10 17  2140    54025   78000      9   -1.00e+05    9   -1.00e+05
2006 10 17  2145    54025   78300      9   -1.00e+05    9   -1.00e+05
2006 10 17  2150    54025   78600      9   -1.00e+05    9   -1.00e+05
2006 10 17  2155    54025   78900      9   -1.00e+05    9   -1.00e+05
2006 10 17  2200    54025   79200      9   -1.00e+05    9   -1.00e+05
2006 10 17  2205    54025   79500      9   -1.00e+05    9   -1.00e+05
2006 10 17  2210    54025   79800      9   -1.00e+05    9   -1.00e+05
2006 10 17  2215    54025   80100      9   -1.00e+05    9   -1.00e+05
2006 10 17  2220    54025   80400      9   -1.00e+05    9   -1.00e+05
2006 10 17  2225    54025   80700      9   -1.00e+05    9   -1.00e+05
2006 10 17  2230    54025   81000      9   -1.00e+05    9   -1.00e+05
2006 10 17  2235    54025   81300      9   -1.00e+05    9   -1.00e+05
2006 10 17  2240    54025   81600      9   -1.00e+05    9   -1.00e+05
2006 10 17  2245    54025   81900      9   -1.00e+05    9   -1.00e+05
2006 10 17  2250    54025   82200      9   -1.00e+05    9   -1.00e+05
2006 10 17  2255    54025   82500      9   -1.00e+05    9   -1.00e+05
2006 10 17  2300    54025   82800      9   -1.00e+05    9   -1.00e+05
2006 10 17  2305    54025   83100      9   -1.00e+05    9   -1.00e+05
2006 10 17  2310    54025   83400      9   -1.00e+05    9   -1.00e+05
2006 10 17  2315    54025   83700      9   -1.00e+05    9   -1.00e+05
2006 10 17  2320    54025   84000      9   -1.00e+05    9   -1.00e+05
2006 10 17  2325    54025   84300      9   -1.00e+05    9   -1.00e+05
2006 10 17  2330    54025   84600      9   -1.00e+05    9   -1.00e+05
2006 10 17  2335    54025   84900      9   -1.00e+05    9   -1.00e+05
2006 10 17  2340    54025   85200      9   -1.00e+05    9   -1.00e+05
2006 10 17  2345    54025   85500      9   -1.00e+05    9   -1.00e+05
2006 10 17  2350    54025   85800      9   -1.00e+05    9   -1.00e+05
2006 10 17  2355    54025   86100      9   -1.00e+05    9   -1.00e+05
