:Data_list: 20061211_ace_sis_5m.txt
:Created: 2006 Dec 12 0011 UT
# Prepared by the U.S. Dept. of Commerce, NOAA, Space Environment Center.
# Please send comments and suggestions to SEC.Webmaster@noaa.gov 
# 
# Units: proton flux p/cs2-sec-ster
# Status(S): 0 = nominal data, 1 to 8 = bad data record, 9 = no data
# Missing data values: -1.00e+05
# Source: ACE Satellite - Solar Isotope Spectrometer
#
# 5-minute averaged Real-time Integral Flux of High-energy Solar Protons
# 
#                 Modified Seconds
# UT Date   Time   Julian  of the      ---- Integral Proton Flux ----
# YR MO DA  HHMM     Day     Day       S    > 10 MeV    S    > 30 MeV
#--------------------------------------------------------------------
2006 12 11  0000    54080       0      0    9.42e+01    0    1.27e+01
2006 12 11  0005    54080     300      0    9.45e+01    0    1.35e+01
2006 12 11  0010    54080     600      0    9.26e+01    0    1.24e+01
2006 12 11  0015    54080     900      0    9.39e+01    0    1.23e+01
2006 12 11  0020    54080    1200      0    9.35e+01    0    1.24e+01
2006 12 11  0025    54080    1500      0    9.49e+01    0    1.29e+01
2006 12 11  0030    54080    1800      0    9.34e+01    0    1.24e+01
2006 12 11  0035    54080    2100      0    9.50e+01    0    1.29e+01
2006 12 11  0040    54080    2400      0    9.19e+01    0    1.22e+01
2006 12 11  0045    54080    2700      0    9.31e+01    0    1.28e+01
2006 12 11  0050    54080    3000      0    9.19e+01    0    1.21e+01
2006 12 11  0055    54080    3300      0    9.14e+01    0    1.21e+01
2006 12 11  0100    54080    3600      0    9.04e+01    0    1.19e+01
2006 12 11  0105    54080    3900      0    8.98e+01    0    1.21e+01
2006 12 11  0110    54080    4200      0    8.87e+01    0    1.13e+01
2006 12 11  0115    54080    4500      0    8.95e+01    0    1.18e+01
2006 12 11  0120    54080    4800      0    8.86e+01    0    1.10e+01
2006 12 11  0125    54080    5100      0    8.75e+01    0    1.14e+01
2006 12 11  0130    54080    5400      0    8.82e+01    0    1.15e+01
2006 12 11  0135    54080    5700      0    8.73e+01    0    1.12e+01
2006 12 11  0140    54080    6000      0    8.59e+01    0    1.17e+01
2006 12 11  0145    54080    6300      0    8.69e+01    0    1.08e+01
2006 12 11  0150    54080    6600      0    8.75e+01    0    1.09e+01
2006 12 11  0155    54080    6900      0    8.79e+01    0    1.13e+01
2006 12 11  0200    54080    7200      0    8.88e+01    0    1.15e+01
2006 12 11  0205    54080    7500      0    8.84e+01    0    1.15e+01
2006 12 11  0210    54080    7800      0    8.86e+01    0    1.15e+01
2006 12 11  0215    54080    8100      0    8.91e+01    0    1.10e+01
2006 12 11  0220    54080    8400      0    8.86e+01    0    1.12e+01
2006 12 11  0225    54080    8700      0    8.88e+01    0    1.14e+01
2006 12 11  0230    54080    9000      0    8.89e+01    0    1.11e+01
2006 12 11  0235    54080    9300      0    8.80e+01    0    1.06e+01
2006 12 11  0240    54080    9600      0    8.77e+01    0    1.10e+01
2006 12 11  0245    54080    9900      0    8.75e+01    0    1.08e+01
2006 12 11  0250    54080   10200      0    8.59e+01    0    1.04e+01
2006 12 11  0255    54080   10500      0    8.59e+01    0    1.09e+01
2006 12 11  0300    54080   10800      0    8.53e+01    0    1.05e+01
2006 12 11  0305    54080   11100      0    8.58e+01    0    1.07e+01
2006 12 11  0310    54080   11400      0    8.77e+01    0    1.06e+01
2006 12 11  0315    54080   11700      0    8.81e+01    0    1.06e+01
2006 12 11  0320    54080   12000      0    8.68e+01    0    1.07e+01
2006 12 11  0325    54080   12300      0    8.58e+01    0    1.04e+01
2006 12 11  0330    54080   12600      0    8.57e+01    0    1.07e+01
2006 12 11  0335    54080   12900      0    8.51e+01    0    1.05e+01
2006 12 11  0340    54080   13200      0    8.76e+01    0    1.09e+01
2006 12 11  0345    54080   13500      0    8.72e+01    0    9.72e+00
2006 12 11  0350    54080   13800      0    8.98e+01    0    1.06e+01
2006 12 11  0355    54080   14100      0    8.89e+01    0    1.06e+01
2006 12 11  0400    54080   14400      0    8.87e+01    0    1.06e+01
2006 12 11  0405    54080   14700      0    8.52e+01    0    1.03e+01
2006 12 11  0410    54080   15000      0    8.71e+01    0    1.03e+01
2006 12 11  0415    54080   15300      0    8.58e+01    0    1.04e+01
2006 12 11  0420    54080   15600      0    8.60e+01    0    1.02e+01
2006 12 11  0425    54080   15900      0    8.54e+01    0    1.03e+01
2006 12 11  0430    54080   16200      0    8.41e+01    0    1.02e+01
2006 12 11  0435    54080   16500      0    8.25e+01    0    1.00e+01
2006 12 11  0440    54080   16800      0    8.30e+01    0    9.84e+00
2006 12 11  0445    54080   17100      0    8.38e+01    0    1.02e+01
2006 12 11  0450    54080   17400      0    8.35e+01    0    1.02e+01
2006 12 11  0455    54080   17700      0    8.25e+01    0    9.47e+00
2006 12 11  0500    54080   18000      0    8.38e+01    0    1.02e+01
2006 12 11  0505    54080   18300      0    8.49e+01    0    9.93e+00
2006 12 11  0510    54080   18600      0    8.63e+01    0    9.61e+00
2006 12 11  0515    54080   18900      0    8.78e+01    0    9.97e+00
2006 12 11  0520    54080   19200      0    8.36e+01    0    9.60e+00
2006 12 11  0525    54080   19500      0    8.39e+01    0    1.02e+01
2006 12 11  0530    54080   19800      0    8.64e+01    0    1.02e+01
2006 12 11  0535    54080   20100      0    8.50e+01    0    1.01e+01
2006 12 11  0540    54080   20400      0    8.38e+01    0    9.89e+00
2006 12 11  0545    54080   20700      0    8.16e+01    0    9.74e+00
2006 12 11  0550    54080   21000      0    7.91e+01    0    9.50e+00
2006 12 11  0555    54080   21300      0    7.94e+01    0    9.20e+00
2006 12 11  0600    54080   21600      0    7.87e+01    0    8.99e+00
2006 12 11  0605    54080   21900      0    7.70e+01    0    8.88e+00
2006 12 11  0610    54080   22200      0    7.68e+01    0    8.84e+00
2006 12 11  0615    54080   22500      0    7.55e+01    0    9.01e+00
2006 12 11  0620    54080   22800      0    7.53e+01    0    8.35e+00
2006 12 11  0625    54080   23100      0    7.59e+01    0    8.72e+00
2006 12 11  0630    54080   23400      0    7.52e+01    0    8.93e+00
2006 12 11  0635    54080   23700      0    7.56e+01    0    8.97e+00
2006 12 11  0640    54080   24000      0    7.43e+01    0    8.54e+00
2006 12 11  0645    54080   24300      0    7.42e+01    0    8.71e+00
2006 12 11  0650    54080   24600      0    7.33e+01    0    8.56e+00
2006 12 11  0655    54080   24900      0    7.48e+01    0    8.08e+00
2006 12 11  0700    54080   25200      0    7.25e+01    0    8.63e+00
2006 12 11  0705    54080   25500      0    7.22e+01    0    8.78e+00
2006 12 11  0710    54080   25800      0    7.13e+01    0    8.42e+00
2006 12 11  0715    54080   26100      0    7.17e+01    0    8.43e+00
2006 12 11  0720    54080   26400      0    7.19e+01    0    8.58e+00
2006 12 11  0725    54080   26700      0    7.09e+01    0    8.12e+00
2006 12 11  0730    54080   27000      0    7.16e+01    0    8.11e+00
2006 12 11  0735    54080   27300      0    6.98e+01    0    8.10e+00
2006 12 11  0740    54080   27600      0    6.90e+01    0    8.19e+00
2006 12 11  0745    54080   27900      0    6.76e+01    0    7.74e+00
2006 12 11  0750    54080   28200      0    6.78e+01    0    8.16e+00
2006 12 11  0755    54080   28500      0    6.80e+01    0    7.70e+00
2006 12 11  0800    54080   28800      0    6.79e+01    0    8.11e+00
2006 12 11  0805    54080   29100      0    6.87e+01    0    7.90e+00
2006 12 11  0810    54080   29400      0    6.79e+01    0    7.71e+00
2006 12 11  0815    54080   29700      0    6.71e+01    0    7.77e+00
2006 12 11  0820    54080   30000      0    6.71e+01    0    8.03e+00
2006 12 11  0825    54080   30300      0    6.65e+01    0    8.03e+00
2006 12 11  0830    54080   30600      0    6.62e+01    0    7.39e+00
2006 12 11  0835    54080   30900      0    6.55e+01    0    7.77e+00
2006 12 11  0840    54080   31200      0    6.51e+01    0    7.81e+00
2006 12 11  0845    54080   31500      0    6.54e+01    0    7.39e+00
2006 12 11  0850    54080   31800      0    6.50e+01    0    7.29e+00
2006 12 11  0855    54080   32100      0    6.50e+01    0    7.74e+00
2006 12 11  0900    54080   32400      0    6.48e+01    0    7.29e+00
2006 12 11  0905    54080   32700      0    6.47e+01    0    7.34e+00
2006 12 11  0910    54080   33000      0    6.49e+01    0    7.38e+00
2006 12 11  0915    54080   33300      0    6.39e+01    0    7.37e+00
2006 12 11  0920    54080   33600      0    6.34e+01    0    7.38e+00
2006 12 11  0925    54080   33900      0    6.48e+01    0    7.64e+00
2006 12 11  0930    54080   34200      0    6.45e+01    0    7.28e+00
2006 12 11  0935    54080   34500      0    6.43e+01    0    7.19e+00
2006 12 11  0940    54080   34800      0    6.40e+01    0    7.30e+00
2006 12 11  0945    54080   35100      0    6.33e+01    0    7.06e+00
2006 12 11  0950    54080   35400      0    6.26e+01    0    6.86e+00
2006 12 11  0955    54080   35700      0    6.28e+01    0    7.07e+00
2006 12 11  1000    54080   36000      0    6.35e+01    0    7.11e+00
2006 12 11  1005    54080   36300      0    6.28e+01    0    6.89e+00
2006 12 11  1010    54080   36600      0    6.19e+01    0    6.85e+00
2006 12 11  1015    54080   36900      0    6.25e+01    0    7.23e+00
2006 12 11  1020    54080   37200      0    6.35e+01    0    6.93e+00
2006 12 11  1025    54080   37500      0    6.28e+01    0    7.01e+00
2006 12 11  1030    54080   37800      0    6.35e+01    0    7.40e+00
2006 12 11  1035    54080   38100      0    6.33e+01    0    7.12e+00
2006 12 11  1040    54080   38400      0    6.19e+01    0    7.09e+00
2006 12 11  1045    54080   38700      0    6.04e+01    0    6.68e+00
2006 12 11  1050    54080   39000      0    6.17e+01    0    7.24e+00
2006 12 11  1055    54080   39300      0    6.17e+01    0    7.28e+00
2006 12 11  1100    54080   39600      0    6.15e+01    0    6.82e+00
2006 12 11  1105    54080   39900      0    6.16e+01    0    7.01e+00
2006 12 11  1110    54080   40200      0    6.06e+01    0    6.59e+00
2006 12 11  1115    54080   40500      0    6.09e+01    0    6.75e+00
2006 12 11  1120    54080   40800      0    6.07e+01    0    6.79e+00
2006 12 11  1125    54080   41100      0    6.16e+01    0    6.53e+00
2006 12 11  1130    54080   41400      0    6.22e+01    0    7.07e+00
2006 12 11  1135    54080   41700      0    6.31e+01    0    6.76e+00
2006 12 11  1140    54080   42000      0    6.23e+01    0    6.96e+00
2006 12 11  1145    54080   42300      0    6.07e+01    0    6.56e+00
2006 12 11  1150    54080   42600      0    6.07e+01    0    6.77e+00
2006 12 11  1155    54080   42900      0    5.87e+01    0    6.15e+00
2006 12 11  1200    54080   43200      0    5.89e+01    0    6.56e+00
2006 12 11  1205    54080   43500      0    5.83e+01    0    6.45e+00
2006 12 11  1210    54080   43800      0    5.85e+01    0    6.27e+00
2006 12 11  1215    54080   44100      0    5.98e+01    0    6.77e+00
2006 12 11  1220    54080   44400      0    5.90e+01    0    6.95e+00
2006 12 11  1225    54080   44700      0    5.91e+01    0    6.47e+00
2006 12 11  1230    54080   45000      0    5.87e+01    0    6.24e+00
2006 12 11  1235    54080   45300      0    5.76e+01    0    6.17e+00
2006 12 11  1240    54080   45600      0    5.67e+01    0    6.16e+00
2006 12 11  1245    54080   45900      0    5.70e+01    0    6.54e+00
2006 12 11  1250    54080   46200      0    5.61e+01    0    6.25e+00
2006 12 11  1255    54080   46500      0    5.67e+01    0    6.40e+00
2006 12 11  1300    54080   46800      0    5.68e+01    0    6.41e+00
2006 12 11  1305    54080   47100      0    5.68e+01    0    6.19e+00
2006 12 11  1310    54080   47400      0    5.76e+01    0    6.52e+00
2006 12 11  1315    54080   47700      0    5.68e+01    0    6.21e+00
2006 12 11  1320    54080   48000      0    5.72e+01    0    6.34e+00
2006 12 11  1325    54080   48300      0    5.71e+01    0    6.11e+00
2006 12 11  1330    54080   48600      0    5.76e+01    0    6.18e+00
2006 12 11  1335    54080   48900      0    5.68e+01    0    6.20e+00
2006 12 11  1340    54080   49200      0    5.61e+01    0    6.15e+00
2006 12 11  1345    54080   49500      0    5.58e+01    0    5.83e+00
2006 12 11  1350    54080   49800      0    5.55e+01    0    5.68e+00
2006 12 11  1355    54080   50100      0    5.57e+01    0    5.90e+00
2006 12 11  1400    54080   50400      0    5.58e+01    0    5.58e+00
2006 12 11  1405    54080   50700      0    5.56e+01    0    5.99e+00
2006 12 11  1410    54080   51000      0    5.52e+01    0    5.74e+00
2006 12 11  1415    54080   51300      0    5.49e+01    0    5.73e+00
2006 12 11  1420    54080   51600      0    5.45e+01    0    5.62e+00
2006 12 11  1425    54080   51900      0    5.43e+01    0    6.05e+00
2006 12 11  1430    54080   52200      0    5.53e+01    0    6.01e+00
2006 12 11  1435    54080   52500      0    5.47e+01    0    5.83e+00
2006 12 11  1440    54080   52800      0    5.47e+01    0    5.91e+00
2006 12 11  1445    54080   53100      0    5.42e+01    0    5.68e+00
2006 12 11  1450    54080   53400      0    5.51e+01    0    5.67e+00
2006 12 11  1455    54080   53700      0    5.55e+01    0    5.50e+00
2006 12 11  1500    54080   54000      0    5.53e+01    0    6.17e+00
2006 12 11  1505    54080   54300      0    5.52e+01    0    6.12e+00
2006 12 11  1510    54080   54600      0    5.36e+01    0    5.69e+00
2006 12 11  1515    54080   54900      0    5.24e+01    0    5.75e+00
2006 12 11  1520    54080   55200      0    5.36e+01    0    5.84e+00
2006 12 11  1525    54080   55500      0    5.35e+01    0    5.50e+00
2006 12 11  1530    54080   55800      0    5.27e+01    0    5.36e+00
2006 12 11  1535    54080   56100      0    5.27e+01    0    5.78e+00
2006 12 11  1540    54080   56400      0    5.19e+01    0    5.38e+00
2006 12 11  1545    54080   56700      0    5.14e+01    0    5.46e+00
2006 12 11  1550    54080   57000      0    5.00e+01    0    5.15e+00
2006 12 11  1555    54080   57300      0    4.98e+01    0    5.32e+00
2006 12 11  1600    54080   57600      0    4.92e+01    0    5.33e+00
2006 12 11  1605    54080   57900      0    4.93e+01    0    5.32e+00
2006 12 11  1610    54080   58200      0    5.00e+01    0    5.33e+00
2006 12 11  1615    54080   58500      0    4.88e+01    0    5.16e+00
2006 12 11  1620    54080   58800      0    4.91e+01    0    5.10e+00
2006 12 11  1625    54080   59100      0    4.81e+01    0    4.91e+00
2006 12 11  1630    54080   59400      0    4.80e+01    0    5.12e+00
2006 12 11  1635    54080   59700      0    4.86e+01    0    5.25e+00
2006 12 11  1640    54080   60000      0    4.89e+01    0    5.38e+00
2006 12 11  1645    54080   60300      0    4.81e+01    0    4.97e+00
2006 12 11  1650    54080   60600      0    4.77e+01    0    5.14e+00
2006 12 11  1655    54080   60900      0    4.73e+01    0    5.18e+00
2006 12 11  1700    54080   61200      0    4.76e+01    0    5.26e+00
2006 12 11  1705    54080   61500      0    4.75e+01    0    4.97e+00
2006 12 11  1710    54080   61800      0    4.71e+01    0    5.00e+00
2006 12 11  1715    54080   62100      0    4.70e+01    0    5.08e+00
2006 12 11  1720    54080   62400      0    4.72e+01    0    4.95e+00
2006 12 11  1725    54080   62700      0    4.73e+01    0    5.14e+00
2006 12 11  1730    54080   63000      0    4.55e+01    0    4.75e+00
2006 12 11  1735    54080   63300      0    4.61e+01    0    4.92e+00
2006 12 11  1740    54080   63600      0    4.64e+01    0    4.71e+00
2006 12 11  1745    54080   63900      0    4.52e+01    0    4.84e+00
2006 12 11  1750    54080   64200      0    4.48e+01    0    4.88e+00
2006 12 11  1755    54080   64500      0    4.37e+01    0    4.85e+00
2006 12 11  1800    54080   64800      0    4.47e+01    0    4.87e+00
2006 12 11  1805    54080   65100      0    4.36e+01    0    4.85e+00
2006 12 11  1810    54080   65400      0    4.38e+01    0    4.75e+00
2006 12 11  1815    54080   65700      0    4.35e+01    0    4.86e+00
2006 12 11  1820    54080   66000      0    4.33e+01    0    4.59e+00
2006 12 11  1825    54080   66300      0    4.26e+01    0    4.54e+00
2006 12 11  1830    54080   66600      0    4.29e+01    0    4.53e+00
2006 12 11  1835    54080   66900      0    4.17e+01    0    4.56e+00
2006 12 11  1840    54080   67200      0    4.18e+01    0    4.52e+00
2006 12 11  1845    54080   67500      0    4.14e+01    0    4.40e+00
2006 12 11  1850    54080   67800      0    4.16e+01    0    4.62e+00
2006 12 11  1855    54080   68100      0    4.18e+01    0    4.34e+00
2006 12 11  1900    54080   68400      0    4.19e+01    0    4.39e+00
2006 12 11  1905    54080   68700      0    4.18e+01    0    4.49e+00
2006 12 11  1910    54080   69000      0    4.15e+01    0    4.74e+00
2006 12 11  1915    54080   69300      0    4.08e+01    0    4.50e+00
2006 12 11  1920    54080   69600      0    3.88e+01    0    3.98e+00
2006 12 11  1925    54080   69900      0    3.88e+01    0    4.04e+00
2006 12 11  1930    54080   70200      0    3.94e+01    0    4.56e+00
2006 12 11  1935    54080   70500      0    3.90e+01    0    4.23e+00
2006 12 11  1940    54080   70800      0    3.90e+01    0    4.33e+00
2006 12 11  1945    54080   71100      0    3.86e+01    0    4.27e+00
2006 12 11  1950    54080   71400      0    3.84e+01    0    4.23e+00
2006 12 11  1955    54080   71700      0    3.86e+01    0    4.20e+00
2006 12 11  2000    54080   72000      0    3.82e+01    0    4.37e+00
2006 12 11  2005    54080   72300      0    3.83e+01    0    4.12e+00
2006 12 11  2010    54080   72600      0    3.66e+01    0    3.93e+00
2006 12 11  2015    54080   72900      0    3.66e+01    0    4.10e+00
2006 12 11  2020    54080   73200      0    3.66e+01    0    4.00e+00
2006 12 11  2025    54080   73500      0    3.63e+01    0    4.07e+00
2006 12 11  2030    54080   73800      0    3.62e+01    0    4.03e+00
2006 12 11  2035    54080   74100      0    3.60e+01    0    4.06e+00
2006 12 11  2040    54080   74400      0    3.58e+01    0    4.06e+00
2006 12 11  2045    54080   74700      0    3.65e+01    0    4.19e+00
2006 12 11  2050    54080   75000      0    3.60e+01    0    4.10e+00
2006 12 11  2055    54080   75300      0    3.60e+01    0    3.85e+00
2006 12 11  2100    54080   75600      0    3.60e+01    0    4.01e+00
2006 12 11  2105    54080   75900      0    3.55e+01    0    3.90e+00
2006 12 11  2110    54080   76200      0    3.56e+01    0    4.06e+00
2006 12 11  2115    54080   76500      0    3.49e+01    0    3.99e+00
2006 12 11  2120    54080   76800      0    3.53e+01    0    3.84e+00
2006 12 11  2125    54080   77100      0    3.48e+01    0    3.85e+00
2006 12 11  2130    54080   77400      0    3.44e+01    0    3.68e+00
2006 12 11  2135    54080   77700      0    3.46e+01    0    3.88e+00
2006 12 11  2140    54080   78000      0    3.49e+01    0    3.94e+00
2006 12 11  2145    54080   78300      0    3.47e+01    0    3.73e+00
2006 12 11  2150    54080   78600      0    3.44e+01    0    3.79e+00
2006 12 11  2155    54080   78900      0    3.45e+01    0    3.89e+00
2006 12 11  2200    54080   79200      0    3.42e+01    0    3.85e+00
2006 12 11  2205    54080   79500      0    3.40e+01    0    3.77e+00
2006 12 11  2210    54080   79800      0    3.40e+01    0    3.89e+00
2006 12 11  2215    54080   80100      0    3.41e+01    0    3.83e+00
2006 12 11  2220    54080   80400      0    3.35e+01    0    3.75e+00
2006 12 11  2225    54080   80700      0    3.37e+01    0    3.85e+00
2006 12 11  2230    54080   81000      0    3.41e+01    0    4.03e+00
2006 12 11  2235    54080   81300      0    3.36e+01    0    3.75e+00
2006 12 11  2240    54080   81600      0    3.36e+01    0    3.68e+00
2006 12 11  2245    54080   81900      0    3.32e+01    0    3.60e+00
2006 12 11  2250    54080   82200      0    3.32e+01    0    3.84e+00
2006 12 11  2255    54080   82500      0    3.31e+01    0    3.78e+00
2006 12 11  2300    54080   82800      0    3.23e+01    0    3.58e+00
2006 12 11  2305    54080   83100      0    3.34e+01    0    3.69e+00
2006 12 11  2310    54080   83400      0    3.29e+01    0    3.57e+00
2006 12 11  2315    54080   83700      0    3.38e+01    0    3.82e+00
2006 12 11  2320    54080   84000      0    3.29e+01    0    3.53e+00
2006 12 11  2325    54080   84300      0    3.25e+01    0    3.63e+00
2006 12 11  2330    54080   84600      0    3.25e+01    0    3.65e+00
2006 12 11  2335    54080   84900      0    3.28e+01    0    3.64e+00
2006 12 11  2340    54080   85200      0    3.24e+01    0    3.60e+00
2006 12 11  2345    54080   85500      0    3.27e+01    0    3.73e+00
2006 12 11  2350    54080   85800      0    3.20e+01    0    3.72e+00
2006 12 11  2355    54080   86100      0    3.22e+01    0    3.62e+00
