:Data_list: 20060216_ace_sis_5m.txt
:Created: 2006 Feb 17 0011 UT
# Prepared by the U.S. Dept. of Commerce, NOAA, Space Environment Center.
# Please send comments and suggestions to SEC.Webmaster@noaa.gov 
# 
# Units: proton flux p/cs2-sec-ster
# Status(S): 0 = nominal data, 1 to 8 = bad data record, 9 = no data
# Missing data values: -1.00e+05
# Source: ACE Satellite - Solar Isotope Spectrometer
#
# 5-minute averaged Real-time Integral Flux of High-energy Solar Protons
# 
#                 Modified Seconds
# UT Date   Time   Julian  of the      ---- Integral Proton Flux ----
# YR MO DA  HHMM     Day     Day       S    > 10 MeV    S    > 30 MeV
#--------------------------------------------------------------------
2006 02 16  0000    53782       0      0    1.46e+00    0    1.02e+00
2006 02 16  0005    53782     300      0    1.46e+00    0    1.03e+00
2006 02 16  0010    53782     600      0    1.47e+00    0    1.04e+00
2006 02 16  0015    53782     900      0    1.46e+00    0    1.02e+00
2006 02 16  0020    53782    1200      0    1.44e+00    0    1.01e+00
2006 02 16  0025    53782    1500      0    1.47e+00    0    1.03e+00
2006 02 16  0030    53782    1800      0    1.42e+00    0    9.91e-01
2006 02 16  0035    53782    2100      0    1.45e+00    0    1.02e+00
2006 02 16  0040    53782    2400      0    1.49e+00    0    1.05e+00
2006 02 16  0045    53782    2700      0    1.43e+00    0    1.01e+00
2006 02 16  0050    53782    3000      0    1.44e+00    0    1.02e+00
2006 02 16  0055    53782    3300      0    1.47e+00    0    1.03e+00
2006 02 16  0100    53782    3600      0    1.45e+00    0    1.02e+00
2006 02 16  0105    53782    3900      0    1.45e+00    0    1.02e+00
2006 02 16  0110    53782    4200      0    1.43e+00    0    9.93e-01
2006 02 16  0115    53782    4500      0    1.44e+00    0    1.02e+00
2006 02 16  0120    53782    4800      0    1.45e+00    0    1.02e+00
2006 02 16  0125    53782    5100      0    1.46e+00    0    1.02e+00
2006 02 16  0130    53782    5400      0    1.49e+00    0    1.05e+00
2006 02 16  0135    53782    5700      0    1.45e+00    0    1.02e+00
2006 02 16  0140    53782    6000      0    1.47e+00    0    1.03e+00
2006 02 16  0145    53782    6300      0    1.49e+00    0    1.05e+00
2006 02 16  0150    53782    6600      0    1.47e+00    0    1.02e+00
2006 02 16  0155    53782    6900      0    1.47e+00    0    1.04e+00
2006 02 16  0200    53782    7200      0    1.46e+00    0    1.02e+00
2006 02 16  0205    53782    7500      0    1.49e+00    0    1.05e+00
2006 02 16  0210    53782    7800      0    1.49e+00    0    1.05e+00
2006 02 16  0215    53782    8100      0    1.48e+00    0    1.03e+00
2006 02 16  0220    53782    8400      0    1.47e+00    0    1.03e+00
2006 02 16  0225    53782    8700      0    1.42e+00    0    1.01e+00
2006 02 16  0230    53782    9000      0    1.44e+00    0    1.00e+00
2006 02 16  0235    53782    9300      0    1.40e+00    0    9.77e-01
2006 02 16  0240    53782    9600      0    1.44e+00    0    1.01e+00
2006 02 16  0245    53782    9900      0    1.47e+00    0    1.03e+00
2006 02 16  0250    53782   10200      0    1.45e+00    0    1.02e+00
2006 02 16  0255    53782   10500      0    1.46e+00    0    1.03e+00
2006 02 16  0300    53782   10800      0    1.42e+00    0    1.00e+00
2006 02 16  0305    53782   11100      9   -1.00e+05    9   -1.00e+05
2006 02 16  0310    53782   11400      9   -1.00e+05    9   -1.00e+05
2006 02 16  0315    53782   11700      9   -1.00e+05    9   -1.00e+05
2006 02 16  0320    53782   12000      0    1.52e+00    0    1.10e+00
2006 02 16  0325    53782   12300      0    1.41e+00    0    9.89e-01
2006 02 16  0330    53782   12600      0    1.45e+00    0    1.01e+00
2006 02 16  0335    53782   12900      0    1.47e+00    0    1.02e+00
2006 02 16  0340    53782   13200      0    1.48e+00    0    1.05e+00
2006 02 16  0345    53782   13500      0    1.43e+00    0    9.93e-01
2006 02 16  0350    53782   13800      0    1.47e+00    0    1.04e+00
2006 02 16  0355    53782   14100      0    1.48e+00    0    1.02e+00
2006 02 16  0400    53782   14400      0    1.45e+00    0    1.02e+00
2006 02 16  0405    53782   14700      0    1.45e+00    0    1.02e+00
2006 02 16  0410    53782   15000      0    1.46e+00    0    1.03e+00
2006 02 16  0415    53782   15300      0    1.47e+00    0    1.03e+00
2006 02 16  0420    53782   15600      0    1.47e+00    0    1.02e+00
2006 02 16  0425    53782   15900      0    1.45e+00    0    1.02e+00
2006 02 16  0430    53782   16200      0    1.48e+00    0    1.04e+00
2006 02 16  0435    53782   16500      0    1.46e+00    0    1.03e+00
2006 02 16  0440    53782   16800      0    1.49e+00    0    1.04e+00
2006 02 16  0445    53782   17100      0    1.47e+00    0    1.03e+00
2006 02 16  0450    53782   17400      0    1.48e+00    0    1.03e+00
2006 02 16  0455    53782   17700      0    1.46e+00    0    1.01e+00
2006 02 16  0500    53782   18000      0    1.48e+00    0    1.04e+00
2006 02 16  0505    53782   18300      0    1.45e+00    0    1.02e+00
2006 02 16  0510    53782   18600      0    1.47e+00    0    1.04e+00
2006 02 16  0515    53782   18900      0    1.46e+00    0    1.02e+00
2006 02 16  0520    53782   19200      0    1.46e+00    0    1.03e+00
2006 02 16  0525    53782   19500      0    1.46e+00    0    1.02e+00
2006 02 16  0530    53782   19800      0    1.46e+00    0    1.02e+00
2006 02 16  0535    53782   20100      0    1.51e+00    0    1.06e+00
2006 02 16  0540    53782   20400      0    1.46e+00    0    1.02e+00
2006 02 16  0545    53782   20700      0    1.47e+00    0    1.03e+00
2006 02 16  0550    53782   21000      0    1.45e+00    0    1.01e+00
2006 02 16  0555    53782   21300      9   -1.00e+05    9   -1.00e+05
2006 02 16  0600    53782   21600      9   -1.00e+05    9   -1.00e+05
2006 02 16  0605    53782   21900      9   -1.00e+05    9   -1.00e+05
2006 02 16  0610    53782   22200      9   -1.00e+05    9   -1.00e+05
2006 02 16  0615    53782   22500      9   -1.00e+05    9   -1.00e+05
2006 02 16  0620    53782   22800      9   -1.00e+05    9   -1.00e+05
2006 02 16  0625    53782   23100      9   -1.00e+05    9   -1.00e+05
2006 02 16  0630    53782   23400      9   -1.00e+05    9   -1.00e+05
2006 02 16  0635    53782   23700      9   -1.00e+05    9   -1.00e+05
2006 02 16  0640    53782   24000      9   -1.00e+05    9   -1.00e+05
2006 02 16  0645    53782   24300      9   -1.00e+05    9   -1.00e+05
2006 02 16  0650    53782   24600      9   -1.00e+05    9   -1.00e+05
2006 02 16  0655    53782   24900      9   -1.00e+05    9   -1.00e+05
2006 02 16  0700    53782   25200      9   -1.00e+05    9   -1.00e+05
2006 02 16  0705    53782   25500      9   -1.00e+05    9   -1.00e+05
2006 02 16  0710    53782   25800      9   -1.00e+05    9   -1.00e+05
2006 02 16  0715    53782   26100      9   -1.00e+05    9   -1.00e+05
2006 02 16  0720    53782   26400      0    1.50e+00    0    1.04e+00
2006 02 16  0725    53782   26700      0    1.45e+00    0    1.02e+00
2006 02 16  0730    53782   27000      0    1.49e+00    0    1.06e+00
2006 02 16  0735    53782   27300      0    1.47e+00    0    1.03e+00
2006 02 16  0740    53782   27600      0    1.48e+00    0    1.04e+00
2006 02 16  0745    53782   27900      0    1.48e+00    0    1.04e+00
2006 02 16  0750    53782   28200      0    1.51e+00    0    1.06e+00
2006 02 16  0755    53782   28500      0    1.44e+00    0    1.00e+00
2006 02 16  0800    53782   28800      0    1.46e+00    0    1.02e+00
2006 02 16  0805    53782   29100      0    1.47e+00    0    1.04e+00
2006 02 16  0810    53782   29400      0    1.46e+00    0    1.03e+00
2006 02 16  0815    53782   29700      0    1.47e+00    0    1.03e+00
2006 02 16  0820    53782   30000      0    1.49e+00    0    1.03e+00
2006 02 16  0825    53782   30300      0    1.48e+00    0    1.04e+00
2006 02 16  0830    53782   30600      0    1.47e+00    0    1.03e+00
2006 02 16  0835    53782   30900      0    1.45e+00    0    1.02e+00
2006 02 16  0840    53782   31200      0    1.44e+00    0    1.01e+00
2006 02 16  0845    53782   31500      0    1.44e+00    0    1.00e+00
2006 02 16  0850    53782   31800      0    1.46e+00    0    1.02e+00
2006 02 16  0855    53782   32100      0    1.49e+00    0    1.06e+00
2006 02 16  0900    53782   32400      0    1.46e+00    0    1.02e+00
2006 02 16  0905    53782   32700      0    1.40e+00    0    9.89e-01
2006 02 16  0910    53782   33000      0    1.49e+00    0    1.04e+00
2006 02 16  0915    53782   33300      0    1.51e+00    0    1.06e+00
2006 02 16  0920    53782   33600      0    1.49e+00    0    1.03e+00
2006 02 16  0925    53782   33900      0    1.50e+00    0    1.07e+00
2006 02 16  0930    53782   34200      0    1.49e+00    0    1.03e+00
2006 02 16  0935    53782   34500      0    1.48e+00    0    1.04e+00
2006 02 16  0940    53782   34800      0    1.44e+00    0    1.02e+00
2006 02 16  0945    53782   35100      0    1.45e+00    0    1.03e+00
2006 02 16  0950    53782   35400      0    1.46e+00    0    1.02e+00
2006 02 16  0955    53782   35700      0    1.46e+00    0    1.02e+00
2006 02 16  1000    53782   36000      0    1.46e+00    0    1.03e+00
2006 02 16  1005    53782   36300      0    1.47e+00    0    1.04e+00
2006 02 16  1010    53782   36600      0    1.48e+00    0    1.04e+00
2006 02 16  1015    53782   36900      0    1.49e+00    0    1.04e+00
2006 02 16  1020    53782   37200      0    1.46e+00    0    1.03e+00
2006 02 16  1025    53782   37500      0    1.49e+00    0    1.04e+00
2006 02 16  1030    53782   37800      0    1.49e+00    0    1.04e+00
2006 02 16  1035    53782   38100      0    1.46e+00    0    1.02e+00
2006 02 16  1040    53782   38400      0    1.43e+00    0    1.01e+00
2006 02 16  1045    53782   38700      0    1.47e+00    0    1.02e+00
2006 02 16  1050    53782   39000      0    1.45e+00    0    1.02e+00
2006 02 16  1055    53782   39300      0    1.48e+00    0    1.04e+00
2006 02 16  1100    53782   39600      0    1.50e+00    0    1.05e+00
2006 02 16  1105    53782   39900      0    1.46e+00    0    1.03e+00
2006 02 16  1110    53782   40200      0    1.44e+00    0    1.01e+00
2006 02 16  1115    53782   40500      0    1.47e+00    0    1.02e+00
2006 02 16  1120    53782   40800      0    1.45e+00    0    1.02e+00
2006 02 16  1125    53782   41100      0    1.47e+00    0    1.05e+00
2006 02 16  1130    53782   41400      0    1.49e+00    0    1.04e+00
2006 02 16  1135    53782   41700      0    1.48e+00    0    1.03e+00
2006 02 16  1140    53782   42000      0    1.48e+00    0    1.04e+00
2006 02 16  1145    53782   42300      0    1.47e+00    0    1.03e+00
2006 02 16  1150    53782   42600      0    1.46e+00    0    1.03e+00
2006 02 16  1155    53782   42900      0    1.45e+00    0    1.01e+00
2006 02 16  1200    53782   43200      0    1.46e+00    0    1.04e+00
2006 02 16  1205    53782   43500      0    1.46e+00    0    1.02e+00
2006 02 16  1210    53782   43800      0    1.46e+00    0    1.03e+00
2006 02 16  1215    53782   44100      0    1.47e+00    0    1.03e+00
2006 02 16  1220    53782   44400      0    1.45e+00    0    1.02e+00
2006 02 16  1225    53782   44700      0    1.42e+00    0    9.94e-01
2006 02 16  1230    53782   45000      0    1.50e+00    0    1.04e+00
2006 02 16  1235    53782   45300      0    1.48e+00    0    1.04e+00
2006 02 16  1240    53782   45600      0    1.47e+00    0    1.03e+00
2006 02 16  1245    53782   45900      0    1.51e+00    0    1.06e+00
2006 02 16  1250    53782   46200      0    1.48e+00    0    1.03e+00
2006 02 16  1255    53782   46500      0    1.45e+00    0    1.03e+00
2006 02 16  1300    53782   46800      0    1.46e+00    0    1.03e+00
2006 02 16  1305    53782   47100      0    1.46e+00    0    1.03e+00
2006 02 16  1310    53782   47400      0    1.47e+00    0    1.04e+00
2006 02 16  1315    53782   47700      0    1.46e+00    0    1.03e+00
2006 02 16  1320    53782   48000      0    1.48e+00    0    1.03e+00
2006 02 16  1325    53782   48300      0    1.45e+00    0    1.03e+00
2006 02 16  1330    53782   48600      0    1.48e+00    0    1.04e+00
2006 02 16  1335    53782   48900      0    1.49e+00    0    1.04e+00
2006 02 16  1340    53782   49200      0    1.44e+00    0    1.02e+00
2006 02 16  1345    53782   49500      0    1.47e+00    0    1.04e+00
2006 02 16  1350    53782   49800      0    1.48e+00    0    1.03e+00
2006 02 16  1355    53782   50100      0    1.48e+00    0    1.04e+00
2006 02 16  1400    53782   50400      0    1.47e+00    0    1.04e+00
2006 02 16  1405    53782   50700      0    1.47e+00    0    1.02e+00
2006 02 16  1410    53782   51000      0    1.47e+00    0    1.03e+00
2006 02 16  1415    53782   51300      0    1.45e+00    0    1.01e+00
2006 02 16  1420    53782   51600      0    1.48e+00    0    1.04e+00
2006 02 16  1425    53782   51900      0    1.45e+00    0    1.01e+00
2006 02 16  1430    53782   52200      0    1.46e+00    0    1.04e+00
2006 02 16  1435    53782   52500      0    1.48e+00    0    1.05e+00
2006 02 16  1440    53782   52800      0    1.50e+00    0    1.06e+00
2006 02 16  1445    53782   53100      0    1.46e+00    0    1.03e+00
2006 02 16  1450    53782   53400      0    1.47e+00    0    1.03e+00
2006 02 16  1455    53782   53700      0    1.45e+00    0    1.02e+00
2006 02 16  1500    53782   54000      0    1.50e+00    0    1.06e+00
2006 02 16  1505    53782   54300      0    1.45e+00    0    1.02e+00
2006 02 16  1510    53782   54600      0    1.49e+00    0    1.04e+00
2006 02 16  1515    53782   54900      0    1.42e+00    0    9.88e-01
2006 02 16  1520    53782   55200      0    1.46e+00    0    1.03e+00
2006 02 16  1525    53782   55500      0    1.47e+00    0    1.03e+00
2006 02 16  1530    53782   55800      0    1.47e+00    0    1.03e+00
2006 02 16  1535    53782   56100      0    1.50e+00    0    1.07e+00
2006 02 16  1540    53782   56400      0    1.48e+00    0    1.05e+00
2006 02 16  1545    53782   56700      0    1.47e+00    0    1.04e+00
2006 02 16  1550    53782   57000      0    1.45e+00    0    1.02e+00
2006 02 16  1555    53782   57300      0    1.45e+00    0    1.01e+00
2006 02 16  1600    53782   57600      0    1.48e+00    0    1.03e+00
2006 02 16  1605    53782   57900      0    1.49e+00    0    1.05e+00
2006 02 16  1610    53782   58200      0    1.46e+00    0    1.03e+00
2006 02 16  1615    53782   58500      0    1.45e+00    0    1.02e+00
2006 02 16  1620    53782   58800      0    1.47e+00    0    1.03e+00
2006 02 16  1625    53782   59100      0    1.46e+00    0    1.02e+00
2006 02 16  1630    53782   59400      0    1.49e+00    0    1.04e+00
2006 02 16  1635    53782   59700      0    1.46e+00    0    1.02e+00
2006 02 16  1640    53782   60000      0    1.46e+00    0    1.03e+00
2006 02 16  1645    53782   60300      0    1.50e+00    0    1.06e+00
2006 02 16  1650    53782   60600      0    1.47e+00    0    1.02e+00
2006 02 16  1655    53782   60900      0    1.46e+00    0    1.02e+00
2006 02 16  1700    53782   61200      0    1.50e+00    0    1.05e+00
2006 02 16  1705    53782   61500      0    1.44e+00    0    1.01e+00
2006 02 16  1710    53782   61800      0    1.44e+00    0    1.01e+00
2006 02 16  1715    53782   62100      0    1.45e+00    0    1.02e+00
2006 02 16  1720    53782   62400      0    1.45e+00    0    1.02e+00
2006 02 16  1725    53782   62700      0    1.47e+00    0    1.04e+00
2006 02 16  1730    53782   63000      0    1.45e+00    0    1.02e+00
2006 02 16  1735    53782   63300      0    1.48e+00    0    1.04e+00
2006 02 16  1740    53782   63600      0    1.43e+00    0    1.00e+00
2006 02 16  1745    53782   63900      0    1.48e+00    0    1.04e+00
2006 02 16  1750    53782   64200      0    1.44e+00    0    1.02e+00
2006 02 16  1755    53782   64500      0    1.43e+00    0    1.00e+00
2006 02 16  1800    53782   64800      0    1.49e+00    0    1.04e+00
2006 02 16  1805    53782   65100      0    1.44e+00    0    1.02e+00
2006 02 16  1810    53782   65400      0    1.48e+00    0    1.04e+00
2006 02 16  1815    53782   65700      0    1.48e+00    0    1.03e+00
2006 02 16  1820    53782   66000      0    1.49e+00    0    1.06e+00
2006 02 16  1825    53782   66300      0    1.47e+00    0    1.02e+00
2006 02 16  1830    53782   66600      0    1.45e+00    0    1.03e+00
2006 02 16  1835    53782   66900      0    1.47e+00    0    1.03e+00
2006 02 16  1840    53782   67200      0    1.44e+00    0    1.01e+00
2006 02 16  1845    53782   67500      0    1.49e+00    0    1.04e+00
2006 02 16  1850    53782   67800      0    1.47e+00    0    1.03e+00
2006 02 16  1855    53782   68100      0    1.47e+00    0    1.04e+00
2006 02 16  1900    53782   68400      0    1.51e+00    0    1.06e+00
2006 02 16  1905    53782   68700      0    1.50e+00    0    1.05e+00
2006 02 16  1910    53782   69000      0    1.50e+00    0    1.05e+00
2006 02 16  1915    53782   69300      0    1.51e+00    0    1.06e+00
2006 02 16  1920    53782   69600      0    1.53e+00    0    1.08e+00
2006 02 16  1925    53782   69900      0    1.49e+00    0    1.05e+00
2006 02 16  1930    53782   70200      0    1.49e+00    0    1.05e+00
2006 02 16  1935    53782   70500      0    1.53e+00    0    1.07e+00
2006 02 16  1940    53782   70800      0    1.50e+00    0    1.05e+00
2006 02 16  1945    53782   71100      0    1.50e+00    0    1.06e+00
2006 02 16  1950    53782   71400      0    1.48e+00    0    1.03e+00
2006 02 16  1955    53782   71700      0    1.50e+00    0    1.05e+00
2006 02 16  2000    53782   72000      0    1.52e+00    0    1.06e+00
2006 02 16  2005    53782   72300      0    1.50e+00    0    1.05e+00
2006 02 16  2010    53782   72600      0    1.47e+00    0    1.04e+00
2006 02 16  2015    53782   72900      0    1.49e+00    0    1.06e+00
2006 02 16  2020    53782   73200      0    1.46e+00    0    1.02e+00
2006 02 16  2025    53782   73500      0    1.42e+00    0    1.01e+00
2006 02 16  2030    53782   73800      0    1.51e+00    0    1.07e+00
2006 02 16  2035    53782   74100      0    1.46e+00    0    1.02e+00
2006 02 16  2040    53782   74400      0    1.48e+00    0    1.05e+00
2006 02 16  2045    53782   74700      0    1.48e+00    0    1.04e+00
2006 02 16  2050    53782   75000      0    1.47e+00    0    1.03e+00
2006 02 16  2055    53782   75300      0    1.46e+00    0    1.03e+00
2006 02 16  2100    53782   75600      0    1.51e+00    0    1.06e+00
2006 02 16  2105    53782   75900      0    1.47e+00    0    1.04e+00
2006 02 16  2110    53782   76200      0    1.50e+00    0    1.07e+00
2006 02 16  2115    53782   76500      0    1.46e+00    0    1.03e+00
2006 02 16  2120    53782   76800      0    1.44e+00    0    1.01e+00
2006 02 16  2125    53782   77100      0    1.48e+00    0    1.04e+00
2006 02 16  2130    53782   77400      0    1.47e+00    0    1.05e+00
2006 02 16  2135    53782   77700      0    1.50e+00    0    1.04e+00
2006 02 16  2140    53782   78000      0    1.53e+00    0    1.07e+00
2006 02 16  2145    53782   78300      0    1.48e+00    0    1.04e+00
2006 02 16  2150    53782   78600      0    1.47e+00    0    1.04e+00
2006 02 16  2155    53782   78900      0    1.48e+00    0    1.04e+00
2006 02 16  2200    53782   79200      0    1.51e+00    0    1.07e+00
2006 02 16  2205    53782   79500      0    1.49e+00    0    1.04e+00
2006 02 16  2210    53782   79800      0    1.47e+00    0    1.03e+00
2006 02 16  2215    53782   80100      0    1.50e+00    0    1.05e+00
2006 02 16  2220    53782   80400      0    1.47e+00    0    1.04e+00
2006 02 16  2225    53782   80700      0    1.49e+00    0    1.06e+00
2006 02 16  2230    53782   81000      9   -1.00e+05    9   -1.00e+05
2006 02 16  2235    53782   81300      9   -1.00e+05    9   -1.00e+05
2006 02 16  2240    53782   81600      9   -1.00e+05    9   -1.00e+05
2006 02 16  2245    53782   81900      9   -1.00e+05    9   -1.00e+05
2006 02 16  2250    53782   82200      9   -1.00e+05    9   -1.00e+05
2006 02 16  2255    53782   82500      9   -1.00e+05    9   -1.00e+05
2006 02 16  2300    53782   82800      9   -1.00e+05    9   -1.00e+05
2006 02 16  2305    53782   83100      9   -1.00e+05    9   -1.00e+05
2006 02 16  2310    53782   83400      9   -1.00e+05    9   -1.00e+05
2006 02 16  2315    53782   83700      9   -1.00e+05    9   -1.00e+05
2006 02 16  2320    53782   84000      9   -1.00e+05    9   -1.00e+05
2006 02 16  2325    53782   84300      9   -1.00e+05    9   -1.00e+05
2006 02 16  2330    53782   84600      9   -1.00e+05    9   -1.00e+05
2006 02 16  2335    53782   84900      9   -1.00e+05    9   -1.00e+05
2006 02 16  2340    53782   85200      9   -1.00e+05    9   -1.00e+05
2006 02 16  2345    53782   85500      9   -1.00e+05    9   -1.00e+05
2006 02 16  2350    53782   85800      9   -1.00e+05    9   -1.00e+05
2006 02 16  2355    53782   86100      9   -1.00e+05    9   -1.00e+05
