:Data_list: 20060317_ace_sis_5m.txt
:Created: 2006 Mar 18 0011 UT
# Prepared by the U.S. Dept. of Commerce, NOAA, Space Environment Center.
# Please send comments and suggestions to SEC.Webmaster@noaa.gov 
# 
# Units: proton flux p/cs2-sec-ster
# Status(S): 0 = nominal data, 1 to 8 = bad data record, 9 = no data
# Missing data values: -1.00e+05
# Source: ACE Satellite - Solar Isotope Spectrometer
#
# 5-minute averaged Real-time Integral Flux of High-energy Solar Protons
# 
#                 Modified Seconds
# UT Date   Time   Julian  of the      ---- Integral Proton Flux ----
# YR MO DA  HHMM     Day     Day       S    > 10 MeV    S    > 30 MeV
#--------------------------------------------------------------------
2006 03 17  0000    53811       0      0    1.49e+00    0    1.04e+00
2006 03 17  0005    53811     300      0    1.54e+00    0    1.09e+00
2006 03 17  0010    53811     600      0    1.53e+00    0    1.07e+00
2006 03 17  0015    53811     900      0    1.53e+00    0    1.07e+00
2006 03 17  0020    53811    1200      0    1.55e+00    0    1.08e+00
2006 03 17  0025    53811    1500      0    1.53e+00    0    1.06e+00
2006 03 17  0030    53811    1800      0    1.54e+00    0    1.08e+00
2006 03 17  0035    53811    2100      0    1.53e+00    0    1.07e+00
2006 03 17  0040    53811    2400      0    1.49e+00    0    1.03e+00
2006 03 17  0045    53811    2700      0    1.51e+00    0    1.05e+00
2006 03 17  0050    53811    3000      0    1.51e+00    0    1.05e+00
2006 03 17  0055    53811    3300      0    1.48e+00    0    1.04e+00
2006 03 17  0100    53811    3600      0    1.51e+00    0    1.07e+00
2006 03 17  0105    53811    3900      0    1.52e+00    0    1.07e+00
2006 03 17  0110    53811    4200      0    1.50e+00    0    1.05e+00
2006 03 17  0115    53811    4500      0    1.52e+00    0    1.08e+00
2006 03 17  0120    53811    4800      0    1.51e+00    0    1.07e+00
2006 03 17  0125    53811    5100      0    1.53e+00    0    1.07e+00
2006 03 17  0130    53811    5400      0    1.48e+00    0    1.04e+00
2006 03 17  0135    53811    5700      0    1.51e+00    0    1.06e+00
2006 03 17  0140    53811    6000      0    1.52e+00    0    1.07e+00
2006 03 17  0145    53811    6300      0    1.51e+00    0    1.07e+00
2006 03 17  0150    53811    6600      0    1.56e+00    0    1.11e+00
2006 03 17  0155    53811    6900      0    1.54e+00    0    1.09e+00
2006 03 17  0200    53811    7200      0    1.52e+00    0    1.06e+00
2006 03 17  0205    53811    7500      0    1.51e+00    0    1.05e+00
2006 03 17  0210    53811    7800      0    1.50e+00    0    1.06e+00
2006 03 17  0215    53811    8100      0    1.50e+00    0    1.04e+00
2006 03 17  0220    53811    8400      0    1.53e+00    0    1.07e+00
2006 03 17  0225    53811    8700      0    1.53e+00    0    1.08e+00
2006 03 17  0230    53811    9000      0    1.54e+00    0    1.08e+00
2006 03 17  0235    53811    9300      0    1.54e+00    0    1.09e+00
2006 03 17  0240    53811    9600      0    1.49e+00    0    1.05e+00
2006 03 17  0245    53811    9900      0    1.56e+00    0    1.10e+00
2006 03 17  0250    53811   10200      0    1.55e+00    0    1.10e+00
2006 03 17  0255    53811   10500      0    1.51e+00    0    1.06e+00
2006 03 17  0300    53811   10800      0    1.52e+00    0    1.07e+00
2006 03 17  0305    53811   11100      0    1.54e+00    0    1.07e+00
2006 03 17  0310    53811   11400      0    1.50e+00    0    1.05e+00
2006 03 17  0315    53811   11700      0    1.53e+00    0    1.07e+00
2006 03 17  0320    53811   12000      0    1.56e+00    0    1.10e+00
2006 03 17  0325    53811   12300      0    1.53e+00    0    1.06e+00
2006 03 17  0330    53811   12600      0    1.53e+00    0    1.08e+00
2006 03 17  0335    53811   12900      0    1.53e+00    0    1.08e+00
2006 03 17  0340    53811   13200      0    1.54e+00    0    1.08e+00
2006 03 17  0345    53811   13500      0    1.51e+00    0    1.06e+00
2006 03 17  0350    53811   13800      0    1.51e+00    0    1.06e+00
2006 03 17  0355    53811   14100      0    1.48e+00    0    1.05e+00
2006 03 17  0400    53811   14400      0    1.52e+00    0    1.08e+00
2006 03 17  0405    53811   14700      0    1.50e+00    0    1.05e+00
2006 03 17  0410    53811   15000      0    1.51e+00    0    1.06e+00
2006 03 17  0415    53811   15300      0    1.57e+00    0    1.09e+00
2006 03 17  0420    53811   15600      0    1.51e+00    0    1.07e+00
2006 03 17  0425    53811   15900      0    1.50e+00    0    1.06e+00
2006 03 17  0430    53811   16200      0    1.55e+00    0    1.09e+00
2006 03 17  0435    53811   16500      0    1.54e+00    0    1.09e+00
2006 03 17  0440    53811   16800      0    1.52e+00    0    1.06e+00
2006 03 17  0445    53811   17100      0    1.50e+00    0    1.05e+00
2006 03 17  0450    53811   17400      0    1.51e+00    0    1.07e+00
2006 03 17  0455    53811   17700      0    1.53e+00    0    1.07e+00
2006 03 17  0500    53811   18000      0    1.53e+00    0    1.08e+00
2006 03 17  0505    53811   18300      0    1.49e+00    0    1.05e+00
2006 03 17  0510    53811   18600      0    1.52e+00    0    1.07e+00
2006 03 17  0515    53811   18900      0    1.56e+00    0    1.10e+00
2006 03 17  0520    53811   19200      0    1.44e+00    0    1.00e+00
2006 03 17  0525    53811   19500      0    1.54e+00    0    1.08e+00
2006 03 17  0530    53811   19800      0    1.59e+00    0    1.14e+00
2006 03 17  0535    53811   20100      0    1.53e+00    0    1.08e+00
2006 03 17  0540    53811   20400      0    1.54e+00    0    1.08e+00
2006 03 17  0545    53811   20700      0    1.50e+00    0    1.06e+00
2006 03 17  0550    53811   21000      0    1.53e+00    0    1.07e+00
2006 03 17  0555    53811   21300      0    1.53e+00    0    1.08e+00
2006 03 17  0600    53811   21600      0    1.53e+00    0    1.08e+00
2006 03 17  0605    53811   21900      0    1.53e+00    0    1.08e+00
2006 03 17  0610    53811   22200      0    1.55e+00    0    1.09e+00
2006 03 17  0615    53811   22500      0    1.51e+00    0    1.06e+00
2006 03 17  0620    53811   22800      0    1.51e+00    0    1.07e+00
2006 03 17  0625    53811   23100      0    1.53e+00    0    1.08e+00
2006 03 17  0630    53811   23400      0    1.52e+00    0    1.07e+00
2006 03 17  0635    53811   23700      0    1.52e+00    0    1.06e+00
2006 03 17  0640    53811   24000      0    1.54e+00    0    1.07e+00
2006 03 17  0645    53811   24300      0    1.52e+00    0    1.07e+00
2006 03 17  0650    53811   24600      0    1.51e+00    0    1.06e+00
2006 03 17  0655    53811   24900      0    1.53e+00    0    1.08e+00
2006 03 17  0700    53811   25200      0    1.58e+00    0    1.12e+00
2006 03 17  0705    53811   25500      0    1.51e+00    0    1.06e+00
2006 03 17  0710    53811   25800      0    1.55e+00    0    1.09e+00
2006 03 17  0715    53811   26100      0    1.52e+00    0    1.06e+00
2006 03 17  0720    53811   26400      0    1.51e+00    0    1.08e+00
2006 03 17  0725    53811   26700      0    1.54e+00    0    1.08e+00
2006 03 17  0730    53811   27000      0    1.55e+00    0    1.10e+00
2006 03 17  0735    53811   27300      0    1.52e+00    0    1.07e+00
2006 03 17  0740    53811   27600      0    1.52e+00    0    1.06e+00
2006 03 17  0745    53811   27900      0    1.52e+00    0    1.07e+00
2006 03 17  0750    53811   28200      0    1.51e+00    0    1.06e+00
2006 03 17  0755    53811   28500      0    1.52e+00    0    1.06e+00
2006 03 17  0800    53811   28800      0    1.56e+00    0    1.10e+00
2006 03 17  0805    53811   29100      0    1.49e+00    0    1.04e+00
2006 03 17  0810    53811   29400      0    1.50e+00    0    1.05e+00
2006 03 17  0815    53811   29700      0    1.54e+00    0    1.09e+00
2006 03 17  0820    53811   30000      0    1.51e+00    0    1.06e+00
2006 03 17  0825    53811   30300      0    1.52e+00    0    1.08e+00
2006 03 17  0830    53811   30600      0    1.55e+00    0    1.09e+00
2006 03 17  0835    53811   30900      0    1.52e+00    0    1.08e+00
2006 03 17  0840    53811   31200      0    1.48e+00    0    1.04e+00
2006 03 17  0845    53811   31500      0    1.48e+00    0    1.04e+00
2006 03 17  0850    53811   31800      0    1.52e+00    0    1.06e+00
2006 03 17  0855    53811   32100      0    1.50e+00    0    1.04e+00
2006 03 17  0900    53811   32400      0    1.53e+00    0    1.06e+00
2006 03 17  0905    53811   32700      0    1.50e+00    0    1.04e+00
2006 03 17  0910    53811   33000      0    1.53e+00    0    1.07e+00
2006 03 17  0915    53811   33300      0    1.52e+00    0    1.06e+00
2006 03 17  0920    53811   33600      0    1.51e+00    0    1.06e+00
2006 03 17  0925    53811   33900      0    1.53e+00    0    1.07e+00
2006 03 17  0930    53811   34200      0    1.50e+00    0    1.06e+00
2006 03 17  0935    53811   34500      0    1.54e+00    0    1.09e+00
2006 03 17  0940    53811   34800      0    1.49e+00    0    1.04e+00
2006 03 17  0945    53811   35100      0    1.52e+00    0    1.08e+00
2006 03 17  0950    53811   35400      0    1.53e+00    0    1.08e+00
2006 03 17  0955    53811   35700      0    1.53e+00    0    1.07e+00
2006 03 17  1000    53811   36000      0    1.51e+00    0    1.06e+00
2006 03 17  1005    53811   36300      0    1.53e+00    0    1.09e+00
2006 03 17  1010    53811   36600      0    1.52e+00    0    1.07e+00
2006 03 17  1015    53811   36900      0    1.52e+00    0    1.06e+00
2006 03 17  1020    53811   37200      0    1.50e+00    0    1.06e+00
2006 03 17  1025    53811   37500      0    1.52e+00    0    1.06e+00
2006 03 17  1030    53811   37800      0    1.49e+00    0    1.04e+00
2006 03 17  1035    53811   38100      0    1.52e+00    0    1.08e+00
2006 03 17  1040    53811   38400      0    1.50e+00    0    1.06e+00
2006 03 17  1045    53811   38700      0    1.53e+00    0    1.07e+00
2006 03 17  1050    53811   39000      0    1.49e+00    0    1.03e+00
2006 03 17  1055    53811   39300      0    1.52e+00    0    1.06e+00
2006 03 17  1100    53811   39600      0    1.52e+00    0    1.06e+00
2006 03 17  1105    53811   39900      0    1.51e+00    0    1.06e+00
2006 03 17  1110    53811   40200      0    1.51e+00    0    1.06e+00
2006 03 17  1115    53811   40500      0    1.54e+00    0    1.08e+00
2006 03 17  1120    53811   40800      0    1.51e+00    0    1.05e+00
2006 03 17  1125    53811   41100      0    1.57e+00    0    1.09e+00
2006 03 17  1130    53811   41400      0    1.53e+00    0    1.08e+00
2006 03 17  1135    53811   41700      0    1.50e+00    0    1.05e+00
2006 03 17  1140    53811   42000      0    1.55e+00    0    1.09e+00
2006 03 17  1145    53811   42300      0    1.50e+00    0    1.06e+00
2006 03 17  1150    53811   42600      0    1.50e+00    0    1.05e+00
2006 03 17  1155    53811   42900      0    1.51e+00    0    1.07e+00
2006 03 17  1200    53811   43200      0    1.50e+00    0    1.05e+00
2006 03 17  1205    53811   43500      0    1.50e+00    0    1.05e+00
2006 03 17  1210    53811   43800      0    1.54e+00    0    1.09e+00
2006 03 17  1215    53811   44100      0    1.52e+00    0    1.07e+00
2006 03 17  1220    53811   44400      0    1.52e+00    0    1.07e+00
2006 03 17  1225    53811   44700      0    1.50e+00    0    1.05e+00
2006 03 17  1230    53811   45000      0    1.51e+00    0    1.05e+00
2006 03 17  1235    53811   45300      0    1.50e+00    0    1.05e+00
2006 03 17  1240    53811   45600      0    1.49e+00    0    1.05e+00
2006 03 17  1245    53811   45900      0    1.54e+00    0    1.09e+00
2006 03 17  1250    53811   46200      0    1.55e+00    0    1.09e+00
2006 03 17  1255    53811   46500      0    1.54e+00    0    1.09e+00
2006 03 17  1300    53811   46800      0    1.58e+00    0    1.12e+00
2006 03 17  1305    53811   47100      0    1.52e+00    0    1.07e+00
2006 03 17  1310    53811   47400      0    1.52e+00    0    1.06e+00
2006 03 17  1315    53811   47700      0    1.54e+00    0    1.09e+00
2006 03 17  1320    53811   48000      0    1.50e+00    0    1.05e+00
2006 03 17  1325    53811   48300      0    1.49e+00    0    1.05e+00
2006 03 17  1330    53811   48600      0    1.52e+00    0    1.07e+00
2006 03 17  1335    53811   48900      0    1.56e+00    0    1.11e+00
2006 03 17  1340    53811   49200      0    1.54e+00    0    1.09e+00
2006 03 17  1345    53811   49500      0    1.51e+00    0    1.06e+00
2006 03 17  1350    53811   49800      0    1.51e+00    0    1.05e+00
2006 03 17  1355    53811   50100      0    1.52e+00    0    1.06e+00
2006 03 17  1400    53811   50400      0    1.52e+00    0    1.06e+00
2006 03 17  1405    53811   50700      0    1.53e+00    0    1.08e+00
2006 03 17  1410    53811   51000      0    1.90e+00    0    1.06e+00
2006 03 17  1415    53811   51300      0    1.52e+00    0    1.07e+00
2006 03 17  1420    53811   51600      0    1.53e+00    0    1.07e+00
2006 03 17  1425    53811   51900      0    1.51e+00    0    1.06e+00
2006 03 17  1430    53811   52200      0    1.53e+00    0    1.08e+00
2006 03 17  1435    53811   52500      0    1.53e+00    0    1.08e+00
2006 03 17  1440    53811   52800      0    1.53e+00    0    1.07e+00
2006 03 17  1445    53811   53100      0    1.50e+00    0    1.05e+00
2006 03 17  1450    53811   53400      0    1.51e+00    0    1.06e+00
2006 03 17  1455    53811   53700      0    1.51e+00    0    1.06e+00
2006 03 17  1500    53811   54000      0    1.46e+00    0    1.02e+00
2006 03 17  1505    53811   54300      0    1.56e+00    0    1.11e+00
2006 03 17  1510    53811   54600      0    1.53e+00    0    1.08e+00
2006 03 17  1515    53811   54900      0    1.55e+00    0    1.09e+00
2006 03 17  1520    53811   55200      0    1.52e+00    0    1.06e+00
2006 03 17  1525    53811   55500      0    1.54e+00    0    1.07e+00
2006 03 17  1530    53811   55800      0    1.51e+00    0    1.06e+00
2006 03 17  1535    53811   56100      0    1.55e+00    0    1.09e+00
2006 03 17  1540    53811   56400      0    1.53e+00    0    1.07e+00
2006 03 17  1545    53811   56700      0    1.58e+00    0    1.11e+00
2006 03 17  1550    53811   57000      0    1.55e+00    0    1.10e+00
2006 03 17  1555    53811   57300      0    1.53e+00    0    1.07e+00
2006 03 17  1600    53811   57600      0    1.52e+00    0    1.07e+00
2006 03 17  1605    53811   57900      0    1.54e+00    0    1.07e+00
2006 03 17  1610    53811   58200      0    1.52e+00    0    1.06e+00
2006 03 17  1615    53811   58500      0    1.55e+00    0    1.09e+00
2006 03 17  1620    53811   58800      0    1.58e+00    0    1.11e+00
2006 03 17  1625    53811   59100      0    1.54e+00    0    1.08e+00
2006 03 17  1630    53811   59400      0    1.54e+00    0    1.08e+00
2006 03 17  1635    53811   59700      0    1.54e+00    0    1.09e+00
2006 03 17  1640    53811   60000      0    1.53e+00    0    1.07e+00
2006 03 17  1645    53811   60300      0    1.51e+00    0    1.06e+00
2006 03 17  1650    53811   60600      0    1.50e+00    0    1.04e+00
2006 03 17  1655    53811   60900      0    1.55e+00    0    1.09e+00
2006 03 17  1700    53811   61200      0    1.51e+00    0    1.07e+00
2006 03 17  1705    53811   61500      0    1.58e+00    0    1.11e+00
2006 03 17  1710    53811   61800      0    1.50e+00    0    1.05e+00
2006 03 17  1715    53811   62100      0    1.57e+00    0    1.10e+00
2006 03 17  1720    53811   62400      0    1.55e+00    0    1.08e+00
2006 03 17  1725    53811   62700      0    1.52e+00    0    1.06e+00
2006 03 17  1730    53811   63000      0    1.55e+00    0    1.10e+00
2006 03 17  1735    53811   63300      0    1.53e+00    0    1.07e+00
2006 03 17  1740    53811   63600      0    1.53e+00    0    1.08e+00
2006 03 17  1745    53811   63900      0    1.53e+00    0    1.08e+00
2006 03 17  1750    53811   64200      0    1.54e+00    0    1.07e+00
2006 03 17  1755    53811   64500      0    1.56e+00    0    1.08e+00
2006 03 17  1800    53811   64800      0    1.57e+00    0    1.09e+00
2006 03 17  1805    53811   65100      0    1.55e+00    0    1.10e+00
2006 03 17  1810    53811   65400      0    1.55e+00    0    1.10e+00
2006 03 17  1815    53811   65700      0    1.54e+00    0    1.08e+00
2006 03 17  1820    53811   66000      0    1.57e+00    0    1.09e+00
2006 03 17  1825    53811   66300      0    1.56e+00    0    1.09e+00
2006 03 17  1830    53811   66600      0    1.55e+00    0    1.10e+00
2006 03 17  1835    53811   66900      0    1.54e+00    0    1.08e+00
2006 03 17  1840    53811   67200      0    1.55e+00    0    1.09e+00
2006 03 17  1845    53811   67500      0    1.54e+00    0    1.08e+00
2006 03 17  1850    53811   67800      0    1.58e+00    0    1.11e+00
2006 03 17  1855    53811   68100      0    1.54e+00    0    1.10e+00
2006 03 17  1900    53811   68400      0    1.55e+00    0    1.10e+00
2006 03 17  1905    53811   68700      0    1.52e+00    0    1.05e+00
2006 03 17  1910    53811   69000      0    1.54e+00    0    1.08e+00
2006 03 17  1915    53811   69300      0    1.56e+00    0    1.10e+00
2006 03 17  1920    53811   69600      0    1.56e+00    0    1.10e+00
2006 03 17  1925    53811   69900      0    1.55e+00    0    1.09e+00
2006 03 17  1930    53811   70200      0    1.57e+00    0    1.11e+00
2006 03 17  1935    53811   70500      0    1.51e+00    0    1.06e+00
2006 03 17  1940    53811   70800      0    1.52e+00    0    1.07e+00
2006 03 17  1945    53811   71100      0    1.51e+00    0    1.06e+00
2006 03 17  1950    53811   71400      0    1.54e+00    0    1.09e+00
2006 03 17  1955    53811   71700      0    1.58e+00    0    1.11e+00
2006 03 17  2000    53811   72000      0    1.53e+00    0    1.07e+00
2006 03 17  2005    53811   72300      0    1.55e+00    0    1.09e+00
2006 03 17  2010    53811   72600      0    1.56e+00    0    1.08e+00
2006 03 17  2015    53811   72900      0    1.54e+00    0    1.08e+00
2006 03 17  2020    53811   73200      0    1.54e+00    0    1.08e+00
2006 03 17  2025    53811   73500      0    1.58e+00    0    1.11e+00
2006 03 17  2030    53811   73800      0    1.56e+00    0    1.10e+00
2006 03 17  2035    53811   74100      0    1.56e+00    0    1.10e+00
2006 03 17  2040    53811   74400      0    1.54e+00    0    1.07e+00
2006 03 17  2045    53811   74700      0    1.53e+00    0    1.07e+00
2006 03 17  2050    53811   75000      0    1.53e+00    0    1.07e+00
2006 03 17  2055    53811   75300      0    1.54e+00    0    1.08e+00
2006 03 17  2100    53811   75600      0    1.55e+00    0    1.08e+00
2006 03 17  2105    53811   75900      0    1.54e+00    0    1.07e+00
2006 03 17  2110    53811   76200      0    1.55e+00    0    1.08e+00
2006 03 17  2115    53811   76500      0    1.55e+00    0    1.09e+00
2006 03 17  2120    53811   76800      0    1.54e+00    0    1.08e+00
2006 03 17  2125    53811   77100      0    1.53e+00    0    1.07e+00
2006 03 17  2130    53811   77400      0    1.56e+00    0    1.09e+00
2006 03 17  2135    53811   77700      0    1.56e+00    0    1.10e+00
2006 03 17  2140    53811   78000      0    1.56e+00    0    1.10e+00
2006 03 17  2145    53811   78300      0    1.53e+00    0    1.08e+00
2006 03 17  2150    53811   78600      0    1.53e+00    0    1.08e+00
2006 03 17  2155    53811   78900      0    1.53e+00    0    1.07e+00
2006 03 17  2200    53811   79200      0    1.59e+00    0    1.12e+00
2006 03 17  2205    53811   79500      0    1.53e+00    0    1.08e+00
2006 03 17  2210    53811   79800      0    1.52e+00    0    1.07e+00
2006 03 17  2215    53811   80100      0    1.51e+00    0    1.06e+00
2006 03 17  2220    53811   80400      0    1.53e+00    0    1.07e+00
2006 03 17  2225    53811   80700      0    1.54e+00    0    1.08e+00
2006 03 17  2230    53811   81000      0    1.55e+00    0    1.08e+00
2006 03 17  2235    53811   81300      0    1.52e+00    0    1.07e+00
2006 03 17  2240    53811   81600      0    1.52e+00    0    1.08e+00
2006 03 17  2245    53811   81900      0    1.56e+00    0    1.10e+00
2006 03 17  2250    53811   82200      0    1.50e+00    0    1.06e+00
2006 03 17  2255    53811   82500      0    1.50e+00    0    1.05e+00
2006 03 17  2300    53811   82800      0    1.56e+00    0    1.09e+00
2006 03 17  2305    53811   83100      0    1.52e+00    0    1.08e+00
2006 03 17  2310    53811   83400      0    1.55e+00    0    1.09e+00
2006 03 17  2315    53811   83700      0    1.52e+00    0    1.06e+00
2006 03 17  2320    53811   84000      0    1.56e+00    0    1.09e+00
2006 03 17  2325    53811   84300      0    1.54e+00    0    1.08e+00
2006 03 17  2330    53811   84600      0    1.54e+00    0    1.08e+00
2006 03 17  2335    53811   84900      0    1.54e+00    0    1.09e+00
2006 03 17  2340    53811   85200      0    1.51e+00    0    1.05e+00
2006 03 17  2345    53811   85500      0    1.53e+00    0    1.08e+00
2006 03 17  2350    53811   85800      0    1.51e+00    0    1.06e+00
2006 03 17  2355    53811   86100      0    1.50e+00    0    1.04e+00
