:Data_list: 20060628_ace_sis_5m.txt
:Created: 2006 Jun 29 0011 UT
# Prepared by the U.S. Dept. of Commerce, NOAA, Space Environment Center.
# Please send comments and suggestions to SEC.Webmaster@noaa.gov 
# 
# Units: proton flux p/cs2-sec-ster
# Status(S): 0 = nominal data, 1 to 8 = bad data record, 9 = no data
# Missing data values: -1.00e+05
# Source: ACE Satellite - Solar Isotope Spectrometer
#
# 5-minute averaged Real-time Integral Flux of High-energy Solar Protons
# 
#                 Modified Seconds
# UT Date   Time   Julian  of the      ---- Integral Proton Flux ----
# YR MO DA  HHMM     Day     Day       S    > 10 MeV    S    > 30 MeV
#--------------------------------------------------------------------
2006 06 28  0000    53914       0      0    1.68e+00    0    1.16e+00
2006 06 28  0005    53914     300      0    1.67e+00    0    1.17e+00
2006 06 28  0010    53914     600      0    1.67e+00    0    1.17e+00
2006 06 28  0015    53914     900      0    1.68e+00    0    1.19e+00
2006 06 28  0020    53914    1200      0    1.69e+00    0    1.18e+00
2006 06 28  0025    53914    1500      0    1.71e+00    0    1.21e+00
2006 06 28  0030    53914    1800      0    1.66e+00    0    1.15e+00
2006 06 28  0035    53914    2100      0    1.67e+00    0    1.16e+00
2006 06 28  0040    53914    2400      0    1.66e+00    0    1.16e+00
2006 06 28  0045    53914    2700      0    1.66e+00    0    1.16e+00
2006 06 28  0050    53914    3000      0    1.69e+00    0    1.19e+00
2006 06 28  0055    53914    3300      0    1.68e+00    0    1.17e+00
2006 06 28  0100    53914    3600      0    1.67e+00    0    1.17e+00
2006 06 28  0105    53914    3900      0    1.69e+00    0    1.19e+00
2006 06 28  0110    53914    4200      0    1.70e+00    0    1.19e+00
2006 06 28  0115    53914    4500      0    1.70e+00    0    1.18e+00
2006 06 28  0120    53914    4800      0    1.69e+00    0    1.19e+00
2006 06 28  0125    53914    5100      0    1.67e+00    0    1.16e+00
2006 06 28  0130    53914    5400      0    1.62e+00    0    1.13e+00
2006 06 28  0135    53914    5700      0    1.73e+00    0    1.22e+00
2006 06 28  0140    53914    6000      0    1.70e+00    0    1.20e+00
2006 06 28  0145    53914    6300      0    1.67e+00    0    1.17e+00
2006 06 28  0150    53914    6600      0    1.68e+00    0    1.18e+00
2006 06 28  0155    53914    6900      0    1.65e+00    0    1.15e+00
2006 06 28  0200    53914    7200      0    1.66e+00    0    1.16e+00
2006 06 28  0205    53914    7500      0    1.74e+00    0    1.22e+00
2006 06 28  0210    53914    7800      0    1.70e+00    0    1.19e+00
2006 06 28  0215    53914    8100      0    1.67e+00    0    1.18e+00
2006 06 28  0220    53914    8400      0    1.67e+00    0    1.17e+00
2006 06 28  0225    53914    8700      0    1.68e+00    0    1.19e+00
2006 06 28  0230    53914    9000      0    1.70e+00    0    1.19e+00
2006 06 28  0235    53914    9300      0    1.65e+00    0    1.15e+00
2006 06 28  0240    53914    9600      0    1.66e+00    0    1.15e+00
2006 06 28  0245    53914    9900      0    1.66e+00    0    1.17e+00
2006 06 28  0250    53914   10200      0    1.67e+00    0    1.16e+00
2006 06 28  0255    53914   10500      0    1.69e+00    0    1.19e+00
2006 06 28  0300    53914   10800      0    1.69e+00    0    1.20e+00
2006 06 28  0305    53914   11100      0    1.64e+00    0    1.15e+00
2006 06 28  0310    53914   11400      0    1.71e+00    0    1.21e+00
2006 06 28  0315    53914   11700      0    1.68e+00    0    1.17e+00
2006 06 28  0320    53914   12000      0    1.66e+00    0    1.16e+00
2006 06 28  0325    53914   12300      0    1.70e+00    0    1.20e+00
2006 06 28  0330    53914   12600      0    1.72e+00    0    1.21e+00
2006 06 28  0335    53914   12900      0    1.71e+00    0    1.20e+00
2006 06 28  0340    53914   13200      0    1.67e+00    0    1.18e+00
2006 06 28  0345    53914   13500      0    1.66e+00    0    1.18e+00
2006 06 28  0350    53914   13800      0    1.66e+00    0    1.15e+00
2006 06 28  0355    53914   14100      0    1.62e+00    0    1.13e+00
2006 06 28  0400    53914   14400      0    1.68e+00    0    1.18e+00
2006 06 28  0405    53914   14700      0    1.70e+00    0    1.20e+00
2006 06 28  0410    53914   15000      0    1.68e+00    0    1.18e+00
2006 06 28  0415    53914   15300      0    1.66e+00    0    1.16e+00
2006 06 28  0420    53914   15600      0    1.70e+00    0    1.20e+00
2006 06 28  0425    53914   15900      0    1.68e+00    0    1.18e+00
2006 06 28  0430    53914   16200      0    1.68e+00    0    1.19e+00
2006 06 28  0435    53914   16500      0    1.65e+00    0    1.15e+00
2006 06 28  0440    53914   16800      0    1.67e+00    0    1.17e+00
2006 06 28  0445    53914   17100      0    1.67e+00    0    1.17e+00
2006 06 28  0450    53914   17400      0    1.65e+00    0    1.17e+00
2006 06 28  0455    53914   17700      0    1.70e+00    0    1.19e+00
2006 06 28  0500    53914   18000      0    1.69e+00    0    1.18e+00
2006 06 28  0505    53914   18300      0    1.73e+00    0    1.22e+00
2006 06 28  0510    53914   18600      0    1.69e+00    0    1.20e+00
2006 06 28  0515    53914   18900      0    1.66e+00    0    1.17e+00
2006 06 28  0520    53914   19200      0    1.67e+00    0    1.17e+00
2006 06 28  0525    53914   19500      0    1.70e+00    0    1.20e+00
2006 06 28  0530    53914   19800      0    1.68e+00    0    1.18e+00
2006 06 28  0535    53914   20100      0    1.69e+00    0    1.18e+00
2006 06 28  0540    53914   20400      0    1.70e+00    0    1.19e+00
2006 06 28  0545    53914   20700      0    1.66e+00    0    1.16e+00
2006 06 28  0550    53914   21000      0    1.70e+00    0    1.18e+00
2006 06 28  0555    53914   21300      0    1.64e+00    0    1.15e+00
2006 06 28  0600    53914   21600      0    1.69e+00    0    1.18e+00
2006 06 28  0605    53914   21900      0    1.66e+00    0    1.15e+00
2006 06 28  0610    53914   22200      0    1.67e+00    0    1.17e+00
2006 06 28  0615    53914   22500      0    1.65e+00    0    1.15e+00
2006 06 28  0620    53914   22800      0    1.66e+00    0    1.17e+00
2006 06 28  0625    53914   23100      0    1.66e+00    0    1.16e+00
2006 06 28  0630    53914   23400      0    1.67e+00    0    1.17e+00
2006 06 28  0635    53914   23700      0    1.70e+00    0    1.20e+00
2006 06 28  0640    53914   24000      0    1.65e+00    0    1.15e+00
2006 06 28  0645    53914   24300      0    1.64e+00    0    1.14e+00
2006 06 28  0650    53914   24600      0    1.69e+00    0    1.20e+00
2006 06 28  0655    53914   24900      0    1.66e+00    0    1.17e+00
2006 06 28  0700    53914   25200      0    1.64e+00    0    1.14e+00
2006 06 28  0705    53914   25500      0    1.67e+00    0    1.17e+00
2006 06 28  0710    53914   25800      0    1.61e+00    0    1.14e+00
2006 06 28  0715    53914   26100      0    1.67e+00    0    1.18e+00
2006 06 28  0720    53914   26400      0    1.66e+00    0    1.17e+00
2006 06 28  0725    53914   26700      0    1.65e+00    0    1.15e+00
2006 06 28  0730    53914   27000      0    1.67e+00    0    1.18e+00
2006 06 28  0735    53914   27300      0    1.67e+00    0    1.17e+00
2006 06 28  0740    53914   27600      0    1.69e+00    0    1.18e+00
2006 06 28  0745    53914   27900      0    1.59e+00    0    1.13e+00
2006 06 28  0750    53914   28200      0    1.65e+00    0    1.17e+00
2006 06 28  0755    53914   28500      0    1.66e+00    0    1.16e+00
2006 06 28  0800    53914   28800      0    1.62e+00    0    1.15e+00
2006 06 28  0805    53914   29100      0    1.66e+00    0    1.17e+00
2006 06 28  0810    53914   29400      0    1.67e+00    0    1.17e+00
2006 06 28  0815    53914   29700      0    1.67e+00    0    1.19e+00
2006 06 28  0820    53914   30000      0    1.68e+00    0    1.18e+00
2006 06 28  0825    53914   30300      0    1.67e+00    0    1.17e+00
2006 06 28  0830    53914   30600      0    1.67e+00    0    1.16e+00
2006 06 28  0835    53914   30900      0    1.67e+00    0    1.17e+00
2006 06 28  0840    53914   31200      0    1.65e+00    0    1.15e+00
2006 06 28  0845    53914   31500      0    1.66e+00    0    1.16e+00
2006 06 28  0850    53914   31800      0    1.66e+00    0    1.17e+00
2006 06 28  0855    53914   32100      0    1.68e+00    0    1.17e+00
2006 06 28  0900    53914   32400      0    1.65e+00    0    1.16e+00
2006 06 28  0905    53914   32700      0    1.65e+00    0    1.17e+00
2006 06 28  0910    53914   33000      0    1.66e+00    0    1.16e+00
2006 06 28  0915    53914   33300      0    1.66e+00    0    1.17e+00
2006 06 28  0920    53914   33600      0    1.66e+00    0    1.17e+00
2006 06 28  0925    53914   33900      0    1.67e+00    0    1.17e+00
2006 06 28  0930    53914   34200      0    1.68e+00    0    1.18e+00
2006 06 28  0935    53914   34500      0    1.67e+00    0    1.16e+00
2006 06 28  0940    53914   34800      0    1.65e+00    0    1.17e+00
2006 06 28  0945    53914   35100      0    1.66e+00    0    1.16e+00
2006 06 28  0950    53914   35400      0    1.63e+00    0    1.13e+00
2006 06 28  0955    53914   35700      0    1.66e+00    0    1.16e+00
2006 06 28  1000    53914   36000      0    1.66e+00    0    1.15e+00
2006 06 28  1005    53914   36300      0    1.63e+00    0    1.14e+00
2006 06 28  1010    53914   36600      0    1.66e+00    0    1.17e+00
2006 06 28  1015    53914   36900      0    1.65e+00    0    1.16e+00
2006 06 28  1020    53914   37200      0    1.67e+00    0    1.17e+00
2006 06 28  1025    53914   37500      0    1.67e+00    0    1.17e+00
2006 06 28  1030    53914   37800      0    1.66e+00    0    1.17e+00
2006 06 28  1035    53914   38100      0    1.63e+00    0    1.12e+00
2006 06 28  1040    53914   38400      0    1.69e+00    0    1.18e+00
2006 06 28  1045    53914   38700      0    1.65e+00    0    1.15e+00
2006 06 28  1050    53914   39000      0    1.65e+00    0    1.16e+00
2006 06 28  1055    53914   39300      0    1.64e+00    0    1.14e+00
2006 06 28  1100    53914   39600      0    1.68e+00    0    1.18e+00
2006 06 28  1105    53914   39900      0    1.58e+00    0    1.10e+00
2006 06 28  1110    53914   40200      0    1.70e+00    0    1.19e+00
2006 06 28  1115    53914   40500      0    1.67e+00    0    1.17e+00
2006 06 28  1120    53914   40800      0    1.68e+00    0    1.18e+00
2006 06 28  1125    53914   41100      0    1.67e+00    0    1.18e+00
2006 06 28  1130    53914   41400      0    1.66e+00    0    1.16e+00
2006 06 28  1135    53914   41700      0    1.64e+00    0    1.14e+00
2006 06 28  1140    53914   42000      0    1.67e+00    0    1.17e+00
2006 06 28  1145    53914   42300      0    1.69e+00    0    1.18e+00
2006 06 28  1150    53914   42600      0    1.67e+00    0    1.16e+00
2006 06 28  1155    53914   42900      0    1.65e+00    0    1.15e+00
2006 06 28  1200    53914   43200      0    1.65e+00    0    1.15e+00
2006 06 28  1205    53914   43500      0    1.66e+00    0    1.16e+00
2006 06 28  1210    53914   43800      0    1.67e+00    0    1.17e+00
2006 06 28  1215    53914   44100      0    1.67e+00    0    1.18e+00
2006 06 28  1220    53914   44400      0    1.70e+00    0    1.18e+00
2006 06 28  1225    53914   44700      0    1.65e+00    0    1.16e+00
2006 06 28  1230    53914   45000      0    1.67e+00    0    1.18e+00
2006 06 28  1235    53914   45300      0    1.68e+00    0    1.17e+00
2006 06 28  1240    53914   45600      0    1.60e+00    0    1.13e+00
2006 06 28  1245    53914   45900      0    1.68e+00    0    1.18e+00
2006 06 28  1250    53914   46200      0    1.66e+00    0    1.16e+00
2006 06 28  1255    53914   46500      0    1.69e+00    0    1.18e+00
2006 06 28  1300    53914   46800      0    1.66e+00    0    1.16e+00
2006 06 28  1305    53914   47100      0    1.66e+00    0    1.17e+00
2006 06 28  1310    53914   47400      0    1.71e+00    0    1.22e+00
2006 06 28  1315    53914   47700      0    1.67e+00    0    1.16e+00
2006 06 28  1320    53914   48000      0    1.65e+00    0    1.16e+00
2006 06 28  1325    53914   48300      0    1.68e+00    0    1.18e+00
2006 06 28  1330    53914   48600      0    1.66e+00    0    1.15e+00
2006 06 28  1335    53914   48900      0    1.70e+00    0    1.19e+00
2006 06 28  1340    53914   49200      0    1.64e+00    0    1.14e+00
2006 06 28  1345    53914   49500      0    1.67e+00    0    1.18e+00
2006 06 28  1350    53914   49800      0    1.68e+00    0    1.17e+00
2006 06 28  1355    53914   50100      0    1.66e+00    0    1.16e+00
2006 06 28  1400    53914   50400      0    1.66e+00    0    1.17e+00
2006 06 28  1405    53914   50700      0    1.69e+00    0    1.18e+00
2006 06 28  1410    53914   51000      0    1.66e+00    0    1.15e+00
2006 06 28  1415    53914   51300      0    1.67e+00    0    1.17e+00
2006 06 28  1420    53914   51600      0    1.65e+00    0    1.14e+00
2006 06 28  1425    53914   51900      0    1.67e+00    0    1.17e+00
2006 06 28  1430    53914   52200      0    1.64e+00    0    1.15e+00
2006 06 28  1435    53914   52500      0    1.69e+00    0    1.19e+00
2006 06 28  1440    53914   52800      0    1.71e+00    0    1.19e+00
2006 06 28  1445    53914   53100      0    1.66e+00    0    1.17e+00
2006 06 28  1450    53914   53400      0    1.68e+00    0    1.19e+00
2006 06 28  1455    53914   53700      0    1.67e+00    0    1.16e+00
2006 06 28  1500    53914   54000      0    1.65e+00    0    1.15e+00
2006 06 28  1505    53914   54300      0    1.66e+00    0    1.16e+00
2006 06 28  1510    53914   54600      0    1.66e+00    0    1.17e+00
2006 06 28  1515    53914   54900      0    1.67e+00    0    1.17e+00
2006 06 28  1520    53914   55200      0    1.65e+00    0    1.15e+00
2006 06 28  1525    53914   55500      0    1.65e+00    0    1.15e+00
2006 06 28  1530    53914   55800      0    1.70e+00    0    1.18e+00
2006 06 28  1535    53914   56100      0    1.68e+00    0    1.18e+00
2006 06 28  1540    53914   56400      0    1.66e+00    0    1.17e+00
2006 06 28  1545    53914   56700      0    1.68e+00    0    1.17e+00
2006 06 28  1550    53914   57000      0    1.67e+00    0    1.18e+00
2006 06 28  1555    53914   57300      0    1.67e+00    0    1.17e+00
2006 06 28  1600    53914   57600      0    1.61e+00    0    1.12e+00
2006 06 28  1605    53914   57900      0    1.55e+00    0    1.08e+00
2006 06 28  1610    53914   58200      0    1.68e+00    0    1.17e+00
2006 06 28  1615    53914   58500      0    1.69e+00    0    1.18e+00
2006 06 28  1620    53914   58800      0    1.63e+00    0    1.14e+00
2006 06 28  1625    53914   59100      0    1.66e+00    0    1.16e+00
2006 06 28  1630    53914   59400      0    1.67e+00    0    1.15e+00
2006 06 28  1635    53914   59700      0    1.70e+00    0    1.20e+00
2006 06 28  1640    53914   60000      0    1.69e+00    0    1.18e+00
2006 06 28  1645    53914   60300      0    1.65e+00    0    1.15e+00
2006 06 28  1650    53914   60600      0    1.66e+00    0    1.16e+00
2006 06 28  1655    53914   60900      0    1.64e+00    0    1.15e+00
2006 06 28  1700    53914   61200      0    1.65e+00    0    1.15e+00
2006 06 28  1705    53914   61500      0    1.69e+00    0    1.18e+00
2006 06 28  1710    53914   61800      0    1.68e+00    0    1.18e+00
2006 06 28  1715    53914   62100      0    1.65e+00    0    1.15e+00
2006 06 28  1720    53914   62400      0    1.67e+00    0    1.17e+00
2006 06 28  1725    53914   62700      0    1.62e+00    0    1.13e+00
2006 06 28  1730    53914   63000      0    1.68e+00    0    1.17e+00
2006 06 28  1735    53914   63300      0    1.66e+00    0    1.16e+00
2006 06 28  1740    53914   63600      0    1.66e+00    0    1.18e+00
2006 06 28  1745    53914   63900      0    1.66e+00    0    1.16e+00
2006 06 28  1750    53914   64200      0    1.68e+00    0    1.17e+00
2006 06 28  1755    53914   64500      0    1.71e+00    0    1.21e+00
2006 06 28  1800    53914   64800      0    1.66e+00    0    1.18e+00
2006 06 28  1805    53914   65100      0    1.73e+00    0    1.21e+00
2006 06 28  1810    53914   65400      0    1.65e+00    0    1.15e+00
2006 06 28  1815    53914   65700      0    1.64e+00    0    1.14e+00
2006 06 28  1820    53914   66000      0    1.64e+00    0    1.15e+00
2006 06 28  1825    53914   66300      0    1.70e+00    0    1.18e+00
2006 06 28  1830    53914   66600      0    1.65e+00    0    1.17e+00
2006 06 28  1835    53914   66900      0    1.65e+00    0    1.16e+00
2006 06 28  1840    53914   67200      0    1.69e+00    0    1.18e+00
2006 06 28  1845    53914   67500      0    1.62e+00    0    1.14e+00
2006 06 28  1850    53914   67800      0    1.66e+00    0    1.17e+00
2006 06 28  1855    53914   68100      0    1.69e+00    0    1.18e+00
2006 06 28  1900    53914   68400      0    1.63e+00    0    1.14e+00
2006 06 28  1905    53914   68700      0    1.68e+00    0    1.17e+00
2006 06 28  1910    53914   69000      0    1.69e+00    0    1.19e+00
2006 06 28  1915    53914   69300      0    1.69e+00    0    1.19e+00
2006 06 28  1920    53914   69600      0    1.66e+00    0    1.17e+00
2006 06 28  1925    53914   69900      0    1.63e+00    0    1.15e+00
2006 06 28  1930    53914   70200      0    1.64e+00    0    1.15e+00
2006 06 28  1935    53914   70500      0    1.72e+00    0    1.20e+00
2006 06 28  1940    53914   70800      0    1.70e+00    0    1.19e+00
2006 06 28  1945    53914   71100      0    1.65e+00    0    1.15e+00
2006 06 28  1950    53914   71400      0    1.65e+00    0    1.16e+00
2006 06 28  1955    53914   71700      0    1.68e+00    0    1.18e+00
2006 06 28  2000    53914   72000      0    1.68e+00    0    1.17e+00
2006 06 28  2005    53914   72300      0    1.67e+00    0    1.17e+00
2006 06 28  2010    53914   72600      0    1.67e+00    0    1.16e+00
2006 06 28  2015    53914   72900      0    1.66e+00    0    1.15e+00
2006 06 28  2020    53914   73200      0    1.65e+00    0    1.15e+00
2006 06 28  2025    53914   73500      0    1.66e+00    0    1.17e+00
2006 06 28  2030    53914   73800      0    1.68e+00    0    1.18e+00
2006 06 28  2035    53914   74100      0    1.64e+00    0    1.15e+00
2006 06 28  2040    53914   74400      0    1.66e+00    0    1.15e+00
2006 06 28  2045    53914   74700      0    1.64e+00    0    1.16e+00
2006 06 28  2050    53914   75000      0    1.65e+00    0    1.15e+00
2006 06 28  2055    53914   75300      0    1.66e+00    0    1.16e+00
2006 06 28  2100    53914   75600      0    1.67e+00    0    1.17e+00
2006 06 28  2105    53914   75900      0    1.65e+00    0    1.16e+00
2006 06 28  2110    53914   76200      0    1.64e+00    0    1.15e+00
2006 06 28  2115    53914   76500      0    1.69e+00    0    1.19e+00
2006 06 28  2120    53914   76800      0    1.66e+00    0    1.16e+00
2006 06 28  2125    53914   77100      0    1.65e+00    0    1.15e+00
2006 06 28  2130    53914   77400      0    1.65e+00    0    1.16e+00
2006 06 28  2135    53914   77700      0    1.64e+00    0    1.14e+00
2006 06 28  2140    53914   78000      0    1.64e+00    0    1.14e+00
2006 06 28  2145    53914   78300      0    1.66e+00    0    1.17e+00
2006 06 28  2150    53914   78600      0    1.65e+00    0    1.16e+00
2006 06 28  2155    53914   78900      0    1.64e+00    0    1.14e+00
2006 06 28  2200    53914   79200      0    1.66e+00    0    1.16e+00
2006 06 28  2205    53914   79500      0    1.69e+00    0    1.18e+00
2006 06 28  2210    53914   79800      0    1.66e+00    0    1.17e+00
2006 06 28  2215    53914   80100      0    1.67e+00    0    1.17e+00
2006 06 28  2220    53914   80400      0    1.65e+00    0    1.16e+00
2006 06 28  2225    53914   80700      0    1.68e+00    0    1.18e+00
2006 06 28  2230    53914   81000      0    1.66e+00    0    1.18e+00
2006 06 28  2235    53914   81300      0    1.67e+00    0    1.17e+00
2006 06 28  2240    53914   81600      0    1.67e+00    0    1.17e+00
2006 06 28  2245    53914   81900      0    1.66e+00    0    1.17e+00
2006 06 28  2250    53914   82200      0    1.66e+00    0    1.17e+00
2006 06 28  2255    53914   82500      0    1.65e+00    0    1.15e+00
2006 06 28  2300    53914   82800      0    1.65e+00    0    1.15e+00
2006 06 28  2305    53914   83100      0    1.66e+00    0    1.16e+00
2006 06 28  2310    53914   83400      0    1.65e+00    0    1.16e+00
2006 06 28  2315    53914   83700      0    1.67e+00    0    1.16e+00
2006 06 28  2320    53914   84000      0    1.71e+00    0    1.19e+00
2006 06 28  2325    53914   84300      0    1.69e+00    0    1.19e+00
2006 06 28  2330    53914   84600      0    1.67e+00    0    1.18e+00
2006 06 28  2335    53914   84900      0    1.68e+00    0    1.18e+00
2006 06 28  2340    53914   85200      0    1.67e+00    0    1.16e+00
2006 06 28  2345    53914   85500      0    1.67e+00    0    1.16e+00
2006 06 28  2350    53914   85800      0    1.64e+00    0    1.14e+00
2006 06 28  2355    53914   86100      0    1.64e+00    0    1.15e+00
