:Data_list: 20060521_ace_sis_5m.txt
:Created: 2006 May 22 0011 UT
# Prepared by the U.S. Dept. of Commerce, NOAA, Space Environment Center.
# Please send comments and suggestions to SEC.Webmaster@noaa.gov 
# 
# Units: proton flux p/cs2-sec-ster
# Status(S): 0 = nominal data, 1 to 8 = bad data record, 9 = no data
# Missing data values: -1.00e+05
# Source: ACE Satellite - Solar Isotope Spectrometer
#
# 5-minute averaged Real-time Integral Flux of High-energy Solar Protons
# 
#                 Modified Seconds
# UT Date   Time   Julian  of the      ---- Integral Proton Flux ----
# YR MO DA  HHMM     Day     Day       S    > 10 MeV    S    > 30 MeV
#--------------------------------------------------------------------
2006 05 21  0000    53876       0      0    1.60e+00    0    1.12e+00
2006 05 21  0005    53876     300      0    1.56e+00    0    1.09e+00
2006 05 21  0010    53876     600      0    1.57e+00    0    1.10e+00
2006 05 21  0015    53876     900      0    1.59e+00    0    1.10e+00
2006 05 21  0020    53876    1200      0    1.62e+00    0    1.13e+00
2006 05 21  0025    53876    1500      0    1.65e+00    0    1.16e+00
2006 05 21  0030    53876    1800      0    1.58e+00    0    1.10e+00
2006 05 21  0035    53876    2100      0    1.49e+00    0    1.04e+00
2006 05 21  0040    53876    2400      0    1.60e+00    0    1.13e+00
2006 05 21  0045    53876    2700      0    1.62e+00    0    1.13e+00
2006 05 21  0050    53876    3000      0    1.59e+00    0    1.11e+00
2006 05 21  0055    53876    3300      0    1.59e+00    0    1.11e+00
2006 05 21  0100    53876    3600      0    1.59e+00    0    1.12e+00
2006 05 21  0105    53876    3900      0    1.57e+00    0    1.11e+00
2006 05 21  0110    53876    4200      0    1.57e+00    0    1.10e+00
2006 05 21  0115    53876    4500      0    1.59e+00    0    1.14e+00
2006 05 21  0120    53876    4800      0    1.57e+00    0    1.11e+00
2006 05 21  0125    53876    5100      0    1.59e+00    0    1.12e+00
2006 05 21  0130    53876    5400      0    1.59e+00    0    1.11e+00
2006 05 21  0135    53876    5700      0    1.56e+00    0    1.10e+00
2006 05 21  0140    53876    6000      0    1.59e+00    0    1.12e+00
2006 05 21  0145    53876    6300      0    1.54e+00    0    1.07e+00
2006 05 21  0150    53876    6600      0    1.58e+00    0    1.10e+00
2006 05 21  0155    53876    6900      0    1.57e+00    0    1.10e+00
2006 05 21  0200    53876    7200      0    1.57e+00    0    1.11e+00
2006 05 21  0205    53876    7500      0    1.58e+00    0    1.10e+00
2006 05 21  0210    53876    7800      0    1.62e+00    0    1.16e+00
2006 05 21  0215    53876    8100      0    1.59e+00    0    1.11e+00
2006 05 21  0220    53876    8400      0    1.59e+00    0    1.12e+00
2006 05 21  0225    53876    8700      0    1.57e+00    0    1.10e+00
2006 05 21  0230    53876    9000      0    1.58e+00    0    1.11e+00
2006 05 21  0235    53876    9300      0    1.55e+00    0    1.09e+00
2006 05 21  0240    53876    9600      0    1.60e+00    0    1.13e+00
2006 05 21  0245    53876    9900      0    1.57e+00    0    1.09e+00
2006 05 21  0250    53876   10200      0    1.58e+00    0    1.12e+00
2006 05 21  0255    53876   10500      0    1.57e+00    0    1.09e+00
2006 05 21  0300    53876   10800      0    1.59e+00    0    1.11e+00
2006 05 21  0305    53876   11100      0    1.59e+00    0    1.11e+00
2006 05 21  0310    53876   11400      0    1.61e+00    0    1.13e+00
2006 05 21  0315    53876   11700      0    1.59e+00    0    1.11e+00
2006 05 21  0320    53876   12000      0    1.57e+00    0    1.09e+00
2006 05 21  0325    53876   12300      0    1.60e+00    0    1.12e+00
2006 05 21  0330    53876   12600      0    1.57e+00    0    1.10e+00
2006 05 21  0335    53876   12900      0    1.58e+00    0    1.10e+00
2006 05 21  0340    53876   13200      0    1.59e+00    0    1.11e+00
2006 05 21  0345    53876   13500      0    1.59e+00    0    1.12e+00
2006 05 21  0350    53876   13800      0    1.60e+00    0    1.12e+00
2006 05 21  0355    53876   14100      0    1.57e+00    0    1.11e+00
2006 05 21  0400    53876   14400      0    1.61e+00    0    1.14e+00
2006 05 21  0405    53876   14700      0    1.54e+00    0    1.09e+00
2006 05 21  0410    53876   15000      0    1.55e+00    0    1.08e+00
2006 05 21  0415    53876   15300      0    1.58e+00    0    1.12e+00
2006 05 21  0420    53876   15600      0    1.60e+00    0    1.11e+00
2006 05 21  0425    53876   15900      0    1.60e+00    0    1.12e+00
2006 05 21  0430    53876   16200      0    1.61e+00    0    1.14e+00
2006 05 21  0435    53876   16500      0    1.55e+00    0    1.07e+00
2006 05 21  0440    53876   16800      0    1.57e+00    0    1.11e+00
2006 05 21  0445    53876   17100      0    1.55e+00    0    1.09e+00
2006 05 21  0450    53876   17400      0    1.58e+00    0    1.10e+00
2006 05 21  0455    53876   17700      0    1.62e+00    0    1.12e+00
2006 05 21  0500    53876   18000      0    1.59e+00    0    1.12e+00
2006 05 21  0505    53876   18300      0    1.57e+00    0    1.10e+00
2006 05 21  0510    53876   18600      0    1.56e+00    0    1.09e+00
2006 05 21  0515    53876   18900      0    1.60e+00    0    1.12e+00
2006 05 21  0520    53876   19200      0    1.59e+00    0    1.11e+00
2006 05 21  0525    53876   19500      0    1.60e+00    0    1.11e+00
2006 05 21  0530    53876   19800      0    1.62e+00    0    1.14e+00
2006 05 21  0535    53876   20100      0    1.65e+00    0    1.16e+00
2006 05 21  0540    53876   20400      0    1.62e+00    0    1.13e+00
2006 05 21  0545    53876   20700      0    1.62e+00    0    1.14e+00
2006 05 21  0550    53876   21000      0    1.62e+00    0    1.13e+00
2006 05 21  0555    53876   21300      0    1.58e+00    0    1.12e+00
2006 05 21  0600    53876   21600      0    1.59e+00    0    1.12e+00
2006 05 21  0605    53876   21900      0    1.58e+00    0    1.10e+00
2006 05 21  0610    53876   22200      0    1.61e+00    0    1.14e+00
2006 05 21  0615    53876   22500      0    1.61e+00    0    1.14e+00
2006 05 21  0620    53876   22800      0    1.62e+00    0    1.14e+00
2006 05 21  0625    53876   23100      0    1.58e+00    0    1.10e+00
2006 05 21  0630    53876   23400      0    1.58e+00    0    1.10e+00
2006 05 21  0635    53876   23700      0    1.59e+00    0    1.12e+00
2006 05 21  0640    53876   24000      0    1.58e+00    0    1.12e+00
2006 05 21  0645    53876   24300      0    1.58e+00    0    1.12e+00
2006 05 21  0650    53876   24600      0    1.59e+00    0    1.12e+00
2006 05 21  0655    53876   24900      0    1.58e+00    0    1.11e+00
2006 05 21  0700    53876   25200      0    1.58e+00    0    1.12e+00
2006 05 21  0705    53876   25500      0    1.60e+00    0    1.12e+00
2006 05 21  0710    53876   25800      0    1.61e+00    0    1.13e+00
2006 05 21  0715    53876   26100      0    1.58e+00    0    1.11e+00
2006 05 21  0720    53876   26400      0    1.61e+00    0    1.13e+00
2006 05 21  0725    53876   26700      0    1.58e+00    0    1.11e+00
2006 05 21  0730    53876   27000      0    1.57e+00    0    1.10e+00
2006 05 21  0735    53876   27300      0    1.61e+00    0    1.12e+00
2006 05 21  0740    53876   27600      0    1.58e+00    0    1.11e+00
2006 05 21  0745    53876   27900      0    1.57e+00    0    1.10e+00
2006 05 21  0750    53876   28200      0    1.58e+00    0    1.10e+00
2006 05 21  0755    53876   28500      0    1.62e+00    0    1.14e+00
2006 05 21  0800    53876   28800      0    1.63e+00    0    1.15e+00
2006 05 21  0805    53876   29100      0    1.56e+00    0    1.09e+00
2006 05 21  0810    53876   29400      0    1.64e+00    0    1.15e+00
2006 05 21  0815    53876   29700      0    1.59e+00    0    1.13e+00
2006 05 21  0820    53876   30000      0    1.59e+00    0    1.12e+00
2006 05 21  0825    53876   30300      0    1.59e+00    0    1.11e+00
2006 05 21  0830    53876   30600      0    1.59e+00    0    1.12e+00
2006 05 21  0835    53876   30900      0    1.59e+00    0    1.12e+00
2006 05 21  0840    53876   31200      0    1.57e+00    0    1.11e+00
2006 05 21  0845    53876   31500      0    1.59e+00    0    1.12e+00
2006 05 21  0850    53876   31800      0    1.62e+00    0    1.14e+00
2006 05 21  0855    53876   32100      0    1.61e+00    0    1.13e+00
2006 05 21  0900    53876   32400      0    1.57e+00    0    1.09e+00
2006 05 21  0905    53876   32700      0    1.57e+00    0    1.11e+00
2006 05 21  0910    53876   33000      0    1.61e+00    0    1.12e+00
2006 05 21  0915    53876   33300      0    1.60e+00    0    1.12e+00
2006 05 21  0920    53876   33600      0    1.57e+00    0    1.11e+00
2006 05 21  0925    53876   33900      0    1.61e+00    0    1.12e+00
2006 05 21  0930    53876   34200      0    1.58e+00    0    1.11e+00
2006 05 21  0935    53876   34500      0    1.59e+00    0    1.11e+00
2006 05 21  0940    53876   34800      0    1.63e+00    0    1.14e+00
2006 05 21  0945    53876   35100      0    1.60e+00    0    1.11e+00
2006 05 21  0950    53876   35400      0    1.59e+00    0    1.10e+00
2006 05 21  0955    53876   35700      0    1.60e+00    0    1.13e+00
2006 05 21  1000    53876   36000      0    1.59e+00    0    1.12e+00
2006 05 21  1005    53876   36300      0    1.61e+00    0    1.12e+00
2006 05 21  1010    53876   36600      0    1.59e+00    0    1.11e+00
2006 05 21  1015    53876   36900      0    1.61e+00    0    1.12e+00
2006 05 21  1020    53876   37200      0    1.60e+00    0    1.12e+00
2006 05 21  1025    53876   37500      0    1.59e+00    0    1.11e+00
2006 05 21  1030    53876   37800      0    1.61e+00    0    1.13e+00
2006 05 21  1035    53876   38100      0    1.58e+00    0    1.10e+00
2006 05 21  1040    53876   38400      0    1.60e+00    0    1.12e+00
2006 05 21  1045    53876   38700      0    1.57e+00    0    1.10e+00
2006 05 21  1050    53876   39000      0    1.60e+00    0    1.11e+00
2006 05 21  1055    53876   39300      0    1.59e+00    0    1.12e+00
2006 05 21  1100    53876   39600      0    1.58e+00    0    1.10e+00
2006 05 21  1105    53876   39900      0    1.58e+00    0    1.11e+00
2006 05 21  1110    53876   40200      0    1.57e+00    0    1.12e+00
2006 05 21  1115    53876   40500      0    1.63e+00    0    1.13e+00
2006 05 21  1120    53876   40800      0    1.58e+00    0    1.10e+00
2006 05 21  1125    53876   41100      0    1.59e+00    0    1.11e+00
2006 05 21  1130    53876   41400      0    1.58e+00    0    1.11e+00
2006 05 21  1135    53876   41700      0    1.57e+00    0    1.09e+00
2006 05 21  1140    53876   42000      0    1.58e+00    0    1.11e+00
2006 05 21  1145    53876   42300      0    1.54e+00    0    1.08e+00
2006 05 21  1150    53876   42600      0    1.59e+00    0    1.12e+00
2006 05 21  1155    53876   42900      0    1.61e+00    0    1.13e+00
2006 05 21  1200    53876   43200      0    1.56e+00    0    1.08e+00
2006 05 21  1205    53876   43500      0    1.56e+00    0    1.10e+00
2006 05 21  1210    53876   43800      0    1.58e+00    0    1.11e+00
2006 05 21  1215    53876   44100      0    1.58e+00    0    1.10e+00
2006 05 21  1220    53876   44400      0    1.61e+00    0    1.13e+00
2006 05 21  1225    53876   44700      0    1.61e+00    0    1.13e+00
2006 05 21  1230    53876   45000      0    1.59e+00    0    1.12e+00
2006 05 21  1235    53876   45300      0    1.60e+00    0    1.12e+00
2006 05 21  1240    53876   45600      0    1.60e+00    0    1.11e+00
2006 05 21  1245    53876   45900      0    1.62e+00    0    1.14e+00
2006 05 21  1250    53876   46200      0    1.60e+00    0    1.12e+00
2006 05 21  1255    53876   46500      0    1.61e+00    0    1.12e+00
2006 05 21  1300    53876   46800      0    1.59e+00    0    1.11e+00
2006 05 21  1305    53876   47100      0    1.59e+00    0    1.11e+00
2006 05 21  1310    53876   47400      0    1.57e+00    0    1.10e+00
2006 05 21  1315    53876   47700      0    1.59e+00    0    1.10e+00
2006 05 21  1320    53876   48000      0    1.60e+00    0    1.12e+00
2006 05 21  1325    53876   48300      0    1.57e+00    0    1.10e+00
2006 05 21  1330    53876   48600      0    1.57e+00    0    1.10e+00
2006 05 21  1335    53876   48900      0    1.58e+00    0    1.10e+00
2006 05 21  1340    53876   49200      0    1.58e+00    0    1.10e+00
2006 05 21  1345    53876   49500      0    1.59e+00    0    1.11e+00
2006 05 21  1350    53876   49800      0    1.60e+00    0    1.12e+00
2006 05 21  1355    53876   50100      0    1.59e+00    0    1.10e+00
2006 05 21  1400    53876   50400      0    1.61e+00    0    1.12e+00
2006 05 21  1405    53876   50700      0    1.58e+00    0    1.11e+00
2006 05 21  1410    53876   51000      0    1.61e+00    0    1.13e+00
2006 05 21  1415    53876   51300      0    1.57e+00    0    1.09e+00
2006 05 21  1420    53876   51600      0    1.59e+00    0    1.11e+00
2006 05 21  1425    53876   51900      0    1.58e+00    0    1.10e+00
2006 05 21  1430    53876   52200      0    1.61e+00    0    1.12e+00
2006 05 21  1435    53876   52500      0    1.60e+00    0    1.13e+00
2006 05 21  1440    53876   52800      0    1.60e+00    0    1.13e+00
2006 05 21  1445    53876   53100      0    1.58e+00    0    1.10e+00
2006 05 21  1450    53876   53400      0    1.57e+00    0    1.11e+00
2006 05 21  1455    53876   53700      0    1.59e+00    0    1.11e+00
2006 05 21  1500    53876   54000      0    1.60e+00    0    1.12e+00
2006 05 21  1505    53876   54300      0    1.58e+00    0    1.11e+00
2006 05 21  1510    53876   54600      0    1.62e+00    0    1.13e+00
2006 05 21  1515    53876   54900      0    1.58e+00    0    1.10e+00
2006 05 21  1520    53876   55200      0    1.60e+00    0    1.13e+00
2006 05 21  1525    53876   55500      0    1.57e+00    0    1.10e+00
2006 05 21  1530    53876   55800      0    1.60e+00    0    1.11e+00
2006 05 21  1535    53876   56100      0    1.58e+00    0    1.11e+00
2006 05 21  1540    53876   56400      0    1.61e+00    0    1.13e+00
2006 05 21  1545    53876   56700      0    1.59e+00    0    1.11e+00
2006 05 21  1550    53876   57000      0    1.61e+00    0    1.14e+00
2006 05 21  1555    53876   57300      0    1.58e+00    0    1.11e+00
2006 05 21  1600    53876   57600      0    1.61e+00    0    1.13e+00
2006 05 21  1605    53876   57900      0    1.58e+00    0    1.09e+00
2006 05 21  1610    53876   58200      0    1.57e+00    0    1.10e+00
2006 05 21  1615    53876   58500      0    1.58e+00    0    1.11e+00
2006 05 21  1620    53876   58800      0    1.61e+00    0    1.14e+00
2006 05 21  1625    53876   59100      0    1.60e+00    0    1.13e+00
2006 05 21  1630    53876   59400      0    1.59e+00    0    1.11e+00
2006 05 21  1635    53876   59700      0    1.60e+00    0    1.12e+00
2006 05 21  1640    53876   60000      0    1.60e+00    0    1.13e+00
2006 05 21  1645    53876   60300      0    1.56e+00    0    1.08e+00
2006 05 21  1650    53876   60600      0    1.57e+00    0    1.10e+00
2006 05 21  1655    53876   60900      0    1.61e+00    0    1.12e+00
2006 05 21  1700    53876   61200      0    1.62e+00    0    1.15e+00
2006 05 21  1705    53876   61500      0    1.59e+00    0    1.14e+00
2006 05 21  1710    53876   61800      0    1.59e+00    0    1.12e+00
2006 05 21  1715    53876   62100      0    1.57e+00    0    1.09e+00
2006 05 21  1720    53876   62400      0    1.55e+00    0    1.08e+00
2006 05 21  1725    53876   62700      0    1.56e+00    0    1.10e+00
2006 05 21  1730    53876   63000      0    1.59e+00    0    1.13e+00
2006 05 21  1735    53876   63300      0    1.57e+00    0    1.09e+00
2006 05 21  1740    53876   63600      0    1.56e+00    0    1.09e+00
2006 05 21  1745    53876   63900      0    1.58e+00    0    1.12e+00
2006 05 21  1750    53876   64200      0    1.59e+00    0    1.12e+00
2006 05 21  1755    53876   64500      0    1.57e+00    0    1.10e+00
2006 05 21  1800    53876   64800      0    1.61e+00    0    1.13e+00
2006 05 21  1805    53876   65100      0    1.59e+00    0    1.11e+00
2006 05 21  1810    53876   65400      0    1.59e+00    0    1.12e+00
2006 05 21  1815    53876   65700      0    1.63e+00    0    1.15e+00
2006 05 21  1820    53876   66000      0    1.58e+00    0    1.11e+00
2006 05 21  1825    53876   66300      0    1.60e+00    0    1.13e+00
2006 05 21  1830    53876   66600      0    1.60e+00    0    1.13e+00
2006 05 21  1835    53876   66900      0    1.57e+00    0    1.10e+00
2006 05 21  1840    53876   67200      0    1.59e+00    0    1.12e+00
2006 05 21  1845    53876   67500      0    1.61e+00    0    1.12e+00
2006 05 21  1850    53876   67800      0    1.59e+00    0    1.11e+00
2006 05 21  1855    53876   68100      0    1.60e+00    0    1.12e+00
2006 05 21  1900    53876   68400      0    1.60e+00    0    1.11e+00
2006 05 21  1905    53876   68700      0    1.57e+00    0    1.09e+00
2006 05 21  1910    53876   69000      0    1.66e+00    0    1.16e+00
2006 05 21  1915    53876   69300      0    1.61e+00    0    1.13e+00
2006 05 21  1920    53876   69600      0    1.60e+00    0    1.10e+00
2006 05 21  1925    53876   69900      0    1.57e+00    0    1.10e+00
2006 05 21  1930    53876   70200      0    1.59e+00    0    1.11e+00
2006 05 21  1935    53876   70500      0    1.64e+00    0    1.16e+00
2006 05 21  1940    53876   70800      0    1.55e+00    0    1.08e+00
2006 05 21  1945    53876   71100      0    1.60e+00    0    1.13e+00
2006 05 21  1950    53876   71400      0    1.63e+00    0    1.15e+00
2006 05 21  1955    53876   71700      0    1.61e+00    0    1.14e+00
2006 05 21  2000    53876   72000      0    1.58e+00    0    1.11e+00
2006 05 21  2005    53876   72300      0    1.56e+00    0    1.09e+00
2006 05 21  2010    53876   72600      0    1.60e+00    0    1.12e+00
2006 05 21  2015    53876   72900      0    1.58e+00    0    1.11e+00
2006 05 21  2020    53876   73200      0    1.62e+00    0    1.13e+00
2006 05 21  2025    53876   73500      0    1.60e+00    0    1.13e+00
2006 05 21  2030    53876   73800      0    1.60e+00    0    1.12e+00
2006 05 21  2035    53876   74100      0    1.56e+00    0    1.11e+00
2006 05 21  2040    53876   74400      0    1.60e+00    0    1.12e+00
2006 05 21  2045    53876   74700      0    1.58e+00    0    1.11e+00
2006 05 21  2050    53876   75000      0    1.60e+00    0    1.13e+00
2006 05 21  2055    53876   75300      0    1.59e+00    0    1.10e+00
2006 05 21  2100    53876   75600      0    1.60e+00    0    1.12e+00
2006 05 21  2105    53876   75900      0    1.60e+00    0    1.13e+00
2006 05 21  2110    53876   76200      0    1.59e+00    0    1.12e+00
2006 05 21  2115    53876   76500      0    1.60e+00    0    1.12e+00
2006 05 21  2120    53876   76800      0    1.59e+00    0    1.12e+00
2006 05 21  2125    53876   77100      0    1.57e+00    0    1.10e+00
2006 05 21  2130    53876   77400      0    1.60e+00    0    1.14e+00
2006 05 21  2135    53876   77700      0    1.56e+00    0    1.08e+00
2006 05 21  2140    53876   78000      0    1.57e+00    0    1.10e+00
2006 05 21  2145    53876   78300      0    1.61e+00    0    1.13e+00
2006 05 21  2150    53876   78600      0    1.63e+00    0    1.14e+00
2006 05 21  2155    53876   78900      0    1.58e+00    0    1.10e+00
2006 05 21  2200    53876   79200      0    1.59e+00    0    1.12e+00
2006 05 21  2205    53876   79500      0    1.57e+00    0    1.10e+00
2006 05 21  2210    53876   79800      0    1.60e+00    0    1.13e+00
2006 05 21  2215    53876   80100      0    1.62e+00    0    1.15e+00
2006 05 21  2220    53876   80400      0    1.59e+00    0    1.12e+00
2006 05 21  2225    53876   80700      0    1.62e+00    0    1.13e+00
2006 05 21  2230    53876   81000      0    1.55e+00    0    1.09e+00
2006 05 21  2235    53876   81300      0    1.61e+00    0    1.14e+00
2006 05 21  2240    53876   81600      0    1.59e+00    0    1.12e+00
2006 05 21  2245    53876   81900      0    1.57e+00    0    1.10e+00
2006 05 21  2250    53876   82200      0    1.59e+00    0    1.10e+00
2006 05 21  2255    53876   82500      0    1.57e+00    0    1.11e+00
2006 05 21  2300    53876   82800      0    1.60e+00    0    1.13e+00
2006 05 21  2305    53876   83100      0    1.57e+00    0    1.11e+00
2006 05 21  2310    53876   83400      0    1.58e+00    0    1.11e+00
2006 05 21  2315    53876   83700      0    1.60e+00    0    1.11e+00
2006 05 21  2320    53876   84000      0    1.61e+00    0    1.14e+00
2006 05 21  2325    53876   84300      0    1.59e+00    0    1.11e+00
2006 05 21  2330    53876   84600      0    1.59e+00    0    1.12e+00
2006 05 21  2335    53876   84900      0    1.59e+00    0    1.12e+00
2006 05 21  2340    53876   85200      0    1.58e+00    0    1.10e+00
2006 05 21  2345    53876   85500      0    1.59e+00    0    1.12e+00
2006 05 21  2350    53876   85800      0    1.54e+00    0    1.07e+00
2006 05 21  2355    53876   86100      0    1.59e+00    0    1.10e+00
