:Data_list: 20061203_ace_sis_5m.txt
:Created: 2006 Dec 04 0011 UT
# Prepared by the U.S. Dept. of Commerce, NOAA, Space Environment Center.
# Please send comments and suggestions to SEC.Webmaster@noaa.gov 
# 
# Units: proton flux p/cs2-sec-ster
# Status(S): 0 = nominal data, 1 to 8 = bad data record, 9 = no data
# Missing data values: -1.00e+05
# Source: ACE Satellite - Solar Isotope Spectrometer
#
# 5-minute averaged Real-time Integral Flux of High-energy Solar Protons
# 
#                 Modified Seconds
# UT Date   Time   Julian  of the      ---- Integral Proton Flux ----
# YR MO DA  HHMM     Day     Day       S    > 10 MeV    S    > 30 MeV
#--------------------------------------------------------------------
2006 12 03  0000    54072       0      9   -1.00e+05    9   -1.00e+05
2006 12 03  0005    54072     300      9   -1.00e+05    9   -1.00e+05
2006 12 03  0010    54072     600      9   -1.00e+05    9   -1.00e+05
2006 12 03  0015    54072     900      9   -1.00e+05    9   -1.00e+05
2006 12 03  0020    54072    1200      9   -1.00e+05    9   -1.00e+05
2006 12 03  0025    54072    1500      9   -1.00e+05    9   -1.00e+05
2006 12 03  0030    54072    1800      9   -1.00e+05    9   -1.00e+05
2006 12 03  0035    54072    2100      9   -1.00e+05    9   -1.00e+05
2006 12 03  0040    54072    2400      9   -1.00e+05    9   -1.00e+05
2006 12 03  0045    54072    2700      9   -1.00e+05    9   -1.00e+05
2006 12 03  0050    54072    3000      9   -1.00e+05    9   -1.00e+05
2006 12 03  0055    54072    3300      9   -1.00e+05    9   -1.00e+05
2006 12 03  0100    54072    3600      9   -1.00e+05    9   -1.00e+05
2006 12 03  0105    54072    3900      9   -1.00e+05    9   -1.00e+05
2006 12 03  0110    54072    4200      9   -1.00e+05    9   -1.00e+05
2006 12 03  0115    54072    4500      9   -1.00e+05    9   -1.00e+05
2006 12 03  0120    54072    4800      9   -1.00e+05    9   -1.00e+05
2006 12 03  0125    54072    5100      9   -1.00e+05    9   -1.00e+05
2006 12 03  0130    54072    5400      9   -1.00e+05    9   -1.00e+05
2006 12 03  0135    54072    5700      9   -1.00e+05    9   -1.00e+05
2006 12 03  0140    54072    6000      9   -1.00e+05    9   -1.00e+05
2006 12 03  0145    54072    6300      9   -1.00e+05    9   -1.00e+05
2006 12 03  0150    54072    6600      9   -1.00e+05    9   -1.00e+05
2006 12 03  0155    54072    6900      9   -1.00e+05    9   -1.00e+05
2006 12 03  0200    54072    7200      9   -1.00e+05    9   -1.00e+05
2006 12 03  0205    54072    7500      9   -1.00e+05    9   -1.00e+05
2006 12 03  0210    54072    7800      9   -1.00e+05    9   -1.00e+05
2006 12 03  0215    54072    8100      9   -1.00e+05    9   -1.00e+05
2006 12 03  0220    54072    8400      9   -1.00e+05    9   -1.00e+05
2006 12 03  0225    54072    8700      9   -1.00e+05    9   -1.00e+05
2006 12 03  0230    54072    9000      9   -1.00e+05    9   -1.00e+05
2006 12 03  0235    54072    9300      9   -1.00e+05    9   -1.00e+05
2006 12 03  0240    54072    9600      9   -1.00e+05    9   -1.00e+05
2006 12 03  0245    54072    9900      9   -1.00e+05    9   -1.00e+05
2006 12 03  0250    54072   10200      9   -1.00e+05    9   -1.00e+05
2006 12 03  0255    54072   10500      9   -1.00e+05    9   -1.00e+05
2006 12 03  0300    54072   10800      9   -1.00e+05    9   -1.00e+05
2006 12 03  0305    54072   11100      9   -1.00e+05    9   -1.00e+05
2006 12 03  0310    54072   11400      9   -1.00e+05    9   -1.00e+05
2006 12 03  0315    54072   11700      9   -1.00e+05    9   -1.00e+05
2006 12 03  0320    54072   12000      9   -1.00e+05    9   -1.00e+05
2006 12 03  0325    54072   12300      9   -1.00e+05    9   -1.00e+05
2006 12 03  0330    54072   12600      9   -1.00e+05    9   -1.00e+05
2006 12 03  0335    54072   12900      9   -1.00e+05    9   -1.00e+05
2006 12 03  0340    54072   13200      9   -1.00e+05    9   -1.00e+05
2006 12 03  0345    54072   13500      9   -1.00e+05    9   -1.00e+05
2006 12 03  0350    54072   13800      9   -1.00e+05    9   -1.00e+05
2006 12 03  0355    54072   14100      9   -1.00e+05    9   -1.00e+05
2006 12 03  0400    54072   14400      9   -1.00e+05    9   -1.00e+05
2006 12 03  0405    54072   14700      9   -1.00e+05    9   -1.00e+05
2006 12 03  0410    54072   15000      9   -1.00e+05    9   -1.00e+05
2006 12 03  0415    54072   15300      9   -1.00e+05    9   -1.00e+05
2006 12 03  0420    54072   15600      9   -1.00e+05    9   -1.00e+05
2006 12 03  0425    54072   15900      9   -1.00e+05    9   -1.00e+05
2006 12 03  0430    54072   16200      9   -1.00e+05    9   -1.00e+05
2006 12 03  0435    54072   16500      9   -1.00e+05    9   -1.00e+05
2006 12 03  0440    54072   16800      9   -1.00e+05    9   -1.00e+05
2006 12 03  0445    54072   17100      9   -1.00e+05    9   -1.00e+05
2006 12 03  0450    54072   17400      9   -1.00e+05    9   -1.00e+05
2006 12 03  0455    54072   17700      9   -1.00e+05    9   -1.00e+05
2006 12 03  0500    54072   18000      9   -1.00e+05    9   -1.00e+05
2006 12 03  0505    54072   18300      9   -1.00e+05    9   -1.00e+05
2006 12 03  0510    54072   18600      9   -1.00e+05    9   -1.00e+05
2006 12 03  0515    54072   18900      9   -1.00e+05    9   -1.00e+05
2006 12 03  0520    54072   19200      9   -1.00e+05    9   -1.00e+05
2006 12 03  0525    54072   19500      9   -1.00e+05    9   -1.00e+05
2006 12 03  0530    54072   19800      9   -1.00e+05    9   -1.00e+05
2006 12 03  0535    54072   20100      9   -1.00e+05    9   -1.00e+05
2006 12 03  0540    54072   20400      9   -1.00e+05    9   -1.00e+05
2006 12 03  0545    54072   20700      9   -1.00e+05    9   -1.00e+05
2006 12 03  0550    54072   21000      9   -1.00e+05    9   -1.00e+05
2006 12 03  0555    54072   21300      9   -1.00e+05    9   -1.00e+05
2006 12 03  0600    54072   21600      9   -1.00e+05    9   -1.00e+05
2006 12 03  0605    54072   21900      9   -1.00e+05    9   -1.00e+05
2006 12 03  0610    54072   22200      9   -1.00e+05    9   -1.00e+05
2006 12 03  0615    54072   22500      9   -1.00e+05    9   -1.00e+05
2006 12 03  0620    54072   22800      9   -1.00e+05    9   -1.00e+05
2006 12 03  0625    54072   23100      9   -1.00e+05    9   -1.00e+05
2006 12 03  0630    54072   23400      9   -1.00e+05    9   -1.00e+05
2006 12 03  0635    54072   23700      9   -1.00e+05    9   -1.00e+05
2006 12 03  0640    54072   24000      9   -1.00e+05    9   -1.00e+05
2006 12 03  0645    54072   24300      9   -1.00e+05    9   -1.00e+05
2006 12 03  0650    54072   24600      9   -1.00e+05    9   -1.00e+05
2006 12 03  0655    54072   24900      9   -1.00e+05    9   -1.00e+05
2006 12 03  0700    54072   25200      0    1.70e+00    0    1.19e+00
2006 12 03  0705    54072   25500      0    1.74e+00    0    1.23e+00
2006 12 03  0710    54072   25800      0    1.76e+00    0    1.23e+00
2006 12 03  0715    54072   26100      0    1.71e+00    0    1.19e+00
2006 12 03  0720    54072   26400      0    1.73e+00    0    1.21e+00
2006 12 03  0725    54072   26700      0    1.74e+00    0    1.22e+00
2006 12 03  0730    54072   27000      0    1.72e+00    0    1.21e+00
2006 12 03  0735    54072   27300      0    1.74e+00    0    1.22e+00
2006 12 03  0740    54072   27600      0    1.72e+00    0    1.22e+00
2006 12 03  0745    54072   27900      0    1.70e+00    0    1.19e+00
2006 12 03  0750    54072   28200      0    1.73e+00    0    1.22e+00
2006 12 03  0755    54072   28500      0    1.70e+00    0    1.19e+00
2006 12 03  0800    54072   28800      0    1.71e+00    0    1.20e+00
2006 12 03  0805    54072   29100      0    1.75e+00    0    1.21e+00
2006 12 03  0810    54072   29400      0    1.72e+00    0    1.20e+00
2006 12 03  0815    54072   29700      0    1.72e+00    0    1.21e+00
2006 12 03  0820    54072   30000      0    1.72e+00    0    1.21e+00
2006 12 03  0825    54072   30300      0    1.74e+00    0    1.22e+00
2006 12 03  0830    54072   30600      0    1.72e+00    0    1.21e+00
2006 12 03  0835    54072   30900      0    1.72e+00    0    1.20e+00
2006 12 03  0840    54072   31200      0    1.72e+00    0    1.21e+00
2006 12 03  0845    54072   31500      0    1.72e+00    0    1.20e+00
2006 12 03  0850    54072   31800      0    1.75e+00    0    1.23e+00
2006 12 03  0855    54072   32100      0    1.73e+00    0    1.22e+00
2006 12 03  0900    54072   32400      0    1.72e+00    0    1.21e+00
2006 12 03  0905    54072   32700      0    1.73e+00    0    1.21e+00
2006 12 03  0910    54072   33000      0    1.71e+00    0    1.19e+00
2006 12 03  0915    54072   33300      0    1.75e+00    0    1.22e+00
2006 12 03  0920    54072   33600      0    1.70e+00    0    1.19e+00
2006 12 03  0925    54072   33900      0    1.73e+00    0    1.22e+00
2006 12 03  0930    54072   34200      0    1.79e+00    0    1.26e+00
2006 12 03  0935    54072   34500      0    1.73e+00    0    1.22e+00
2006 12 03  0940    54072   34800      0    1.73e+00    0    1.22e+00
2006 12 03  0945    54072   35100      0    1.72e+00    0    1.21e+00
2006 12 03  0950    54072   35400      0    1.76e+00    0    1.23e+00
2006 12 03  0955    54072   35700      0    1.71e+00    0    1.20e+00
2006 12 03  1000    54072   36000      0    1.76e+00    0    1.23e+00
2006 12 03  1005    54072   36300      0    1.72e+00    0    1.19e+00
2006 12 03  1010    54072   36600      0    1.73e+00    0    1.21e+00
2006 12 03  1015    54072   36900      0    1.74e+00    0    1.22e+00
2006 12 03  1020    54072   37200      0    1.78e+00    0    1.25e+00
2006 12 03  1025    54072   37500      0    1.71e+00    0    1.20e+00
2006 12 03  1030    54072   37800      0    1.75e+00    0    1.22e+00
2006 12 03  1035    54072   38100      0    1.74e+00    0    1.22e+00
2006 12 03  1040    54072   38400      0    1.72e+00    0    1.20e+00
2006 12 03  1045    54072   38700      0    1.75e+00    0    1.23e+00
2006 12 03  1050    54072   39000      0    1.74e+00    0    1.23e+00
2006 12 03  1055    54072   39300      0    1.70e+00    0    1.19e+00
2006 12 03  1100    54072   39600      0    1.74e+00    0    1.21e+00
2006 12 03  1105    54072   39900      0    1.75e+00    0    1.22e+00
2006 12 03  1110    54072   40200      0    1.74e+00    0    1.23e+00
2006 12 03  1115    54072   40500      0    1.73e+00    0    1.22e+00
2006 12 03  1120    54072   40800      0    1.75e+00    0    1.22e+00
2006 12 03  1125    54072   41100      0    1.76e+00    0    1.24e+00
2006 12 03  1130    54072   41400      0    1.74e+00    0    1.22e+00
2006 12 03  1135    54072   41700      0    1.74e+00    0    1.22e+00
2006 12 03  1140    54072   42000      0    1.76e+00    0    1.22e+00
2006 12 03  1145    54072   42300      0    1.74e+00    0    1.22e+00
2006 12 03  1150    54072   42600      0    1.76e+00    0    1.24e+00
2006 12 03  1155    54072   42900      0    1.71e+00    0    1.20e+00
2006 12 03  1200    54072   43200      0    1.76e+00    0    1.24e+00
2006 12 03  1205    54072   43500      0    1.74e+00    0    1.22e+00
2006 12 03  1210    54072   43800      0    1.74e+00    0    1.22e+00
2006 12 03  1215    54072   44100      0    1.74e+00    0    1.21e+00
2006 12 03  1220    54072   44400      0    1.75e+00    0    1.22e+00
2006 12 03  1225    54072   44700      0    1.74e+00    0    1.22e+00
2006 12 03  1230    54072   45000      0    1.75e+00    0    1.22e+00
2006 12 03  1235    54072   45300      0    1.78e+00    0    1.26e+00
2006 12 03  1240    54072   45600      0    1.73e+00    0    1.22e+00
2006 12 03  1245    54072   45900      0    1.72e+00    0    1.20e+00
2006 12 03  1250    54072   46200      0    1.73e+00    0    1.22e+00
2006 12 03  1255    54072   46500      0    1.72e+00    0    1.21e+00
2006 12 03  1300    54072   46800      0    1.76e+00    0    1.25e+00
2006 12 03  1305    54072   47100      0    1.74e+00    0    1.22e+00
2006 12 03  1310    54072   47400      0    1.73e+00    0    1.20e+00
2006 12 03  1315    54072   47700      0    1.72e+00    0    1.19e+00
2006 12 03  1320    54072   48000      0    1.76e+00    0    1.23e+00
2006 12 03  1325    54072   48300      0    1.76e+00    0    1.23e+00
2006 12 03  1330    54072   48600      0    1.74e+00    0    1.22e+00
2006 12 03  1335    54072   48900      0    1.73e+00    0    1.21e+00
2006 12 03  1340    54072   49200      0    1.74e+00    0    1.22e+00
2006 12 03  1345    54072   49500      0    1.75e+00    0    1.21e+00
2006 12 03  1350    54072   49800      0    1.72e+00    0    1.20e+00
2006 12 03  1355    54072   50100      0    1.75e+00    0    1.23e+00
2006 12 03  1400    54072   50400      0    1.73e+00    0    1.21e+00
2006 12 03  1405    54072   50700      0    1.75e+00    0    1.23e+00
2006 12 03  1410    54072   51000      0    1.77e+00    0    1.25e+00
2006 12 03  1415    54072   51300      0    1.75e+00    0    1.21e+00
2006 12 03  1420    54072   51600      0    1.74e+00    0    1.22e+00
2006 12 03  1425    54072   51900      0    1.77e+00    0    1.24e+00
2006 12 03  1430    54072   52200      0    1.78e+00    0    1.26e+00
2006 12 03  1435    54072   52500      0    1.75e+00    0    1.21e+00
2006 12 03  1440    54072   52800      0    1.77e+00    0    1.24e+00
2006 12 03  1445    54072   53100      0    1.74e+00    0    1.21e+00
2006 12 03  1450    54072   53400      0    1.75e+00    0    1.23e+00
2006 12 03  1455    54072   53700      0    1.77e+00    0    1.24e+00
2006 12 03  1500    54072   54000      0    1.76e+00    0    1.24e+00
2006 12 03  1505    54072   54300      0    1.78e+00    0    1.23e+00
2006 12 03  1510    54072   54600      0    1.76e+00    0    1.24e+00
2006 12 03  1515    54072   54900      0    1.76e+00    0    1.24e+00
2006 12 03  1520    54072   55200      0    1.79e+00    0    1.25e+00
2006 12 03  1525    54072   55500      0    1.75e+00    0    1.24e+00
2006 12 03  1530    54072   55800      0    1.77e+00    0    1.25e+00
2006 12 03  1535    54072   56100      0    1.75e+00    0    1.23e+00
2006 12 03  1540    54072   56400      0    1.75e+00    0    1.22e+00
2006 12 03  1545    54072   56700      0    1.75e+00    0    1.22e+00
2006 12 03  1550    54072   57000      0    1.77e+00    0    1.26e+00
2006 12 03  1555    54072   57300      0    1.75e+00    0    1.22e+00
2006 12 03  1600    54072   57600      0    1.75e+00    0    1.23e+00
2006 12 03  1605    54072   57900      0    1.74e+00    0    1.21e+00
2006 12 03  1610    54072   58200      0    1.77e+00    0    1.24e+00
2006 12 03  1615    54072   58500      0    1.73e+00    0    1.21e+00
2006 12 03  1620    54072   58800      0    1.76e+00    0    1.24e+00
2006 12 03  1625    54072   59100      0    1.75e+00    0    1.22e+00
2006 12 03  1630    54072   59400      0    1.76e+00    0    1.23e+00
2006 12 03  1635    54072   59700      0    1.75e+00    0    1.23e+00
2006 12 03  1640    54072   60000      0    1.77e+00    0    1.24e+00
2006 12 03  1645    54072   60300      0    1.75e+00    0    1.22e+00
2006 12 03  1650    54072   60600      0    1.75e+00    0    1.22e+00
2006 12 03  1655    54072   60900      0    1.76e+00    0    1.24e+00
2006 12 03  1700    54072   61200      0    1.76e+00    0    1.23e+00
2006 12 03  1705    54072   61500      0    1.76e+00    0    1.23e+00
2006 12 03  1710    54072   61800      0    1.79e+00    0    1.26e+00
2006 12 03  1715    54072   62100      0    1.76e+00    0    1.23e+00
2006 12 03  1720    54072   62400      0    1.76e+00    0    1.24e+00
2006 12 03  1725    54072   62700      0    1.72e+00    0    1.21e+00
2006 12 03  1730    54072   63000      0    1.78e+00    0    1.24e+00
2006 12 03  1735    54072   63300      0    1.76e+00    0    1.24e+00
2006 12 03  1740    54072   63600      0    1.74e+00    0    1.21e+00
2006 12 03  1745    54072   63900      0    1.75e+00    0    1.22e+00
2006 12 03  1750    54072   64200      0    1.75e+00    0    1.22e+00
2006 12 03  1755    54072   64500      0    1.78e+00    0    1.26e+00
2006 12 03  1800    54072   64800      0    1.75e+00    0    1.22e+00
2006 12 03  1805    54072   65100      0    1.75e+00    0    1.22e+00
2006 12 03  1810    54072   65400      0    1.75e+00    0    1.23e+00
2006 12 03  1815    54072   65700      0    1.77e+00    0    1.24e+00
2006 12 03  1820    54072   66000      0    1.79e+00    0    1.27e+00
2006 12 03  1825    54072   66300      0    1.77e+00    0    1.23e+00
2006 12 03  1830    54072   66600      0    1.81e+00    0    1.26e+00
2006 12 03  1835    54072   66900      0    1.75e+00    0    1.23e+00
2006 12 03  1840    54072   67200      0    1.76e+00    0    1.24e+00
2006 12 03  1845    54072   67500      0    1.75e+00    0    1.22e+00
2006 12 03  1850    54072   67800      0    1.80e+00    0    1.26e+00
2006 12 03  1855    54072   68100      0    1.73e+00    0    1.21e+00
2006 12 03  1900    54072   68400      0    1.77e+00    0    1.24e+00
2006 12 03  1905    54072   68700      0    1.79e+00    0    1.25e+00
2006 12 03  1910    54072   69000      0    1.75e+00    0    1.22e+00
2006 12 03  1915    54072   69300      0    1.75e+00    0    1.21e+00
2006 12 03  1920    54072   69600      0    1.76e+00    0    1.25e+00
2006 12 03  1925    54072   69900      0    1.78e+00    0    1.25e+00
2006 12 03  1930    54072   70200      0    1.69e+00    0    1.19e+00
2006 12 03  1935    54072   70500      0    1.76e+00    0    1.23e+00
2006 12 03  1940    54072   70800      0    1.76e+00    0    1.24e+00
2006 12 03  1945    54072   71100      0    1.78e+00    0    1.25e+00
2006 12 03  1950    54072   71400      0    1.75e+00    0    1.22e+00
2006 12 03  1955    54072   71700      0    1.75e+00    0    1.22e+00
2006 12 03  2000    54072   72000      0    1.76e+00    0    1.22e+00
2006 12 03  2005    54072   72300      0    1.76e+00    0    1.24e+00
2006 12 03  2010    54072   72600      0    1.80e+00    0    1.27e+00
2006 12 03  2015    54072   72900      0    1.77e+00    0    1.24e+00
2006 12 03  2020    54072   73200      0    1.76e+00    0    1.24e+00
2006 12 03  2025    54072   73500      0    1.75e+00    0    1.25e+00
2006 12 03  2030    54072   73800      0    1.82e+00    0    1.28e+00
2006 12 03  2035    54072   74100      0    1.76e+00    0    1.23e+00
2006 12 03  2040    54072   74400      0    1.77e+00    0    1.23e+00
2006 12 03  2045    54072   74700      0    1.82e+00    0    1.29e+00
2006 12 03  2050    54072   75000      9   -1.00e+05    9   -1.00e+05
2006 12 03  2055    54072   75300      9   -1.00e+05    9   -1.00e+05
2006 12 03  2100    54072   75600      9   -1.00e+05    9   -1.00e+05
2006 12 03  2105    54072   75900      0    1.67e+00    0    1.16e+00
2006 12 03  2110    54072   76200      0    1.73e+00    0    1.20e+00
2006 12 03  2115    54072   76500      0    1.78e+00    0    1.25e+00
2006 12 03  2120    54072   76800      0    1.79e+00    0    1.27e+00
2006 12 03  2125    54072   77100      0    1.76e+00    0    1.23e+00
2006 12 03  2130    54072   77400      0    1.76e+00    0    1.24e+00
2006 12 03  2135    54072   77700      0    1.75e+00    0    1.21e+00
2006 12 03  2140    54072   78000      0    1.74e+00    0    1.22e+00
2006 12 03  2145    54072   78300      0    1.76e+00    0    1.24e+00
2006 12 03  2150    54072   78600      0    1.77e+00    0    1.24e+00
2006 12 03  2155    54072   78900      0    1.75e+00    0    1.22e+00
2006 12 03  2200    54072   79200      0    1.71e+00    0    1.20e+00
2006 12 03  2205    54072   79500      0    1.77e+00    0    1.24e+00
2006 12 03  2210    54072   79800      0    1.74e+00    0    1.20e+00
2006 12 03  2215    54072   80100      0    1.74e+00    0    1.23e+00
2006 12 03  2220    54072   80400      0    1.75e+00    0    1.23e+00
2006 12 03  2225    54072   80700      0    1.75e+00    0    1.22e+00
2006 12 03  2230    54072   81000      0    1.73e+00    0    1.21e+00
2006 12 03  2235    54072   81300      0    1.72e+00    0    1.20e+00
2006 12 03  2240    54072   81600      0    1.76e+00    0    1.23e+00
2006 12 03  2245    54072   81900      0    1.75e+00    0    1.21e+00
2006 12 03  2250    54072   82200      0    1.76e+00    0    1.22e+00
2006 12 03  2255    54072   82500      0    1.76e+00    0    1.23e+00
2006 12 03  2300    54072   82800      0    1.77e+00    0    1.24e+00
2006 12 03  2305    54072   83100      0    1.75e+00    0    1.22e+00
2006 12 03  2310    54072   83400      0    1.77e+00    0    1.24e+00
2006 12 03  2315    54072   83700      0    1.79e+00    0    1.26e+00
2006 12 03  2320    54072   84000      0    1.72e+00    0    1.21e+00
2006 12 03  2325    54072   84300      0    1.73e+00    0    1.21e+00
2006 12 03  2330    54072   84600      0    1.75e+00    0    1.22e+00
2006 12 03  2335    54072   84900      0    1.78e+00    0    1.24e+00
2006 12 03  2340    54072   85200      0    1.76e+00    0    1.25e+00
2006 12 03  2345    54072   85500      0    1.79e+00    0    1.26e+00
2006 12 03  2350    54072   85800      0    1.74e+00    0    1.22e+00
2006 12 03  2355    54072   86100      0    1.77e+00    0    1.24e+00
