:Data_list: 20060809_ace_sis_5m.txt
:Created: 2006 Aug 10 0011 UT
# Prepared by the U.S. Dept. of Commerce, NOAA, Space Environment Center.
# Please send comments and suggestions to SEC.Webmaster@noaa.gov 
# 
# Units: proton flux p/cs2-sec-ster
# Status(S): 0 = nominal data, 1 to 8 = bad data record, 9 = no data
# Missing data values: -1.00e+05
# Source: ACE Satellite - Solar Isotope Spectrometer
#
# 5-minute averaged Real-time Integral Flux of High-energy Solar Protons
# 
#                 Modified Seconds
# UT Date   Time   Julian  of the      ---- Integral Proton Flux ----
# YR MO DA  HHMM     Day     Day       S    > 10 MeV    S    > 30 MeV
#--------------------------------------------------------------------
2006 08 09  0000    53956       0      0    1.60e+00    0    1.12e+00
2006 08 09  0005    53956     300      0    1.63e+00    0    1.14e+00
2006 08 09  0010    53956     600      0    1.61e+00    0    1.13e+00
2006 08 09  0015    53956     900      0    1.62e+00    0    1.13e+00
2006 08 09  0020    53956    1200      0    1.60e+00    0    1.13e+00
2006 08 09  0025    53956    1500      0    1.58e+00    0    1.11e+00
2006 08 09  0030    53956    1800      0    1.63e+00    0    1.15e+00
2006 08 09  0035    53956    2100      0    1.57e+00    0    1.09e+00
2006 08 09  0040    53956    2400      0    1.57e+00    0    1.10e+00
2006 08 09  0045    53956    2700      0    1.61e+00    0    1.12e+00
2006 08 09  0050    53956    3000      0    1.61e+00    0    1.12e+00
2006 08 09  0055    53956    3300      0    1.56e+00    0    1.08e+00
2006 08 09  0100    53956    3600      0    1.60e+00    0    1.12e+00
2006 08 09  0105    53956    3900      0    1.64e+00    0    1.14e+00
2006 08 09  0110    53956    4200      0    1.63e+00    0    1.14e+00
2006 08 09  0115    53956    4500      0    1.59e+00    0    1.10e+00
2006 08 09  0120    53956    4800      0    1.61e+00    0    1.12e+00
2006 08 09  0125    53956    5100      0    1.61e+00    0    1.12e+00
2006 08 09  0130    53956    5400      0    1.61e+00    0    1.14e+00
2006 08 09  0135    53956    5700      0    1.64e+00    0    1.15e+00
2006 08 09  0140    53956    6000      0    1.61e+00    0    1.13e+00
2006 08 09  0145    53956    6300      0    1.60e+00    0    1.12e+00
2006 08 09  0150    53956    6600      0    1.57e+00    0    1.09e+00
2006 08 09  0155    53956    6900      0    1.60e+00    0    1.12e+00
2006 08 09  0200    53956    7200      0    1.59e+00    0    1.11e+00
2006 08 09  0205    53956    7500      0    1.60e+00    0    1.12e+00
2006 08 09  0210    53956    7800      0    1.62e+00    0    1.13e+00
2006 08 09  0215    53956    8100      0    1.61e+00    0    1.12e+00
2006 08 09  0220    53956    8400      0    1.60e+00    0    1.12e+00
2006 08 09  0225    53956    8700      0    1.59e+00    0    1.11e+00
2006 08 09  0230    53956    9000      0    1.63e+00    0    1.15e+00
2006 08 09  0235    53956    9300      0    1.62e+00    0    1.14e+00
2006 08 09  0240    53956    9600      0    1.57e+00    0    1.11e+00
2006 08 09  0245    53956    9900      0    1.60e+00    0    1.12e+00
2006 08 09  0250    53956   10200      0    1.62e+00    0    1.13e+00
2006 08 09  0255    53956   10500      0    1.56e+00    0    1.10e+00
2006 08 09  0300    53956   10800      0    1.64e+00    0    1.15e+00
2006 08 09  0305    53956   11100      0    1.62e+00    0    1.12e+00
2006 08 09  0310    53956   11400      0    1.64e+00    0    1.15e+00
2006 08 09  0315    53956   11700      0    1.66e+00    0    1.17e+00
2006 08 09  0320    53956   12000      9   -1.00e+05    9   -1.00e+05
2006 08 09  0325    53956   12300      0    1.61e+00    0    1.13e+00
2006 08 09  0330    53956   12600      0    1.58e+00    0    1.11e+00
2006 08 09  0335    53956   12900      0    1.56e+00    0    1.09e+00
2006 08 09  0340    53956   13200      0    1.59e+00    0    1.12e+00
2006 08 09  0345    53956   13500      0    1.64e+00    0    1.15e+00
2006 08 09  0350    53956   13800      0    1.64e+00    0    1.15e+00
2006 08 09  0355    53956   14100      0    1.62e+00    0    1.14e+00
2006 08 09  0400    53956   14400      0    1.64e+00    0    1.14e+00
2006 08 09  0405    53956   14700      0    1.60e+00    0    1.13e+00
2006 08 09  0410    53956   15000      0    1.64e+00    0    1.15e+00
2006 08 09  0415    53956   15300      0    1.61e+00    0    1.13e+00
2006 08 09  0420    53956   15600      0    1.61e+00    0    1.12e+00
2006 08 09  0425    53956   15900      0    1.64e+00    0    1.14e+00
2006 08 09  0430    53956   16200      0    1.69e+00    0    1.20e+00
2006 08 09  0435    53956   16500      0    1.60e+00    0    1.10e+00
2006 08 09  0440    53956   16800      0    1.61e+00    0    1.13e+00
2006 08 09  0445    53956   17100      0    1.66e+00    0    1.15e+00
2006 08 09  0450    53956   17400      0    1.62e+00    0    1.14e+00
2006 08 09  0455    53956   17700      0    1.63e+00    0    1.14e+00
2006 08 09  0500    53956   18000      0    1.60e+00    0    1.11e+00
2006 08 09  0505    53956   18300      0    1.65e+00    0    1.16e+00
2006 08 09  0510    53956   18600      0    1.63e+00    0    1.15e+00
2006 08 09  0515    53956   18900      0    1.64e+00    0    1.14e+00
2006 08 09  0520    53956   19200      0    1.60e+00    0    1.12e+00
2006 08 09  0525    53956   19500      0    1.61e+00    0    1.13e+00
2006 08 09  0530    53956   19800      0    1.65e+00    0    1.15e+00
2006 08 09  0535    53956   20100      0    1.63e+00    0    1.14e+00
2006 08 09  0540    53956   20400      0    1.65e+00    0    1.15e+00
2006 08 09  0545    53956   20700      0    1.64e+00    0    1.16e+00
2006 08 09  0550    53956   21000      0    1.64e+00    0    1.15e+00
2006 08 09  0555    53956   21300      0    1.61e+00    0    1.12e+00
2006 08 09  0600    53956   21600      0    1.62e+00    0    1.15e+00
2006 08 09  0605    53956   21900      0    1.62e+00    0    1.13e+00
2006 08 09  0610    53956   22200      0    1.62e+00    0    1.15e+00
2006 08 09  0615    53956   22500      0    1.62e+00    0    1.15e+00
2006 08 09  0620    53956   22800      0    1.62e+00    0    1.13e+00
2006 08 09  0625    53956   23100      0    1.61e+00    0    1.13e+00
2006 08 09  0630    53956   23400      0    1.65e+00    0    1.15e+00
2006 08 09  0635    53956   23700      0    1.65e+00    0    1.15e+00
2006 08 09  0640    53956   24000      0    1.64e+00    0    1.14e+00
2006 08 09  0645    53956   24300      0    1.62e+00    0    1.13e+00
2006 08 09  0650    53956   24600      0    1.63e+00    0    1.14e+00
2006 08 09  0655    53956   24900      0    1.63e+00    0    1.14e+00
2006 08 09  0700    53956   25200      0    1.61e+00    0    1.12e+00
2006 08 09  0705    53956   25500      0    1.59e+00    0    1.12e+00
2006 08 09  0710    53956   25800      0    1.63e+00    0    1.14e+00
2006 08 09  0715    53956   26100      0    1.60e+00    0    1.13e+00
2006 08 09  0720    53956   26400      0    1.57e+00    0    1.10e+00
2006 08 09  0725    53956   26700      0    1.64e+00    0    1.15e+00
2006 08 09  0730    53956   27000      0    1.61e+00    0    1.14e+00
2006 08 09  0735    53956   27300      0    1.62e+00    0    1.13e+00
2006 08 09  0740    53956   27600      0    1.62e+00    0    1.13e+00
2006 08 09  0745    53956   27900      0    1.61e+00    0    1.12e+00
2006 08 09  0750    53956   28200      0    1.58e+00    0    1.12e+00
2006 08 09  0755    53956   28500      0    1.63e+00    0    1.15e+00
2006 08 09  0800    53956   28800      0    1.61e+00    0    1.12e+00
2006 08 09  0805    53956   29100      0    1.61e+00    0    1.12e+00
2006 08 09  0810    53956   29400      0    1.62e+00    0    1.13e+00
2006 08 09  0815    53956   29700      0    1.61e+00    0    1.12e+00
2006 08 09  0820    53956   30000      0    1.63e+00    0    1.14e+00
2006 08 09  0825    53956   30300      0    1.60e+00    0    1.12e+00
2006 08 09  0830    53956   30600      0    1.60e+00    0    1.11e+00
2006 08 09  0835    53956   30900      0    1.62e+00    0    1.14e+00
2006 08 09  0840    53956   31200      0    1.63e+00    0    1.13e+00
2006 08 09  0845    53956   31500      0    1.52e+00    0    1.08e+00
2006 08 09  0850    53956   31800      0    1.59e+00    0    1.12e+00
2006 08 09  0855    53956   32100      0    1.62e+00    0    1.14e+00
2006 08 09  0900    53956   32400      0    1.61e+00    0    1.12e+00
2006 08 09  0905    53956   32700      0    1.64e+00    0    1.14e+00
2006 08 09  0910    53956   33000      0    1.63e+00    0    1.14e+00
2006 08 09  0915    53956   33300      0    1.62e+00    0    1.15e+00
2006 08 09  0920    53956   33600      0    1.62e+00    0    1.13e+00
2006 08 09  0925    53956   33900      0    1.62e+00    0    1.14e+00
2006 08 09  0930    53956   34200      0    1.61e+00    0    1.13e+00
2006 08 09  0935    53956   34500      0    1.63e+00    0    1.14e+00
2006 08 09  0940    53956   34800      0    1.63e+00    0    1.15e+00
2006 08 09  0945    53956   35100      0    1.63e+00    0    1.13e+00
2006 08 09  0950    53956   35400      0    1.63e+00    0    1.14e+00
2006 08 09  0955    53956   35700      0    1.62e+00    0    1.13e+00
2006 08 09  1000    53956   36000      0    1.63e+00    0    1.15e+00
2006 08 09  1005    53956   36300      0    1.64e+00    0    1.15e+00
2006 08 09  1010    53956   36600      0    1.62e+00    0    1.14e+00
2006 08 09  1015    53956   36900      0    1.63e+00    0    1.12e+00
2006 08 09  1020    53956   37200      0    1.65e+00    0    1.14e+00
2006 08 09  1025    53956   37500      0    1.61e+00    0    1.13e+00
2006 08 09  1030    53956   37800      0    1.61e+00    0    1.13e+00
2006 08 09  1035    53956   38100      0    1.67e+00    0    1.17e+00
2006 08 09  1040    53956   38400      0    1.62e+00    0    1.13e+00
2006 08 09  1045    53956   38700      0    1.65e+00    0    1.16e+00
2006 08 09  1050    53956   39000      0    1.61e+00    0    1.12e+00
2006 08 09  1055    53956   39300      0    1.66e+00    0    1.16e+00
2006 08 09  1100    53956   39600      0    1.65e+00    0    1.16e+00
2006 08 09  1105    53956   39900      0    1.61e+00    0    1.13e+00
2006 08 09  1110    53956   40200      0    1.64e+00    0    1.15e+00
2006 08 09  1115    53956   40500      0    1.69e+00    0    1.18e+00
2006 08 09  1120    53956   40800      0    1.61e+00    0    1.12e+00
2006 08 09  1125    53956   41100      0    1.60e+00    0    1.12e+00
2006 08 09  1130    53956   41400      0    1.61e+00    0    1.12e+00
2006 08 09  1135    53956   41700      0    1.60e+00    0    1.11e+00
2006 08 09  1140    53956   42000      0    1.64e+00    0    1.16e+00
2006 08 09  1145    53956   42300      0    1.57e+00    0    1.10e+00
2006 08 09  1150    53956   42600      0    1.61e+00    0    1.13e+00
2006 08 09  1155    53956   42900      0    1.66e+00    0    1.16e+00
2006 08 09  1200    53956   43200      0    1.59e+00    0    1.11e+00
2006 08 09  1205    53956   43500      0    1.62e+00    0    1.14e+00
2006 08 09  1210    53956   43800      0    1.58e+00    0    1.11e+00
2006 08 09  1215    53956   44100      0    1.58e+00    0    1.10e+00
2006 08 09  1220    53956   44400      0    1.62e+00    0    1.15e+00
2006 08 09  1225    53956   44700      0    1.64e+00    0    1.15e+00
2006 08 09  1230    53956   45000      0    1.61e+00    0    1.12e+00
2006 08 09  1235    53956   45300      0    1.63e+00    0    1.14e+00
2006 08 09  1240    53956   45600      0    1.65e+00    0    1.14e+00
2006 08 09  1245    53956   45900      0    1.58e+00    0    1.11e+00
2006 08 09  1250    53956   46200      0    1.60e+00    0    1.11e+00
2006 08 09  1255    53956   46500      0    1.65e+00    0    1.15e+00
2006 08 09  1300    53956   46800      0    1.62e+00    0    1.14e+00
2006 08 09  1305    53956   47100      0    1.65e+00    0    1.16e+00
2006 08 09  1310    53956   47400      0    1.62e+00    0    1.14e+00
2006 08 09  1315    53956   47700      0    1.63e+00    0    1.14e+00
2006 08 09  1320    53956   48000      0    1.60e+00    0    1.13e+00
2006 08 09  1325    53956   48300      0    1.58e+00    0    1.10e+00
2006 08 09  1330    53956   48600      0    1.56e+00    0    1.09e+00
2006 08 09  1335    53956   48900      0    1.62e+00    0    1.12e+00
2006 08 09  1340    53956   49200      0    1.62e+00    0    1.14e+00
2006 08 09  1345    53956   49500      0    1.61e+00    0    1.15e+00
2006 08 09  1350    53956   49800      0    1.63e+00    0    1.14e+00
2006 08 09  1355    53956   50100      0    1.63e+00    0    1.14e+00
2006 08 09  1400    53956   50400      0    1.60e+00    0    1.11e+00
2006 08 09  1405    53956   50700      0    1.63e+00    0    1.14e+00
2006 08 09  1410    53956   51000      0    1.61e+00    0    1.13e+00
2006 08 09  1415    53956   51300      0    1.64e+00    0    1.16e+00
2006 08 09  1420    53956   51600      0    1.65e+00    0    1.14e+00
2006 08 09  1425    53956   51900      0    1.62e+00    0    1.14e+00
2006 08 09  1430    53956   52200      0    1.63e+00    0    1.14e+00
2006 08 09  1435    53956   52500      0    1.62e+00    0    1.14e+00
2006 08 09  1440    53956   52800      0    1.64e+00    0    1.14e+00
2006 08 09  1445    53956   53100      0    1.62e+00    0    1.12e+00
2006 08 09  1450    53956   53400      0    1.62e+00    0    1.15e+00
2006 08 09  1455    53956   53700      0    1.64e+00    0    1.13e+00
2006 08 09  1500    53956   54000      0    1.63e+00    0    1.13e+00
2006 08 09  1505    53956   54300      0    1.61e+00    0    1.12e+00
2006 08 09  1510    53956   54600      0    1.62e+00    0    1.14e+00
2006 08 09  1515    53956   54900      0    1.59e+00    0    1.11e+00
2006 08 09  1520    53956   55200      0    1.60e+00    0    1.12e+00
2006 08 09  1525    53956   55500      0    1.58e+00    0    1.11e+00
2006 08 09  1530    53956   55800      0    1.64e+00    0    1.16e+00
2006 08 09  1535    53956   56100      0    1.64e+00    0    1.14e+00
2006 08 09  1540    53956   56400      0    1.61e+00    0    1.14e+00
2006 08 09  1545    53956   56700      0    1.62e+00    0    1.13e+00
2006 08 09  1550    53956   57000      0    1.63e+00    0    1.12e+00
2006 08 09  1555    53956   57300      0    1.62e+00    0    1.14e+00
2006 08 09  1600    53956   57600      0    1.63e+00    0    1.15e+00
2006 08 09  1605    53956   57900      0    1.64e+00    0    1.15e+00
2006 08 09  1610    53956   58200      0    1.63e+00    0    1.14e+00
2006 08 09  1615    53956   58500      0    1.62e+00    0    1.14e+00
2006 08 09  1620    53956   58800      0    1.60e+00    0    1.12e+00
2006 08 09  1625    53956   59100      0    1.62e+00    0    1.13e+00
2006 08 09  1630    53956   59400      0    1.62e+00    0    1.13e+00
2006 08 09  1635    53956   59700      0    1.63e+00    0    1.14e+00
2006 08 09  1640    53956   60000      0    1.60e+00    0    1.13e+00
2006 08 09  1645    53956   60300      0    1.60e+00    0    1.12e+00
2006 08 09  1650    53956   60600      0    1.63e+00    0    1.14e+00
2006 08 09  1655    53956   60900      0    1.59e+00    0    1.11e+00
2006 08 09  1700    53956   61200      0    1.61e+00    0    1.13e+00
2006 08 09  1705    53956   61500      0    1.66e+00    0    1.17e+00
2006 08 09  1710    53956   61800      0    1.62e+00    0    1.13e+00
2006 08 09  1715    53956   62100      0    1.61e+00    0    1.15e+00
2006 08 09  1720    53956   62400      0    1.64e+00    0    1.14e+00
2006 08 09  1725    53956   62700      0    1.64e+00    0    1.14e+00
2006 08 09  1730    53956   63000      0    1.62e+00    0    1.14e+00
2006 08 09  1735    53956   63300      0    1.57e+00    0    1.10e+00
2006 08 09  1740    53956   63600      0    1.61e+00    0    1.13e+00
2006 08 09  1745    53956   63900      0    1.63e+00    0    1.13e+00
2006 08 09  1750    53956   64200      0    1.60e+00    0    1.12e+00
2006 08 09  1755    53956   64500      0    1.62e+00    0    1.13e+00
2006 08 09  1800    53956   64800      0    1.50e+00    0    1.06e+00
2006 08 09  1805    53956   65100      0    1.62e+00    0    1.14e+00
2006 08 09  1810    53956   65400      0    1.63e+00    0    1.14e+00
2006 08 09  1815    53956   65700      0    1.60e+00    0    1.13e+00
2006 08 09  1820    53956   66000      0    1.57e+00    0    1.10e+00
2006 08 09  1825    53956   66300      0    1.61e+00    0    1.13e+00
2006 08 09  1830    53956   66600      0    1.63e+00    0    1.14e+00
2006 08 09  1835    53956   66900      0    1.64e+00    0    1.14e+00
2006 08 09  1840    53956   67200      0    1.61e+00    0    1.13e+00
2006 08 09  1845    53956   67500      0    1.65e+00    0    1.16e+00
2006 08 09  1850    53956   67800      0    1.61e+00    0    1.13e+00
2006 08 09  1855    53956   68100      0    1.61e+00    0    1.12e+00
2006 08 09  1900    53956   68400      0    1.59e+00    0    1.13e+00
2006 08 09  1905    53956   68700      0    1.64e+00    0    1.14e+00
2006 08 09  1910    53956   69000      0    1.62e+00    0    1.13e+00
2006 08 09  1915    53956   69300      0    1.60e+00    0    1.11e+00
2006 08 09  1920    53956   69600      0    1.61e+00    0    1.13e+00
2006 08 09  1925    53956   69900      0    1.63e+00    0    1.14e+00
2006 08 09  1930    53956   70200      0    1.69e+00    0    1.18e+00
2006 08 09  1935    53956   70500      0    1.62e+00    0    1.12e+00
2006 08 09  1940    53956   70800      0    1.64e+00    0    1.15e+00
2006 08 09  1945    53956   71100      0    1.60e+00    0    1.11e+00
2006 08 09  1950    53956   71400      0    1.61e+00    0    1.13e+00
2006 08 09  1955    53956   71700      0    1.62e+00    0    1.15e+00
2006 08 09  2000    53956   72000      0    1.63e+00    0    1.14e+00
2006 08 09  2005    53956   72300      0    1.65e+00    0    1.17e+00
2006 08 09  2010    53956   72600      0    1.64e+00    0    1.15e+00
2006 08 09  2015    53956   72900      0    1.59e+00    0    1.12e+00
2006 08 09  2020    53956   73200      0    1.59e+00    0    1.11e+00
2006 08 09  2025    53956   73500      0    1.62e+00    0    1.13e+00
2006 08 09  2030    53956   73800      0    1.60e+00    0    1.11e+00
2006 08 09  2035    53956   74100      0    1.63e+00    0    1.14e+00
2006 08 09  2040    53956   74400      0    1.62e+00    0    1.12e+00
2006 08 09  2045    53956   74700      0    1.60e+00    0    1.12e+00
2006 08 09  2050    53956   75000      0    1.65e+00    0    1.15e+00
2006 08 09  2055    53956   75300      0    1.58e+00    0    1.10e+00
2006 08 09  2100    53956   75600      0    1.62e+00    0    1.13e+00
2006 08 09  2105    53956   75900      0    1.63e+00    0    1.15e+00
2006 08 09  2110    53956   76200      0    1.59e+00    0    1.12e+00
2006 08 09  2115    53956   76500      0    1.64e+00    0    1.14e+00
2006 08 09  2120    53956   76800      0    1.62e+00    0    1.15e+00
2006 08 09  2125    53956   77100      0    1.62e+00    0    1.13e+00
2006 08 09  2130    53956   77400      0    1.63e+00    0    1.13e+00
2006 08 09  2135    53956   77700      0    1.62e+00    0    1.13e+00
2006 08 09  2140    53956   78000      0    1.61e+00    0    1.13e+00
2006 08 09  2145    53956   78300      0    1.62e+00    0    1.15e+00
2006 08 09  2150    53956   78600      0    1.66e+00    0    1.16e+00
2006 08 09  2155    53956   78900      0    1.63e+00    0    1.14e+00
2006 08 09  2200    53956   79200      0    1.66e+00    0    1.16e+00
2006 08 09  2205    53956   79500      0    1.60e+00    0    1.12e+00
2006 08 09  2210    53956   79800      0    1.63e+00    0    1.14e+00
2006 08 09  2215    53956   80100      0    1.64e+00    0    1.15e+00
2006 08 09  2220    53956   80400      0    1.69e+00    0    1.20e+00
2006 08 09  2225    53956   80700      0    1.60e+00    0    1.13e+00
2006 08 09  2230    53956   81000      0    1.64e+00    0    1.15e+00
2006 08 09  2235    53956   81300      0    1.62e+00    0    1.14e+00
2006 08 09  2240    53956   81600      0    1.63e+00    0    1.14e+00
2006 08 09  2245    53956   81900      0    1.64e+00    0    1.15e+00
2006 08 09  2250    53956   82200      0    1.66e+00    0    1.16e+00
2006 08 09  2255    53956   82500      0    1.65e+00    0    1.15e+00
2006 08 09  2300    53956   82800      0    1.61e+00    0    1.14e+00
2006 08 09  2305    53956   83100      0    1.60e+00    0    1.12e+00
2006 08 09  2310    53956   83400      0    1.59e+00    0    1.10e+00
2006 08 09  2315    53956   83700      0    1.61e+00    0    1.13e+00
2006 08 09  2320    53956   84000      0    1.59e+00    0    1.11e+00
2006 08 09  2325    53956   84300      0    1.67e+00    0    1.18e+00
2006 08 09  2330    53956   84600      0    1.64e+00    0    1.16e+00
2006 08 09  2335    53956   84900      0    1.61e+00    0    1.13e+00
2006 08 09  2340    53956   85200      0    1.60e+00    0    1.13e+00
2006 08 09  2345    53956   85500      0    1.62e+00    0    1.12e+00
2006 08 09  2350    53956   85800      0    1.63e+00    0    1.14e+00
2006 08 09  2355    53956   86100      0    1.62e+00    0    1.14e+00
