:Data_list: 20060203_ace_sis_5m.txt
:Created: 2006 Feb 04 0011 UT
# Prepared by the U.S. Dept. of Commerce, NOAA, Space Environment Center.
# Please send comments and suggestions to SEC.Webmaster@noaa.gov 
# 
# Units: proton flux p/cs2-sec-ster
# Status(S): 0 = nominal data, 1 to 8 = bad data record, 9 = no data
# Missing data values: -1.00e+05
# Source: ACE Satellite - Solar Isotope Spectrometer
#
# 5-minute averaged Real-time Integral Flux of High-energy Solar Protons
# 
#                 Modified Seconds
# UT Date   Time   Julian  of the      ---- Integral Proton Flux ----
# YR MO DA  HHMM     Day     Day       S    > 10 MeV    S    > 30 MeV
#--------------------------------------------------------------------
2006 02 03  0000    53769       0      0    1.46e+00    0    1.01e+00
2006 02 03  0005    53769     300      0    1.46e+00    0    1.02e+00
2006 02 03  0010    53769     600      0    1.47e+00    0    1.02e+00
2006 02 03  0015    53769     900      0    1.44e+00    0    1.02e+00
2006 02 03  0020    53769    1200      0    1.48e+00    0    1.04e+00
2006 02 03  0025    53769    1500      0    1.45e+00    0    1.02e+00
2006 02 03  0030    53769    1800      0    1.47e+00    0    1.03e+00
2006 02 03  0035    53769    2100      0    1.46e+00    0    1.02e+00
2006 02 03  0040    53769    2400      0    1.46e+00    0    1.03e+00
2006 02 03  0045    53769    2700      0    1.41e+00    0    9.93e-01
2006 02 03  0050    53769    3000      0    1.45e+00    0    1.03e+00
2006 02 03  0055    53769    3300      0    1.49e+00    0    1.05e+00
2006 02 03  0100    53769    3600      0    1.51e+00    0    1.06e+00
2006 02 03  0105    53769    3900      0    1.49e+00    0    1.04e+00
2006 02 03  0110    53769    4200      0    1.49e+00    0    1.03e+00
2006 02 03  0115    53769    4500      0    1.46e+00    0    1.03e+00
2006 02 03  0120    53769    4800      0    1.47e+00    0    1.03e+00
2006 02 03  0125    53769    5100      0    1.45e+00    0    1.02e+00
2006 02 03  0130    53769    5400      0    1.52e+00    0    1.08e+00
2006 02 03  0135    53769    5700      0    1.47e+00    0    1.03e+00
2006 02 03  0140    53769    6000      0    1.45e+00    0    1.01e+00
2006 02 03  0145    53769    6300      0    1.50e+00    0    1.05e+00
2006 02 03  0150    53769    6600      0    1.48e+00    0    1.02e+00
2006 02 03  0155    53769    6900      0    1.43e+00    0    1.01e+00
2006 02 03  0200    53769    7200      0    1.47e+00    0    1.02e+00
2006 02 03  0205    53769    7500      0    1.45e+00    0    1.00e+00
2006 02 03  0210    53769    7800      0    1.47e+00    0    1.03e+00
2006 02 03  0215    53769    8100      0    1.47e+00    0    1.04e+00
2006 02 03  0220    53769    8400      0    1.48e+00    0    1.03e+00
2006 02 03  0225    53769    8700      0    1.46e+00    0    1.02e+00
2006 02 03  0230    53769    9000      0    1.48e+00    0    1.03e+00
2006 02 03  0235    53769    9300      0    1.50e+00    0    1.05e+00
2006 02 03  0240    53769    9600      0    1.45e+00    0    1.02e+00
2006 02 03  0245    53769    9900      0    1.47e+00    0    1.02e+00
2006 02 03  0250    53769   10200      0    1.47e+00    0    1.04e+00
2006 02 03  0255    53769   10500      0    1.45e+00    0    1.02e+00
2006 02 03  0300    53769   10800      0    1.48e+00    0    1.04e+00
2006 02 03  0305    53769   11100      0    1.47e+00    0    1.03e+00
2006 02 03  0310    53769   11400      0    1.50e+00    0    1.06e+00
2006 02 03  0315    53769   11700      0    1.48e+00    0    1.03e+00
2006 02 03  0320    53769   12000      0    1.48e+00    0    1.05e+00
2006 02 03  0325    53769   12300      0    1.46e+00    0    1.03e+00
2006 02 03  0330    53769   12600      0    1.50e+00    0    1.04e+00
2006 02 03  0335    53769   12900      0    1.47e+00    0    1.03e+00
2006 02 03  0340    53769   13200      0    1.47e+00    0    1.03e+00
2006 02 03  0345    53769   13500      0    1.47e+00    0    1.04e+00
2006 02 03  0350    53769   13800      0    1.49e+00    0    1.04e+00
2006 02 03  0355    53769   14100      0    1.46e+00    0    1.03e+00
2006 02 03  0400    53769   14400      0    1.51e+00    0    1.05e+00
2006 02 03  0405    53769   14700      0    1.46e+00    0    1.01e+00
2006 02 03  0410    53769   15000      0    1.46e+00    0    1.02e+00
2006 02 03  0415    53769   15300      0    1.49e+00    0    1.04e+00
2006 02 03  0420    53769   15600      0    1.47e+00    0    1.03e+00
2006 02 03  0425    53769   15900      0    1.44e+00    0    1.02e+00
2006 02 03  0430    53769   16200      0    1.46e+00    0    1.02e+00
2006 02 03  0435    53769   16500      0    1.47e+00    0    1.04e+00
2006 02 03  0440    53769   16800      0    1.47e+00    0    1.03e+00
2006 02 03  0445    53769   17100      0    1.46e+00    0    1.03e+00
2006 02 03  0450    53769   17400      0    1.46e+00    0    1.03e+00
2006 02 03  0455    53769   17700      0    1.46e+00    0    1.02e+00
2006 02 03  0500    53769   18000      0    1.44e+00    0    1.01e+00
2006 02 03  0505    53769   18300      0    1.46e+00    0    1.02e+00
2006 02 03  0510    53769   18600      0    1.49e+00    0    1.04e+00
2006 02 03  0515    53769   18900      0    1.47e+00    0    1.03e+00
2006 02 03  0520    53769   19200      0    1.43e+00    0    1.01e+00
2006 02 03  0525    53769   19500      0    1.44e+00    0    1.01e+00
2006 02 03  0530    53769   19800      0    1.48e+00    0    1.04e+00
2006 02 03  0535    53769   20100      0    1.46e+00    0    1.03e+00
2006 02 03  0540    53769   20400      0    1.48e+00    0    1.04e+00
2006 02 03  0545    53769   20700      0    1.47e+00    0    1.03e+00
2006 02 03  0550    53769   21000      0    1.46e+00    0    1.03e+00
2006 02 03  0555    53769   21300      0    1.44e+00    0    1.03e+00
2006 02 03  0600    53769   21600      0    1.48e+00    0    1.03e+00
2006 02 03  0605    53769   21900      0    1.44e+00    0    1.01e+00
2006 02 03  0610    53769   22200      0    1.48e+00    0    1.05e+00
2006 02 03  0615    53769   22500      0    1.48e+00    0    1.04e+00
2006 02 03  0620    53769   22800      0    1.49e+00    0    1.05e+00
2006 02 03  0625    53769   23100      0    1.45e+00    0    1.02e+00
2006 02 03  0630    53769   23400      0    1.50e+00    0    1.05e+00
2006 02 03  0635    53769   23700      0    1.45e+00    0    1.01e+00
2006 02 03  0640    53769   24000      0    1.43e+00    0    9.98e-01
2006 02 03  0645    53769   24300      0    1.46e+00    0    1.03e+00
2006 02 03  0650    53769   24600      0    1.46e+00    0    1.02e+00
2006 02 03  0655    53769   24900      0    1.42e+00    0    9.97e-01
2006 02 03  0700    53769   25200      0    1.48e+00    0    1.05e+00
2006 02 03  0705    53769   25500      0    1.44e+00    0    1.02e+00
2006 02 03  0710    53769   25800      0    1.48e+00    0    1.04e+00
2006 02 03  0715    53769   26100      0    1.42e+00    0    9.89e-01
2006 02 03  0720    53769   26400      0    1.50e+00    0    1.05e+00
2006 02 03  0725    53769   26700      0    1.46e+00    0    1.03e+00
2006 02 03  0730    53769   27000      0    1.46e+00    0    1.02e+00
2006 02 03  0735    53769   27300      0    1.45e+00    0    1.02e+00
2006 02 03  0740    53769   27600      0    1.47e+00    0    1.03e+00
2006 02 03  0745    53769   27900      0    1.46e+00    0    1.03e+00
2006 02 03  0750    53769   28200      0    1.46e+00    0    1.02e+00
2006 02 03  0755    53769   28500      0    1.45e+00    0    1.01e+00
2006 02 03  0800    53769   28800      0    1.44e+00    0    1.00e+00
2006 02 03  0805    53769   29100      0    1.49e+00    0    1.05e+00
2006 02 03  0810    53769   29400      0    1.49e+00    0    1.04e+00
2006 02 03  0815    53769   29700      0    1.43e+00    0    9.97e-01
2006 02 03  0820    53769   30000      0    1.43e+00    0    9.94e-01
2006 02 03  0825    53769   30300      0    1.45e+00    0    1.01e+00
2006 02 03  0830    53769   30600      0    1.44e+00    0    1.01e+00
2006 02 03  0835    53769   30900      0    1.46e+00    0    1.02e+00
2006 02 03  0840    53769   31200      0    1.41e+00    0    9.91e-01
2006 02 03  0845    53769   31500      0    1.44e+00    0    1.01e+00
2006 02 03  0850    53769   31800      0    1.43e+00    0    1.00e+00
2006 02 03  0855    53769   32100      0    1.43e+00    0    1.02e+00
2006 02 03  0900    53769   32400      0    1.42e+00    0    9.90e-01
2006 02 03  0905    53769   32700      0    1.46e+00    0    1.03e+00
2006 02 03  0910    53769   33000      0    1.43e+00    0    1.01e+00
2006 02 03  0915    53769   33300      0    1.45e+00    0    1.02e+00
2006 02 03  0920    53769   33600      0    1.46e+00    0    1.03e+00
2006 02 03  0925    53769   33900      0    1.48e+00    0    1.03e+00
2006 02 03  0930    53769   34200      0    1.46e+00    0    1.05e+00
2006 02 03  0935    53769   34500      0    1.46e+00    0    1.03e+00
2006 02 03  0940    53769   34800      0    1.49e+00    0    1.05e+00
2006 02 03  0945    53769   35100      0    1.44e+00    0    1.01e+00
2006 02 03  0950    53769   35400      0    1.43e+00    0    1.01e+00
2006 02 03  0955    53769   35700      0    1.46e+00    0    1.02e+00
2006 02 03  1000    53769   36000      0    1.47e+00    0    1.03e+00
2006 02 03  1005    53769   36300      0    1.44e+00    0    1.00e+00
2006 02 03  1010    53769   36600      0    1.47e+00    0    1.02e+00
2006 02 03  1015    53769   36900      0    1.48e+00    0    1.03e+00
2006 02 03  1020    53769   37200      0    1.43e+00    0    1.01e+00
2006 02 03  1025    53769   37500      0    1.48e+00    0    1.05e+00
2006 02 03  1030    53769   37800      0    1.46e+00    0    1.02e+00
2006 02 03  1035    53769   38100      0    1.46e+00    0    1.03e+00
2006 02 03  1040    53769   38400      0    1.46e+00    0    1.03e+00
2006 02 03  1045    53769   38700      0    1.46e+00    0    1.04e+00
2006 02 03  1050    53769   39000      0    1.42e+00    0    1.00e+00
2006 02 03  1055    53769   39300      0    1.43e+00    0    1.01e+00
2006 02 03  1100    53769   39600      0    1.47e+00    0    1.02e+00
2006 02 03  1105    53769   39900      0    1.48e+00    0    1.05e+00
2006 02 03  1110    53769   40200      0    1.46e+00    0    1.03e+00
2006 02 03  1115    53769   40500      0    1.44e+00    0    9.98e-01
2006 02 03  1120    53769   40800      0    1.46e+00    0    1.02e+00
2006 02 03  1125    53769   41100      0    1.46e+00    0    1.02e+00
2006 02 03  1130    53769   41400      0    1.46e+00    0    1.02e+00
2006 02 03  1135    53769   41700      0    1.41e+00    0    9.85e-01
2006 02 03  1140    53769   42000      0    1.44e+00    0    1.01e+00
2006 02 03  1145    53769   42300      0    1.46e+00    0    1.02e+00
2006 02 03  1150    53769   42600      0    1.48e+00    0    1.05e+00
2006 02 03  1155    53769   42900      0    1.46e+00    0    1.03e+00
2006 02 03  1200    53769   43200      0    1.46e+00    0    1.03e+00
2006 02 03  1205    53769   43500      0    1.45e+00    0    1.02e+00
2006 02 03  1210    53769   43800      0    1.44e+00    0    1.02e+00
2006 02 03  1215    53769   44100      0    1.44e+00    0    1.01e+00
2006 02 03  1220    53769   44400      0    1.44e+00    0    1.02e+00
2006 02 03  1225    53769   44700      0    1.45e+00    0    1.02e+00
2006 02 03  1230    53769   45000      0    1.44e+00    0    1.00e+00
2006 02 03  1235    53769   45300      0    1.44e+00    0    1.01e+00
2006 02 03  1240    53769   45600      0    1.45e+00    0    1.02e+00
2006 02 03  1245    53769   45900      0    1.43e+00    0    1.00e+00
2006 02 03  1250    53769   46200      0    1.46e+00    0    1.03e+00
2006 02 03  1255    53769   46500      0    1.45e+00    0    1.01e+00
2006 02 03  1300    53769   46800      0    1.44e+00    0    1.00e+00
2006 02 03  1305    53769   47100      0    1.42e+00    0    9.93e-01
2006 02 03  1310    53769   47400      0    1.44e+00    0    1.01e+00
2006 02 03  1315    53769   47700      0    1.34e+00    0    9.34e-01
2006 02 03  1320    53769   48000      0    1.43e+00    0    1.00e+00
2006 02 03  1325    53769   48300      0    1.46e+00    0    1.02e+00
2006 02 03  1330    53769   48600      0    1.43e+00    0    9.96e-01
2006 02 03  1335    53769   48900      0    1.40e+00    0    9.91e-01
2006 02 03  1340    53769   49200      0    1.44e+00    0    1.01e+00
2006 02 03  1345    53769   49500      0    1.46e+00    0    1.04e+00
2006 02 03  1350    53769   49800      0    1.44e+00    0    1.01e+00
2006 02 03  1355    53769   50100      0    1.43e+00    0    9.98e-01
2006 02 03  1400    53769   50400      0    1.41e+00    0    9.90e-01
2006 02 03  1405    53769   50700      0    1.43e+00    0    1.00e+00
2006 02 03  1410    53769   51000      0    1.43e+00    0    1.02e+00
2006 02 03  1415    53769   51300      0    1.44e+00    0    1.02e+00
2006 02 03  1420    53769   51600      0    1.42e+00    0    9.89e-01
2006 02 03  1425    53769   51900      0    1.45e+00    0    1.02e+00
2006 02 03  1430    53769   52200      0    1.46e+00    0    1.03e+00
2006 02 03  1435    53769   52500      0    1.42e+00    0    9.97e-01
2006 02 03  1440    53769   52800      0    1.44e+00    0    1.02e+00
2006 02 03  1445    53769   53100      0    1.44e+00    0    1.01e+00
2006 02 03  1450    53769   53400      0    1.47e+00    0    1.03e+00
2006 02 03  1455    53769   53700      0    1.41e+00    0    1.00e+00
2006 02 03  1500    53769   54000      0    1.44e+00    0    1.00e+00
2006 02 03  1505    53769   54300      0    1.41e+00    0    9.94e-01
2006 02 03  1510    53769   54600      0    1.40e+00    0    9.82e-01
2006 02 03  1515    53769   54900      0    1.42e+00    0    9.88e-01
2006 02 03  1520    53769   55200      0    1.42e+00    0    1.00e+00
2006 02 03  1525    53769   55500      0    1.41e+00    0    9.91e-01
2006 02 03  1530    53769   55800      0    1.44e+00    0    1.01e+00
2006 02 03  1535    53769   56100      0    1.45e+00    0    1.01e+00
2006 02 03  1540    53769   56400      0    1.43e+00    0    1.00e+00
2006 02 03  1545    53769   56700      0    1.45e+00    0    1.03e+00
2006 02 03  1550    53769   57000      0    1.47e+00    0    1.04e+00
2006 02 03  1555    53769   57300      0    1.48e+00    0    1.04e+00
2006 02 03  1600    53769   57600      0    1.50e+00    0    1.06e+00
2006 02 03  1605    53769   57900      0    1.48e+00    0    1.03e+00
2006 02 03  1610    53769   58200      0    1.47e+00    0    1.04e+00
2006 02 03  1615    53769   58500      0    1.49e+00    0    1.04e+00
2006 02 03  1620    53769   58800      0    1.46e+00    0    1.03e+00
2006 02 03  1625    53769   59100      0    1.46e+00    0    1.02e+00
2006 02 03  1630    53769   59400      0    1.47e+00    0    1.03e+00
2006 02 03  1635    53769   59700      0    1.51e+00    0    1.07e+00
2006 02 03  1640    53769   60000      0    1.50e+00    0    1.06e+00
2006 02 03  1645    53769   60300      0    1.46e+00    0    1.03e+00
2006 02 03  1650    53769   60600      0    1.46e+00    0    1.04e+00
2006 02 03  1655    53769   60900      0    1.46e+00    0    1.01e+00
2006 02 03  1700    53769   61200      0    1.43e+00    0    1.00e+00
2006 02 03  1705    53769   61500      0    1.47e+00    0    1.03e+00
2006 02 03  1710    53769   61800      0    1.46e+00    0    1.04e+00
2006 02 03  1715    53769   62100      0    1.48e+00    0    1.04e+00
2006 02 03  1720    53769   62400      0    1.50e+00    0    1.05e+00
2006 02 03  1725    53769   62700      0    1.50e+00    0    1.06e+00
2006 02 03  1730    53769   63000      0    1.47e+00    0    1.04e+00
2006 02 03  1735    53769   63300      0    1.46e+00    0    1.03e+00
2006 02 03  1740    53769   63600      0    1.48e+00    0    1.04e+00
2006 02 03  1745    53769   63900      0    1.47e+00    0    1.02e+00
2006 02 03  1750    53769   64200      0    1.48e+00    0    1.04e+00
2006 02 03  1755    53769   64500      0    1.47e+00    0    1.03e+00
2006 02 03  1800    53769   64800      0    1.45e+00    0    1.01e+00
2006 02 03  1805    53769   65100      0    1.46e+00    0    1.01e+00
2006 02 03  1810    53769   65400      0    1.46e+00    0    1.03e+00
2006 02 03  1815    53769   65700      0    1.47e+00    0    1.03e+00
2006 02 03  1820    53769   66000      0    1.43e+00    0    9.91e-01
2006 02 03  1825    53769   66300      0    1.45e+00    0    1.02e+00
2006 02 03  1830    53769   66600      0    1.49e+00    0    1.04e+00
2006 02 03  1835    53769   66900      0    1.44e+00    0    1.02e+00
2006 02 03  1840    53769   67200      0    1.46e+00    0    1.02e+00
2006 02 03  1845    53769   67500      0    1.44e+00    0    1.00e+00
2006 02 03  1850    53769   67800      0    1.48e+00    0    1.05e+00
2006 02 03  1855    53769   68100      0    1.50e+00    0    1.05e+00
2006 02 03  1900    53769   68400      0    1.45e+00    0    1.00e+00
2006 02 03  1905    53769   68700      0    1.43e+00    0    1.01e+00
2006 02 03  1910    53769   69000      0    1.48e+00    0    1.04e+00
2006 02 03  1915    53769   69300      0    1.49e+00    0    1.06e+00
2006 02 03  1920    53769   69600      0    1.44e+00    0    1.02e+00
2006 02 03  1925    53769   69900      0    1.47e+00    0    1.03e+00
2006 02 03  1930    53769   70200      0    1.49e+00    0    1.05e+00
2006 02 03  1935    53769   70500      0    1.43e+00    0    1.00e+00
2006 02 03  1940    53769   70800      0    1.43e+00    0    1.00e+00
2006 02 03  1945    53769   71100      0    1.47e+00    0    1.04e+00
2006 02 03  1950    53769   71400      0    1.43e+00    0    1.01e+00
2006 02 03  1955    53769   71700      0    1.47e+00    0    1.04e+00
2006 02 03  2000    53769   72000      0    1.49e+00    0    1.05e+00
2006 02 03  2005    53769   72300      0    1.42e+00    0    9.96e-01
2006 02 03  2010    53769   72600      0    1.49e+00    0    1.05e+00
2006 02 03  2015    53769   72900      0    1.47e+00    0    1.02e+00
2006 02 03  2020    53769   73200      0    1.51e+00    0    1.06e+00
2006 02 03  2025    53769   73500      0    1.47e+00    0    1.02e+00
2006 02 03  2030    53769   73800      0    1.45e+00    0    1.01e+00
2006 02 03  2035    53769   74100      0    1.46e+00    0    1.03e+00
2006 02 03  2040    53769   74400      0    1.46e+00    0    1.04e+00
2006 02 03  2045    53769   74700      0    1.46e+00    0    1.03e+00
2006 02 03  2050    53769   75000      0    1.47e+00    0    1.03e+00
2006 02 03  2055    53769   75300      0    1.49e+00    0    1.05e+00
2006 02 03  2100    53769   75600      0    1.45e+00    0    1.01e+00
2006 02 03  2105    53769   75900      0    1.47e+00    0    1.04e+00
2006 02 03  2110    53769   76200      0    1.48e+00    0    1.02e+00
2006 02 03  2115    53769   76500      0    1.47e+00    0    1.04e+00
2006 02 03  2120    53769   76800      0    1.47e+00    0    1.03e+00
2006 02 03  2125    53769   77100      0    1.47e+00    0    1.03e+00
2006 02 03  2130    53769   77400      0    1.48e+00    0    1.05e+00
2006 02 03  2135    53769   77700      0    1.47e+00    0    1.03e+00
2006 02 03  2140    53769   78000      0    1.48e+00    0    1.04e+00
2006 02 03  2145    53769   78300      0    1.46e+00    0    1.02e+00
2006 02 03  2150    53769   78600      0    1.46e+00    0    1.02e+00
2006 02 03  2155    53769   78900      0    1.49e+00    0    1.05e+00
2006 02 03  2200    53769   79200      0    1.47e+00    0    1.03e+00
2006 02 03  2205    53769   79500      0    1.46e+00    0    1.03e+00
2006 02 03  2210    53769   79800      0    1.47e+00    0    1.03e+00
2006 02 03  2215    53769   80100      0    1.49e+00    0    1.04e+00
2006 02 03  2220    53769   80400      0    1.46e+00    0    1.02e+00
2006 02 03  2225    53769   80700      0    1.47e+00    0    1.04e+00
2006 02 03  2230    53769   81000      0    1.47e+00    0    1.03e+00
2006 02 03  2235    53769   81300      0    1.44e+00    0    1.02e+00
2006 02 03  2240    53769   81600      0    1.46e+00    0    1.03e+00
2006 02 03  2245    53769   81900      0    1.47e+00    0    1.04e+00
2006 02 03  2250    53769   82200      0    1.46e+00    0    1.03e+00
2006 02 03  2255    53769   82500      0    1.43e+00    0    1.01e+00
2006 02 03  2300    53769   82800      0    1.49e+00    0    1.05e+00
2006 02 03  2305    53769   83100      0    1.45e+00    0    1.01e+00
2006 02 03  2310    53769   83400      0    1.47e+00    0    1.02e+00
2006 02 03  2315    53769   83700      0    1.45e+00    0    1.02e+00
2006 02 03  2320    53769   84000      0    1.45e+00    0    1.03e+00
2006 02 03  2325    53769   84300      0    1.48e+00    0    1.03e+00
2006 02 03  2330    53769   84600      0    1.45e+00    0    1.01e+00
2006 02 03  2335    53769   84900      0    1.46e+00    0    1.03e+00
2006 02 03  2340    53769   85200      0    1.47e+00    0    1.02e+00
2006 02 03  2345    53769   85500      0    1.45e+00    0    1.01e+00
2006 02 03  2350    53769   85800      0    1.49e+00    0    1.05e+00
2006 02 03  2355    53769   86100      0    1.45e+00    0    1.02e+00
