:Data_list: 20060304_ace_sis_5m.txt
:Created: 2006 Mar 05 0011 UT
# Prepared by the U.S. Dept. of Commerce, NOAA, Space Environment Center.
# Please send comments and suggestions to SEC.Webmaster@noaa.gov 
# 
# Units: proton flux p/cs2-sec-ster
# Status(S): 0 = nominal data, 1 to 8 = bad data record, 9 = no data
# Missing data values: -1.00e+05
# Source: ACE Satellite - Solar Isotope Spectrometer
#
# 5-minute averaged Real-time Integral Flux of High-energy Solar Protons
# 
#                 Modified Seconds
# UT Date   Time   Julian  of the      ---- Integral Proton Flux ----
# YR MO DA  HHMM     Day     Day       S    > 10 MeV    S    > 30 MeV
#--------------------------------------------------------------------
2006 03 04  0000    53798       0      0    1.52e+00    0    1.06e+00
2006 03 04  0005    53798     300      0    1.49e+00    0    1.03e+00
2006 03 04  0010    53798     600      0    1.56e+00    0    1.09e+00
2006 03 04  0015    53798     900      0    1.47e+00    0    1.03e+00
2006 03 04  0020    53798    1200      0    1.51e+00    0    1.07e+00
2006 03 04  0025    53798    1500      0    1.46e+00    0    1.02e+00
2006 03 04  0030    53798    1800      0    1.51e+00    0    1.07e+00
2006 03 04  0035    53798    2100      0    1.48e+00    0    1.04e+00
2006 03 04  0040    53798    2400      0    1.53e+00    0    1.07e+00
2006 03 04  0045    53798    2700      0    1.56e+00    0    1.10e+00
2006 03 04  0050    53798    3000      0    1.51e+00    0    1.06e+00
2006 03 04  0055    53798    3300      0    1.51e+00    0    1.07e+00
2006 03 04  0100    53798    3600      0    1.53e+00    0    1.07e+00
2006 03 04  0105    53798    3900      0    1.54e+00    0    1.09e+00
2006 03 04  0110    53798    4200      0    1.51e+00    0    1.05e+00
2006 03 04  0115    53798    4500      0    1.50e+00    0    1.06e+00
2006 03 04  0120    53798    4800      0    1.53e+00    0    1.07e+00
2006 03 04  0125    53798    5100      0    1.49e+00    0    1.04e+00
2006 03 04  0130    53798    5400      0    1.53e+00    0    1.08e+00
2006 03 04  0135    53798    5700      0    1.53e+00    0    1.07e+00
2006 03 04  0140    53798    6000      0    1.49e+00    0    1.05e+00
2006 03 04  0145    53798    6300      0    1.46e+00    0    1.03e+00
2006 03 04  0150    53798    6600      0    1.51e+00    0    1.07e+00
2006 03 04  0155    53798    6900      0    1.51e+00    0    1.07e+00
2006 03 04  0200    53798    7200      0    1.47e+00    0    1.04e+00
2006 03 04  0205    53798    7500      0    1.54e+00    0    1.08e+00
2006 03 04  0210    53798    7800      0    1.52e+00    0    1.08e+00
2006 03 04  0215    53798    8100      0    1.52e+00    0    1.07e+00
2006 03 04  0220    53798    8400      0    1.48e+00    0    1.03e+00
2006 03 04  0225    53798    8700      0    1.50e+00    0    1.05e+00
2006 03 04  0230    53798    9000      0    1.51e+00    0    1.06e+00
2006 03 04  0235    53798    9300      0    1.52e+00    0    1.07e+00
2006 03 04  0240    53798    9600      0    1.51e+00    0    1.06e+00
2006 03 04  0245    53798    9900      0    1.50e+00    0    1.06e+00
2006 03 04  0250    53798   10200      0    1.55e+00    0    1.09e+00
2006 03 04  0255    53798   10500      0    1.51e+00    0    1.07e+00
2006 03 04  0300    53798   10800      0    1.50e+00    0    1.06e+00
2006 03 04  0305    53798   11100      0    1.50e+00    0    1.05e+00
2006 03 04  0310    53798   11400      0    1.52e+00    0    1.07e+00
2006 03 04  0315    53798   11700      0    1.49e+00    0    1.05e+00
2006 03 04  0320    53798   12000      0    1.49e+00    0    1.04e+00
2006 03 04  0325    53798   12300      0    1.51e+00    0    1.07e+00
2006 03 04  0330    53798   12600      0    1.51e+00    0    1.07e+00
2006 03 04  0335    53798   12900      0    1.54e+00    0    1.08e+00
2006 03 04  0340    53798   13200      0    1.53e+00    0    1.08e+00
2006 03 04  0345    53798   13500      0    1.49e+00    0    1.06e+00
2006 03 04  0350    53798   13800      0    1.50e+00    0    1.05e+00
2006 03 04  0355    53798   14100      0    1.49e+00    0    1.03e+00
2006 03 04  0400    53798   14400      0    1.45e+00    0    1.02e+00
2006 03 04  0405    53798   14700      0    1.52e+00    0    1.07e+00
2006 03 04  0410    53798   15000      0    1.48e+00    0    1.05e+00
2006 03 04  0415    53798   15300      0    1.51e+00    0    1.06e+00
2006 03 04  0420    53798   15600      0    1.53e+00    0    1.07e+00
2006 03 04  0425    53798   15900      0    1.54e+00    0    1.07e+00
2006 03 04  0430    53798   16200      0    1.56e+00    0    1.09e+00
2006 03 04  0435    53798   16500      0    1.57e+00    0    1.11e+00
2006 03 04  0440    53798   16800      0    1.51e+00    0    1.06e+00
2006 03 04  0445    53798   17100      0    1.50e+00    0    1.05e+00
2006 03 04  0450    53798   17400      0    1.53e+00    0    1.08e+00
2006 03 04  0455    53798   17700      0    1.44e+00    0    1.01e+00
2006 03 04  0500    53798   18000      0    1.50e+00    0    1.05e+00
2006 03 04  0505    53798   18300      0    1.49e+00    0    1.04e+00
2006 03 04  0510    53798   18600      0    1.51e+00    0    1.06e+00
2006 03 04  0515    53798   18900      0    1.53e+00    0    1.08e+00
2006 03 04  0520    53798   19200      0    1.51e+00    0    1.06e+00
2006 03 04  0525    53798   19500      0    1.56e+00    0    1.10e+00
2006 03 04  0530    53798   19800      0    1.53e+00    0    1.08e+00
2006 03 04  0535    53798   20100      0    1.55e+00    0    1.07e+00
2006 03 04  0540    53798   20400      0    1.52e+00    0    1.06e+00
2006 03 04  0545    53798   20700      0    1.50e+00    0    1.06e+00
2006 03 04  0550    53798   21000      0    1.52e+00    0    1.08e+00
2006 03 04  0555    53798   21300      0    1.52e+00    0    1.06e+00
2006 03 04  0600    53798   21600      0    1.51e+00    0    1.05e+00
2006 03 04  0605    53798   21900      0    1.53e+00    0    1.07e+00
2006 03 04  0610    53798   22200      0    1.55e+00    0    1.09e+00
2006 03 04  0615    53798   22500      0    1.53e+00    0    1.09e+00
2006 03 04  0620    53798   22800      0    1.52e+00    0    1.07e+00
2006 03 04  0625    53798   23100      0    1.51e+00    0    1.05e+00
2006 03 04  0630    53798   23400      0    1.50e+00    0    1.05e+00
2006 03 04  0635    53798   23700      0    1.54e+00    0    1.08e+00
2006 03 04  0640    53798   24000      0    1.53e+00    0    1.08e+00
2006 03 04  0645    53798   24300      0    1.52e+00    0    1.08e+00
2006 03 04  0650    53798   24600      0    1.53e+00    0    1.08e+00
2006 03 04  0655    53798   24900      0    1.49e+00    0    1.05e+00
2006 03 04  0700    53798   25200      0    1.51e+00    0    1.05e+00
2006 03 04  0705    53798   25500      0    1.51e+00    0    1.06e+00
2006 03 04  0710    53798   25800      0    1.50e+00    0    1.05e+00
2006 03 04  0715    53798   26100      0    1.51e+00    0    1.06e+00
2006 03 04  0720    53798   26400      0    1.51e+00    0    1.06e+00
2006 03 04  0725    53798   26700      0    1.51e+00    0    1.06e+00
2006 03 04  0730    53798   27000      0    1.51e+00    0    1.05e+00
2006 03 04  0735    53798   27300      0    1.49e+00    0    1.05e+00
2006 03 04  0740    53798   27600      0    1.52e+00    0    1.07e+00
2006 03 04  0745    53798   27900      0    1.50e+00    0    1.05e+00
2006 03 04  0750    53798   28200      0    1.50e+00    0    1.05e+00
2006 03 04  0755    53798   28500      0    1.53e+00    0    1.07e+00
2006 03 04  0800    53798   28800      0    1.51e+00    0    1.07e+00
2006 03 04  0805    53798   29100      0    1.54e+00    0    1.09e+00
2006 03 04  0810    53798   29400      0    1.52e+00    0    1.07e+00
2006 03 04  0815    53798   29700      0    1.52e+00    0    1.07e+00
2006 03 04  0820    53798   30000      0    1.53e+00    0    1.07e+00
2006 03 04  0825    53798   30300      0    1.53e+00    0    1.06e+00
2006 03 04  0830    53798   30600      0    1.56e+00    0    1.08e+00
2006 03 04  0835    53798   30900      0    1.51e+00    0    1.05e+00
2006 03 04  0840    53798   31200      0    1.50e+00    0    1.05e+00
2006 03 04  0845    53798   31500      0    1.53e+00    0    1.07e+00
2006 03 04  0850    53798   31800      0    1.53e+00    0    1.07e+00
2006 03 04  0855    53798   32100      0    1.50e+00    0    1.05e+00
2006 03 04  0900    53798   32400      0    1.53e+00    0    1.07e+00
2006 03 04  0905    53798   32700      0    1.51e+00    0    1.07e+00
2006 03 04  0910    53798   33000      0    1.54e+00    0    1.08e+00
2006 03 04  0915    53798   33300      0    1.52e+00    0    1.06e+00
2006 03 04  0920    53798   33600      0    1.50e+00    0    1.06e+00
2006 03 04  0925    53798   33900      0    1.50e+00    0    1.06e+00
2006 03 04  0930    53798   34200      0    1.53e+00    0    1.07e+00
2006 03 04  0935    53798   34500      0    1.54e+00    0    1.09e+00
2006 03 04  0940    53798   34800      0    1.49e+00    0    1.06e+00
2006 03 04  0945    53798   35100      0    1.51e+00    0    1.06e+00
2006 03 04  0950    53798   35400      0    1.51e+00    0    1.05e+00
2006 03 04  0955    53798   35700      0    1.52e+00    0    1.06e+00
2006 03 04  1000    53798   36000      0    1.54e+00    0    1.09e+00
2006 03 04  1005    53798   36300      0    1.51e+00    0    1.06e+00
2006 03 04  1010    53798   36600      0    1.50e+00    0    1.06e+00
2006 03 04  1015    53798   36900      0    1.52e+00    0    1.07e+00
2006 03 04  1020    53798   37200      0    1.54e+00    0    1.08e+00
2006 03 04  1025    53798   37500      0    1.50e+00    0    1.05e+00
2006 03 04  1030    53798   37800      0    1.50e+00    0    1.05e+00
2006 03 04  1035    53798   38100      0    1.54e+00    0    1.09e+00
2006 03 04  1040    53798   38400      0    1.52e+00    0    1.07e+00
2006 03 04  1045    53798   38700      0    1.54e+00    0    1.07e+00
2006 03 04  1050    53798   39000      0    1.53e+00    0    1.07e+00
2006 03 04  1055    53798   39300      0    1.49e+00    0    1.05e+00
2006 03 04  1100    53798   39600      0    1.48e+00    0    1.03e+00
2006 03 04  1105    53798   39900      0    1.53e+00    0    1.09e+00
2006 03 04  1110    53798   40200      0    1.53e+00    0    1.08e+00
2006 03 04  1115    53798   40500      0    1.57e+00    0    1.11e+00
2006 03 04  1120    53798   40800      0    1.51e+00    0    1.07e+00
2006 03 04  1125    53798   41100      0    1.49e+00    0    1.04e+00
2006 03 04  1130    53798   41400      0    1.52e+00    0    1.07e+00
2006 03 04  1135    53798   41700      0    1.52e+00    0    1.06e+00
2006 03 04  1140    53798   42000      0    1.55e+00    0    1.08e+00
2006 03 04  1145    53798   42300      0    1.53e+00    0    1.08e+00
2006 03 04  1150    53798   42600      0    1.55e+00    0    1.09e+00
2006 03 04  1155    53798   42900      0    1.53e+00    0    1.07e+00
2006 03 04  1200    53798   43200      0    1.51e+00    0    1.07e+00
2006 03 04  1205    53798   43500      0    1.51e+00    0    1.05e+00
2006 03 04  1210    53798   43800      0    1.53e+00    0    1.07e+00
2006 03 04  1215    53798   44100      0    1.52e+00    0    1.07e+00
2006 03 04  1220    53798   44400      0    1.52e+00    0    1.07e+00
2006 03 04  1225    53798   44700      0    1.54e+00    0    1.08e+00
2006 03 04  1230    53798   45000      0    1.51e+00    0    1.07e+00
2006 03 04  1235    53798   45300      0    1.49e+00    0    1.05e+00
2006 03 04  1240    53798   45600      0    1.54e+00    0    1.08e+00
2006 03 04  1245    53798   45900      0    1.47e+00    0    1.03e+00
2006 03 04  1250    53798   46200      0    1.54e+00    0    1.08e+00
2006 03 04  1255    53798   46500      0    1.48e+00    0    1.04e+00
2006 03 04  1300    53798   46800      0    1.49e+00    0    1.04e+00
2006 03 04  1305    53798   47100      0    1.52e+00    0    1.09e+00
2006 03 04  1310    53798   47400      0    1.52e+00    0    1.06e+00
2006 03 04  1315    53798   47700      0    1.46e+00    0    1.03e+00
2006 03 04  1320    53798   48000      0    1.54e+00    0    1.08e+00
2006 03 04  1325    53798   48300      0    1.51e+00    0    1.06e+00
2006 03 04  1330    53798   48600      0    1.52e+00    0    1.06e+00
2006 03 04  1335    53798   48900      0    1.51e+00    0    1.06e+00
2006 03 04  1340    53798   49200      0    1.54e+00    0    1.07e+00
2006 03 04  1345    53798   49500      0    1.49e+00    0    1.05e+00
2006 03 04  1350    53798   49800      0    1.50e+00    0    1.06e+00
2006 03 04  1355    53798   50100      0    1.52e+00    0    1.07e+00
2006 03 04  1400    53798   50400      0    1.53e+00    0    1.09e+00
2006 03 04  1405    53798   50700      0    1.50e+00    0    1.06e+00
2006 03 04  1410    53798   51000      0    1.52e+00    0    1.07e+00
2006 03 04  1415    53798   51300      0    1.53e+00    0    1.08e+00
2006 03 04  1420    53798   51600      0    1.56e+00    0    1.09e+00
2006 03 04  1425    53798   51900      0    1.52e+00    0    1.08e+00
2006 03 04  1430    53798   52200      0    1.54e+00    0    1.08e+00
2006 03 04  1435    53798   52500      0    1.52e+00    0    1.07e+00
2006 03 04  1440    53798   52800      0    1.53e+00    0    1.07e+00
2006 03 04  1445    53798   53100      0    1.52e+00    0    1.06e+00
2006 03 04  1450    53798   53400      0    1.50e+00    0    1.05e+00
2006 03 04  1455    53798   53700      0    1.50e+00    0    1.06e+00
2006 03 04  1500    53798   54000      0    1.52e+00    0    1.07e+00
2006 03 04  1505    53798   54300      0    1.49e+00    0    1.04e+00
2006 03 04  1510    53798   54600      0    1.44e+00    0    1.64e+00
2006 03 04  1515    53798   54900      0    1.81e+00    0    1.18e+00
2006 03 04  1520    53798   55200      0    1.53e+00    0    1.07e+00
2006 03 04  1525    53798   55500      0    1.51e+00    0    1.06e+00
2006 03 04  1530    53798   55800      0    1.52e+00    0    1.06e+00
2006 03 04  1535    53798   56100      0    1.56e+00    0    1.10e+00
2006 03 04  1540    53798   56400      0    1.52e+00    0    1.07e+00
2006 03 04  1545    53798   56700      0    1.54e+00    0    1.08e+00
2006 03 04  1550    53798   57000      0    1.52e+00    0    1.07e+00
2006 03 04  1555    53798   57300      0    1.54e+00    0    1.09e+00
2006 03 04  1600    53798   57600      0    1.54e+00    0    1.09e+00
2006 03 04  1605    53798   57900      0    1.52e+00    0    1.06e+00
2006 03 04  1610    53798   58200      0    1.54e+00    0    1.08e+00
2006 03 04  1615    53798   58500      0    1.55e+00    0    1.09e+00
2006 03 04  1620    53798   58800      0    1.51e+00    0    1.05e+00
2006 03 04  1625    53798   59100      0    1.56e+00    0    1.10e+00
2006 03 04  1630    53798   59400      0    1.56e+00    0    1.10e+00
2006 03 04  1635    53798   59700      0    1.52e+00    0    1.06e+00
2006 03 04  1640    53798   60000      0    1.56e+00    0    1.11e+00
2006 03 04  1645    53798   60300      0    1.50e+00    0    1.07e+00
2006 03 04  1650    53798   60600      0    1.56e+00    0    1.09e+00
2006 03 04  1655    53798   60900      0    1.52e+00    0    1.06e+00
2006 03 04  1700    53798   61200      0    1.51e+00    0    1.06e+00
2006 03 04  1705    53798   61500      0    1.54e+00    0    1.09e+00
2006 03 04  1710    53798   61800      0    1.51e+00    0    1.06e+00
2006 03 04  1715    53798   62100      0    1.54e+00    0    1.08e+00
2006 03 04  1720    53798   62400      0    1.54e+00    0    1.09e+00
2006 03 04  1725    53798   62700      0    1.56e+00    0    1.09e+00
2006 03 04  1730    53798   63000      0    1.53e+00    0    1.06e+00
2006 03 04  1735    53798   63300      0    1.54e+00    0    1.07e+00
2006 03 04  1740    53798   63600      0    1.53e+00    0    1.07e+00
2006 03 04  1745    53798   63900      0    1.54e+00    0    1.08e+00
2006 03 04  1750    53798   64200      0    1.53e+00    0    1.07e+00
2006 03 04  1755    53798   64500      0    1.55e+00    0    1.09e+00
2006 03 04  1800    53798   64800      0    1.56e+00    0    1.09e+00
2006 03 04  1805    53798   65100      0    1.56e+00    0    1.09e+00
2006 03 04  1810    53798   65400      0    1.57e+00    0    1.12e+00
2006 03 04  1815    53798   65700      0    1.55e+00    0    1.09e+00
2006 03 04  1820    53798   66000      0    1.54e+00    0    1.08e+00
2006 03 04  1825    53798   66300      0    1.55e+00    0    1.08e+00
2006 03 04  1830    53798   66600      0    1.52e+00    0    1.06e+00
2006 03 04  1835    53798   66900      0    1.56e+00    0    1.10e+00
2006 03 04  1840    53798   67200      0    1.51e+00    0    1.06e+00
2006 03 04  1845    53798   67500      0    1.54e+00    0    1.08e+00
2006 03 04  1850    53798   67800      0    1.51e+00    0    1.06e+00
2006 03 04  1855    53798   68100      0    1.52e+00    0    1.06e+00
2006 03 04  1900    53798   68400      0    1.52e+00    0    1.08e+00
2006 03 04  1905    53798   68700      0    1.57e+00    0    1.09e+00
2006 03 04  1910    53798   69000      0    1.52e+00    0    1.07e+00
2006 03 04  1915    53798   69300      0    1.55e+00    0    1.10e+00
2006 03 04  1920    53798   69600      0    1.53e+00    0    1.07e+00
2006 03 04  1925    53798   69900      0    1.51e+00    0    1.07e+00
2006 03 04  1930    53798   70200      0    1.54e+00    0    1.10e+00
2006 03 04  1935    53798   70500      0    1.55e+00    0    1.08e+00
2006 03 04  1940    53798   70800      0    1.54e+00    0    1.09e+00
2006 03 04  1945    53798   71100      0    1.54e+00    0    1.08e+00
2006 03 04  1950    53798   71400      0    1.51e+00    0    1.06e+00
2006 03 04  1955    53798   71700      0    1.52e+00    0    1.07e+00
2006 03 04  2000    53798   72000      0    1.54e+00    0    1.07e+00
2006 03 04  2005    53798   72300      0    1.52e+00    0    1.05e+00
2006 03 04  2010    53798   72600      0    1.49e+00    0    1.04e+00
2006 03 04  2015    53798   72900      0    1.54e+00    0    1.08e+00
2006 03 04  2020    53798   73200      0    1.52e+00    0    1.07e+00
2006 03 04  2025    53798   73500      0    1.52e+00    0    1.08e+00
2006 03 04  2030    53798   73800      0    1.53e+00    0    1.08e+00
2006 03 04  2035    53798   74100      0    1.54e+00    0    1.08e+00
2006 03 04  2040    53798   74400      0    1.51e+00    0    1.06e+00
2006 03 04  2045    53798   74700      0    1.54e+00    0    1.08e+00
2006 03 04  2050    53798   75000      0    1.53e+00    0    1.08e+00
2006 03 04  2055    53798   75300      0    1.55e+00    0    1.09e+00
2006 03 04  2100    53798   75600      0    1.55e+00    0    1.10e+00
2006 03 04  2105    53798   75900      0    1.55e+00    0    1.09e+00
2006 03 04  2110    53798   76200      0    1.54e+00    0    1.08e+00
2006 03 04  2115    53798   76500      0    1.54e+00    0    1.08e+00
2006 03 04  2120    53798   76800      0    1.54e+00    0    1.08e+00
2006 03 04  2125    53798   77100      0    1.53e+00    0    1.08e+00
2006 03 04  2130    53798   77400      0    1.54e+00    0    1.09e+00
2006 03 04  2135    53798   77700      0    1.52e+00    0    1.06e+00
2006 03 04  2140    53798   78000      0    1.55e+00    0    1.09e+00
2006 03 04  2145    53798   78300      0    1.53e+00    0    1.06e+00
2006 03 04  2150    53798   78600      0    1.52e+00    0    1.06e+00
2006 03 04  2155    53798   78900      0    1.49e+00    0    1.04e+00
2006 03 04  2200    53798   79200      0    1.50e+00    0    1.04e+00
2006 03 04  2205    53798   79500      0    1.53e+00    0    1.08e+00
2006 03 04  2210    53798   79800      0    1.54e+00    0    1.07e+00
2006 03 04  2215    53798   80100      0    1.51e+00    0    1.06e+00
2006 03 04  2220    53798   80400      0    1.53e+00    0    1.08e+00
2006 03 04  2225    53798   80700      0    1.51e+00    0    1.05e+00
2006 03 04  2230    53798   81000      0    1.54e+00    0    1.08e+00
2006 03 04  2235    53798   81300      0    1.52e+00    0    1.06e+00
2006 03 04  2240    53798   81600      0    1.54e+00    0    1.07e+00
2006 03 04  2245    53798   81900      0    1.53e+00    0    1.08e+00
2006 03 04  2250    53798   82200      0    1.52e+00    0    1.06e+00
2006 03 04  2255    53798   82500      0    1.54e+00    0    1.07e+00
2006 03 04  2300    53798   82800      0    1.51e+00    0    1.06e+00
2006 03 04  2305    53798   83100      0    1.55e+00    0    1.10e+00
2006 03 04  2310    53798   83400      0    1.54e+00    0    1.08e+00
2006 03 04  2315    53798   83700      0    1.56e+00    0    1.09e+00
2006 03 04  2320    53798   84000      0    1.53e+00    0    1.07e+00
2006 03 04  2325    53798   84300      0    1.53e+00    0    1.06e+00
2006 03 04  2330    53798   84600      0    1.54e+00    0    1.09e+00
2006 03 04  2335    53798   84900      0    1.53e+00    0    1.07e+00
2006 03 04  2340    53798   85200      0    1.51e+00    0    1.06e+00
2006 03 04  2345    53798   85500      0    1.52e+00    0    1.07e+00
2006 03 04  2350    53798   85800      0    1.51e+00    0    1.06e+00
2006 03 04  2355    53798   86100      0    1.53e+00    0    1.08e+00
