:Data_list: 20061001_ace_sis_5m.txt
:Created: 2006 Oct 02 0011 UT
# Prepared by the U.S. Dept. of Commerce, NOAA, Space Environment Center.
# Please send comments and suggestions to SEC.Webmaster@noaa.gov 
# 
# Units: proton flux p/cs2-sec-ster
# Status(S): 0 = nominal data, 1 to 8 = bad data record, 9 = no data
# Missing data values: -1.00e+05
# Source: ACE Satellite - Solar Isotope Spectrometer
#
# 5-minute averaged Real-time Integral Flux of High-energy Solar Protons
# 
#                 Modified Seconds
# UT Date   Time   Julian  of the      ---- Integral Proton Flux ----
# YR MO DA  HHMM     Day     Day       S    > 10 MeV    S    > 30 MeV
#--------------------------------------------------------------------
2006 10 01  0000    54009       0      0    1.62e+00    0    1.13e+00
2006 10 01  0005    54009     300      0    1.61e+00    0    1.12e+00
2006 10 01  0010    54009     600      0    1.62e+00    0    1.13e+00
2006 10 01  0015    54009     900      0    1.62e+00    0    1.13e+00
2006 10 01  0020    54009    1200      0    1.64e+00    0    1.16e+00
2006 10 01  0025    54009    1500      0    1.67e+00    0    1.16e+00
2006 10 01  0030    54009    1800      0    1.61e+00    0    1.13e+00
2006 10 01  0035    54009    2100      0    1.63e+00    0    1.14e+00
2006 10 01  0040    54009    2400      0    1.62e+00    0    1.13e+00
2006 10 01  0045    54009    2700      0    1.65e+00    0    1.15e+00
2006 10 01  0050    54009    3000      0    1.61e+00    0    1.13e+00
2006 10 01  0055    54009    3300      0    1.66e+00    0    1.16e+00
2006 10 01  0100    54009    3600      0    1.64e+00    0    1.15e+00
2006 10 01  0105    54009    3900      0    1.64e+00    0    1.16e+00
2006 10 01  0110    54009    4200      0    1.64e+00    0    1.14e+00
2006 10 01  0115    54009    4500      0    1.62e+00    0    1.14e+00
2006 10 01  0120    54009    4800      0    1.62e+00    0    1.14e+00
2006 10 01  0125    54009    5100      0    1.60e+00    0    1.12e+00
2006 10 01  0130    54009    5400      0    1.62e+00    0    1.14e+00
2006 10 01  0135    54009    5700      0    1.63e+00    0    1.15e+00
2006 10 01  0140    54009    6000      0    1.62e+00    0    1.13e+00
2006 10 01  0145    54009    6300      0    1.61e+00    0    1.12e+00
2006 10 01  0150    54009    6600      0    1.66e+00    0    1.18e+00
2006 10 01  0155    54009    6900      0    1.66e+00    0    1.17e+00
2006 10 01  0200    54009    7200      0    1.63e+00    0    1.15e+00
2006 10 01  0205    54009    7500      0    1.66e+00    0    1.16e+00
2006 10 01  0210    54009    7800      0    1.62e+00    0    1.13e+00
2006 10 01  0215    54009    8100      0    1.62e+00    0    1.14e+00
2006 10 01  0220    54009    8400      0    1.62e+00    0    1.12e+00
2006 10 01  0225    54009    8700      0    1.65e+00    0    1.14e+00
2006 10 01  0230    54009    9000      0    1.63e+00    0    1.15e+00
2006 10 01  0235    54009    9300      0    1.62e+00    0    1.14e+00
2006 10 01  0240    54009    9600      0    1.65e+00    0    1.17e+00
2006 10 01  0245    54009    9900      0    1.63e+00    0    1.15e+00
2006 10 01  0250    54009   10200      0    1.64e+00    0    1.16e+00
2006 10 01  0255    54009   10500      0    1.68e+00    0    1.19e+00
2006 10 01  0300    54009   10800      0    1.59e+00    0    1.11e+00
2006 10 01  0305    54009   11100      0    1.61e+00    0    1.14e+00
2006 10 01  0310    54009   11400      0    1.64e+00    0    1.15e+00
2006 10 01  0315    54009   11700      0    1.64e+00    0    1.14e+00
2006 10 01  0320    54009   12000      0    1.65e+00    0    1.17e+00
2006 10 01  0325    54009   12300      0    1.64e+00    0    1.15e+00
2006 10 01  0330    54009   12600      0    1.63e+00    0    1.14e+00
2006 10 01  0335    54009   12900      0    1.59e+00    0    1.12e+00
2006 10 01  0340    54009   13200      0    1.63e+00    0    1.15e+00
2006 10 01  0345    54009   13500      0    1.62e+00    0    1.13e+00
2006 10 01  0350    54009   13800      0    1.64e+00    0    1.15e+00
2006 10 01  0355    54009   14100      0    1.63e+00    0    1.14e+00
2006 10 01  0400    54009   14400      0    1.67e+00    0    1.17e+00
2006 10 01  0405    54009   14700      0    1.63e+00    0    1.15e+00
2006 10 01  0410    54009   15000      0    1.64e+00    0    1.17e+00
2006 10 01  0415    54009   15300      0    1.64e+00    0    1.14e+00
2006 10 01  0420    54009   15600      0    1.61e+00    0    1.13e+00
2006 10 01  0425    54009   15900      0    1.65e+00    0    1.15e+00
2006 10 01  0430    54009   16200      0    1.65e+00    0    1.15e+00
2006 10 01  0435    54009   16500      0    1.61e+00    0    1.12e+00
2006 10 01  0440    54009   16800      0    1.62e+00    0    1.14e+00
2006 10 01  0445    54009   17100      0    1.61e+00    0    1.13e+00
2006 10 01  0450    54009   17400      0    1.63e+00    0    1.14e+00
2006 10 01  0455    54009   17700      0    1.61e+00    0    1.14e+00
2006 10 01  0500    54009   18000      0    1.67e+00    0    1.17e+00
2006 10 01  0505    54009   18300      0    1.64e+00    0    1.15e+00
2006 10 01  0510    54009   18600      0    1.61e+00    0    1.13e+00
2006 10 01  0515    54009   18900      0    1.64e+00    0    1.14e+00
2006 10 01  0520    54009   19200      0    1.65e+00    0    1.15e+00
2006 10 01  0525    54009   19500      0    1.62e+00    0    1.14e+00
2006 10 01  0530    54009   19800      0    1.62e+00    0    1.13e+00
2006 10 01  0535    54009   20100      0    1.62e+00    0    1.14e+00
2006 10 01  0540    54009   20400      0    1.65e+00    0    1.15e+00
2006 10 01  0545    54009   20700      0    1.64e+00    0    1.15e+00
2006 10 01  0550    54009   21000      0    1.64e+00    0    1.16e+00
2006 10 01  0555    54009   21300      0    1.59e+00    0    1.12e+00
2006 10 01  0600    54009   21600      0    1.61e+00    0    1.12e+00
2006 10 01  0605    54009   21900      0    1.67e+00    0    1.17e+00
2006 10 01  0610    54009   22200      0    1.67e+00    0    1.18e+00
2006 10 01  0615    54009   22500      0    1.61e+00    0    1.12e+00
2006 10 01  0620    54009   22800      0    1.63e+00    0    1.15e+00
2006 10 01  0625    54009   23100      0    1.63e+00    0    1.15e+00
2006 10 01  0630    54009   23400      0    1.61e+00    0    1.14e+00
2006 10 01  0635    54009   23700      0    1.63e+00    0    1.15e+00
2006 10 01  0640    54009   24000      0    1.66e+00    0    1.15e+00
2006 10 01  0645    54009   24300      0    1.62e+00    0    1.13e+00
2006 10 01  0650    54009   24600      0    1.59e+00    0    1.10e+00
2006 10 01  0655    54009   24900      0    1.60e+00    0    1.12e+00
2006 10 01  0700    54009   25200      0    1.62e+00    0    1.14e+00
2006 10 01  0705    54009   25500      0    1.63e+00    0    1.14e+00
2006 10 01  0710    54009   25800      0    1.60e+00    0    1.13e+00
2006 10 01  0715    54009   26100      0    1.62e+00    0    1.14e+00
2006 10 01  0720    54009   26400      0    1.61e+00    0    1.13e+00
2006 10 01  0725    54009   26700      0    1.61e+00    0    1.13e+00
2006 10 01  0730    54009   27000      0    1.61e+00    0    1.13e+00
2006 10 01  0735    54009   27300      0    1.61e+00    0    1.13e+00
2006 10 01  0740    54009   27600      0    1.61e+00    0    1.12e+00
2006 10 01  0745    54009   27900      0    1.60e+00    0    1.13e+00
2006 10 01  0750    54009   28200      0    1.59e+00    0    1.12e+00
2006 10 01  0755    54009   28500      0    1.64e+00    0    1.15e+00
2006 10 01  0800    54009   28800      0    1.62e+00    0    1.13e+00
2006 10 01  0805    54009   29100      0    1.62e+00    0    1.13e+00
2006 10 01  0810    54009   29400      0    1.59e+00    0    1.13e+00
2006 10 01  0815    54009   29700      0    1.60e+00    0    1.13e+00
2006 10 01  0820    54009   30000      0    1.57e+00    0    1.09e+00
2006 10 01  0825    54009   30300      0    1.59e+00    0    1.12e+00
2006 10 01  0830    54009   30600      0    1.59e+00    0    1.11e+00
2006 10 01  0835    54009   30900      0    1.59e+00    0    1.12e+00
2006 10 01  0840    54009   31200      0    1.61e+00    0    1.12e+00
2006 10 01  0845    54009   31500      0    1.59e+00    0    1.11e+00
2006 10 01  0850    54009   31800      0    1.61e+00    0    1.13e+00
2006 10 01  0855    54009   32100      0    1.60e+00    0    1.12e+00
2006 10 01  0900    54009   32400      0    1.62e+00    0    1.13e+00
2006 10 01  0905    54009   32700      0    1.61e+00    0    1.13e+00
2006 10 01  0910    54009   33000      0    1.58e+00    0    1.10e+00
2006 10 01  0915    54009   33300      0    1.62e+00    0    1.14e+00
2006 10 01  0920    54009   33600      0    1.59e+00    0    1.10e+00
2006 10 01  0925    54009   33900      0    1.62e+00    0    1.13e+00
2006 10 01  0930    54009   34200      0    1.58e+00    0    1.11e+00
2006 10 01  0935    54009   34500      0    1.58e+00    0    1.12e+00
2006 10 01  0940    54009   34800      0    1.58e+00    0    1.11e+00
2006 10 01  0945    54009   35100      0    1.61e+00    0    1.10e+00
2006 10 01  0950    54009   35400      0    1.59e+00    0    1.13e+00
2006 10 01  0955    54009   35700      0    1.62e+00    0    1.14e+00
2006 10 01  1000    54009   36000      0    1.62e+00    0    1.14e+00
2006 10 01  1005    54009   36300      0    1.61e+00    0    1.13e+00
2006 10 01  1010    54009   36600      0    1.63e+00    0    1.14e+00
2006 10 01  1015    54009   36900      0    1.63e+00    0    1.13e+00
2006 10 01  1020    54009   37200      0    1.64e+00    0    1.14e+00
2006 10 01  1025    54009   37500      0    1.62e+00    0    1.14e+00
2006 10 01  1030    54009   37800      0    1.59e+00    0    1.11e+00
2006 10 01  1035    54009   38100      0    1.63e+00    0    1.15e+00
2006 10 01  1040    54009   38400      0    1.61e+00    0    1.12e+00
2006 10 01  1045    54009   38700      0    1.62e+00    0    1.13e+00
2006 10 01  1050    54009   39000      0    1.64e+00    0    1.15e+00
2006 10 01  1055    54009   39300      0    1.61e+00    0    1.14e+00
2006 10 01  1100    54009   39600      0    1.67e+00    0    1.18e+00
2006 10 01  1105    54009   39900      0    1.58e+00    0    1.11e+00
2006 10 01  1110    54009   40200      0    1.62e+00    0    1.15e+00
2006 10 01  1115    54009   40500      0    1.63e+00    0    1.14e+00
2006 10 01  1120    54009   40800      0    1.62e+00    0    1.15e+00
2006 10 01  1125    54009   41100      0    1.60e+00    0    1.12e+00
2006 10 01  1130    54009   41400      0    1.63e+00    0    1.15e+00
2006 10 01  1135    54009   41700      0    1.59e+00    0    1.12e+00
2006 10 01  1140    54009   42000      0    1.61e+00    0    1.14e+00
2006 10 01  1145    54009   42300      0    1.60e+00    0    1.11e+00
2006 10 01  1150    54009   42600      0    1.63e+00    0    1.15e+00
2006 10 01  1155    54009   42900      0    1.66e+00    0    1.17e+00
2006 10 01  1200    54009   43200      0    1.62e+00    0    1.13e+00
2006 10 01  1205    54009   43500      0    1.63e+00    0    1.14e+00
2006 10 01  1210    54009   43800      0    1.61e+00    0    1.13e+00
2006 10 01  1215    54009   44100      0    1.63e+00    0    1.15e+00
2006 10 01  1220    54009   44400      0    1.64e+00    0    1.15e+00
2006 10 01  1225    54009   44700      0    1.63e+00    0    1.14e+00
2006 10 01  1230    54009   45000      0    1.63e+00    0    1.14e+00
2006 10 01  1235    54009   45300      0    1.62e+00    0    1.13e+00
2006 10 01  1240    54009   45600      0    1.64e+00    0    1.15e+00
2006 10 01  1245    54009   45900      0    1.62e+00    0    1.14e+00
2006 10 01  1250    54009   46200      0    1.64e+00    0    1.15e+00
2006 10 01  1255    54009   46500      0    1.62e+00    0    1.15e+00
2006 10 01  1300    54009   46800      0    1.62e+00    0    1.12e+00
2006 10 01  1305    54009   47100      0    1.64e+00    0    1.16e+00
2006 10 01  1310    54009   47400      0    1.60e+00    0    1.13e+00
2006 10 01  1315    54009   47700      0    1.63e+00    0    1.15e+00
2006 10 01  1320    54009   48000      0    1.62e+00    0    1.15e+00
2006 10 01  1325    54009   48300      0    1.59e+00    0    1.12e+00
2006 10 01  1330    54009   48600      0    1.61e+00    0    1.14e+00
2006 10 01  1335    54009   48900      0    1.60e+00    0    1.12e+00
2006 10 01  1340    54009   49200      0    1.60e+00    0    1.13e+00
2006 10 01  1345    54009   49500      0    1.65e+00    0    1.15e+00
2006 10 01  1350    54009   49800      0    1.60e+00    0    1.13e+00
2006 10 01  1355    54009   50100      0    1.62e+00    0    1.13e+00
2006 10 01  1400    54009   50400      0    1.63e+00    0    1.15e+00
2006 10 01  1405    54009   50700      0    1.64e+00    0    1.16e+00
2006 10 01  1410    54009   51000      0    1.63e+00    0    1.13e+00
2006 10 01  1415    54009   51300      0    1.62e+00    0    1.14e+00
2006 10 01  1420    54009   51600      0    1.60e+00    0    1.12e+00
2006 10 01  1425    54009   51900      0    1.62e+00    0    1.14e+00
2006 10 01  1430    54009   52200      0    1.64e+00    0    1.15e+00
2006 10 01  1435    54009   52500      0    1.63e+00    0    1.15e+00
2006 10 01  1440    54009   52800      0    1.53e+00    0    1.05e+00
2006 10 01  1445    54009   53100      0    1.63e+00    0    1.14e+00
2006 10 01  1450    54009   53400      0    1.61e+00    0    1.12e+00
2006 10 01  1455    54009   53700      0    1.63e+00    0    1.14e+00
2006 10 01  1500    54009   54000      0    1.59e+00    0    1.11e+00
2006 10 01  1505    54009   54300      0    1.62e+00    0    1.13e+00
2006 10 01  1510    54009   54600      0    1.61e+00    0    1.12e+00
2006 10 01  1515    54009   54900      0    1.60e+00    0    1.13e+00
2006 10 01  1520    54009   55200      0    1.59e+00    0    1.11e+00
2006 10 01  1525    54009   55500      0    1.62e+00    0    1.13e+00
2006 10 01  1530    54009   55800      0    1.69e+00    0    1.19e+00
2006 10 01  1535    54009   56100      0    1.65e+00    0    1.16e+00
2006 10 01  1540    54009   56400      0    1.60e+00    0    1.12e+00
2006 10 01  1545    54009   56700      0    1.61e+00    0    1.13e+00
2006 10 01  1550    54009   57000      0    1.60e+00    0    1.11e+00
2006 10 01  1555    54009   57300      0    1.60e+00    0    1.12e+00
2006 10 01  1600    54009   57600      0    1.60e+00    0    1.12e+00
2006 10 01  1605    54009   57900      0    1.59e+00    0    1.12e+00
2006 10 01  1610    54009   58200      0    1.59e+00    0    1.11e+00
2006 10 01  1615    54009   58500      0    1.62e+00    0    1.13e+00
2006 10 01  1620    54009   58800      0    1.62e+00    0    1.14e+00
2006 10 01  1625    54009   59100      0    1.63e+00    0    1.14e+00
2006 10 01  1630    54009   59400      0    1.60e+00    0    1.13e+00
2006 10 01  1635    54009   59700      0    1.65e+00    0    1.15e+00
2006 10 01  1640    54009   60000      0    1.60e+00    0    1.11e+00
2006 10 01  1645    54009   60300      0    1.58e+00    0    1.10e+00
2006 10 01  1650    54009   60600      0    1.65e+00    0    1.16e+00
2006 10 01  1655    54009   60900      0    1.62e+00    0    1.14e+00
2006 10 01  1700    54009   61200      0    1.61e+00    0    1.12e+00
2006 10 01  1705    54009   61500      0    1.60e+00    0    1.11e+00
2006 10 01  1710    54009   61800      0    1.64e+00    0    1.14e+00
2006 10 01  1715    54009   62100      0    1.64e+00    0    1.15e+00
2006 10 01  1720    54009   62400      0    1.62e+00    0    1.13e+00
2006 10 01  1725    54009   62700      0    1.62e+00    0    1.13e+00
2006 10 01  1730    54009   63000      0    1.63e+00    0    1.14e+00
2006 10 01  1735    54009   63300      0    1.60e+00    0    1.12e+00
2006 10 01  1740    54009   63600      0    1.64e+00    0    1.15e+00
2006 10 01  1745    54009   63900      0    1.60e+00    0    1.12e+00
2006 10 01  1750    54009   64200      0    1.65e+00    0    1.16e+00
2006 10 01  1755    54009   64500      0    1.60e+00    0    1.11e+00
2006 10 01  1800    54009   64800      0    1.61e+00    0    1.13e+00
2006 10 01  1805    54009   65100      0    1.62e+00    0    1.15e+00
2006 10 01  1810    54009   65400      0    1.60e+00    0    1.12e+00
2006 10 01  1815    54009   65700      0    1.55e+00    0    1.09e+00
2006 10 01  1820    54009   66000      0    1.59e+00    0    1.11e+00
2006 10 01  1825    54009   66300      0    1.60e+00    0    1.13e+00
2006 10 01  1830    54009   66600      0    1.62e+00    0    1.14e+00
2006 10 01  1835    54009   66900      0    1.63e+00    0    1.15e+00
2006 10 01  1840    54009   67200      0    1.61e+00    0    1.13e+00
2006 10 01  1845    54009   67500      0    1.62e+00    0    1.13e+00
2006 10 01  1850    54009   67800      0    1.60e+00    0    1.11e+00
2006 10 01  1855    54009   68100      0    1.58e+00    0    1.11e+00
2006 10 01  1900    54009   68400      0    1.61e+00    0    1.13e+00
2006 10 01  1905    54009   68700      0    1.62e+00    0    1.12e+00
2006 10 01  1910    54009   69000      0    1.61e+00    0    1.12e+00
2006 10 01  1915    54009   69300      0    1.62e+00    0    1.14e+00
2006 10 01  1920    54009   69600      0    1.62e+00    0    1.14e+00
2006 10 01  1925    54009   69900      0    1.65e+00    0    1.16e+00
2006 10 01  1930    54009   70200      0    1.62e+00    0    1.14e+00
2006 10 01  1935    54009   70500      0    1.58e+00    0    1.11e+00
2006 10 01  1940    54009   70800      0    1.60e+00    0    1.13e+00
2006 10 01  1945    54009   71100      0    1.61e+00    0    1.14e+00
2006 10 01  1950    54009   71400      0    1.65e+00    0    1.16e+00
2006 10 01  1955    54009   71700      0    1.61e+00    0    1.13e+00
2006 10 01  2000    54009   72000      0    1.60e+00    0    1.11e+00
2006 10 01  2005    54009   72300      0    1.62e+00    0    1.13e+00
2006 10 01  2010    54009   72600      0    1.62e+00    0    1.14e+00
2006 10 01  2015    54009   72900      0    1.63e+00    0    1.14e+00
2006 10 01  2020    54009   73200      0    1.58e+00    0    1.10e+00
2006 10 01  2025    54009   73500      0    1.57e+00    0    1.09e+00
2006 10 01  2030    54009   73800      0    1.65e+00    0    1.16e+00
2006 10 01  2035    54009   74100      0    1.62e+00    0    1.15e+00
2006 10 01  2040    54009   74400      0    1.61e+00    0    1.12e+00
2006 10 01  2045    54009   74700      0    1.61e+00    0    1.14e+00
2006 10 01  2050    54009   75000      0    1.64e+00    0    1.16e+00
2006 10 01  2055    54009   75300      0    1.61e+00    0    1.12e+00
2006 10 01  2100    54009   75600      0    1.64e+00    0    1.16e+00
2006 10 01  2105    54009   75900      0    1.65e+00    0    1.17e+00
2006 10 01  2110    54009   76200      0    1.62e+00    0    1.12e+00
2006 10 01  2115    54009   76500      0    1.63e+00    0    1.14e+00
2006 10 01  2120    54009   76800      0    1.63e+00    0    1.14e+00
2006 10 01  2125    54009   77100      0    1.65e+00    0    1.16e+00
2006 10 01  2130    54009   77400      0    1.60e+00    0    1.12e+00
2006 10 01  2135    54009   77700      0    1.58e+00    0    1.09e+00
2006 10 01  2140    54009   78000      0    1.63e+00    0    1.14e+00
2006 10 01  2145    54009   78300      0    1.63e+00    0    1.14e+00
2006 10 01  2150    54009   78600      0    1.63e+00    0    1.14e+00
2006 10 01  2155    54009   78900      0    1.61e+00    0    1.11e+00
2006 10 01  2200    54009   79200      0    1.65e+00    0    1.16e+00
2006 10 01  2205    54009   79500      0    1.65e+00    0    1.16e+00
2006 10 01  2210    54009   79800      0    1.59e+00    0    1.12e+00
2006 10 01  2215    54009   80100      0    1.63e+00    0    1.15e+00
2006 10 01  2220    54009   80400      0    1.69e+00    0    1.17e+00
2006 10 01  2225    54009   80700      0    1.60e+00    0    1.12e+00
2006 10 01  2230    54009   81000      0    1.64e+00    0    1.14e+00
2006 10 01  2235    54009   81300      0    1.64e+00    0    1.13e+00
2006 10 01  2240    54009   81600      0    1.61e+00    0    1.14e+00
2006 10 01  2245    54009   81900      0    1.62e+00    0    1.14e+00
2006 10 01  2250    54009   82200      0    1.65e+00    0    1.16e+00
2006 10 01  2255    54009   82500      0    1.64e+00    0    1.15e+00
2006 10 01  2300    54009   82800      0    1.64e+00    0    1.15e+00
2006 10 01  2305    54009   83100      0    1.59e+00    0    1.11e+00
2006 10 01  2310    54009   83400      0    1.65e+00    0    1.17e+00
2006 10 01  2315    54009   83700      0    1.64e+00    0    1.16e+00
2006 10 01  2320    54009   84000      0    1.61e+00    0    1.12e+00
2006 10 01  2325    54009   84300      0    1.65e+00    0    1.15e+00
2006 10 01  2330    54009   84600      0    1.65e+00    0    1.16e+00
2006 10 01  2335    54009   84900      0    1.60e+00    0    1.12e+00
2006 10 01  2340    54009   85200      0    1.57e+00    0    1.09e+00
2006 10 01  2345    54009   85500      0    1.64e+00    0    1.15e+00
2006 10 01  2350    54009   85800      0    1.65e+00    0    1.16e+00
2006 10 01  2355    54009   86100      0    1.64e+00    0    1.14e+00
