:Data_list: 20060913_ace_sis_5m.txt
:Created: 2006 Sep 14 0011 UT
# Prepared by the U.S. Dept. of Commerce, NOAA, Space Environment Center.
# Please send comments and suggestions to SEC.Webmaster@noaa.gov 
# 
# Units: proton flux p/cs2-sec-ster
# Status(S): 0 = nominal data, 1 to 8 = bad data record, 9 = no data
# Missing data values: -1.00e+05
# Source: ACE Satellite - Solar Isotope Spectrometer
#
# 5-minute averaged Real-time Integral Flux of High-energy Solar Protons
# 
#                 Modified Seconds
# UT Date   Time   Julian  of the      ---- Integral Proton Flux ----
# YR MO DA  HHMM     Day     Day       S    > 10 MeV    S    > 30 MeV
#--------------------------------------------------------------------
2006 09 13  0000    53991       0      0    1.64e+00    0    1.15e+00
2006 09 13  0005    53991     300      0    1.62e+00    0    1.15e+00
2006 09 13  0010    53991     600      0    1.65e+00    0    1.15e+00
2006 09 13  0015    53991     900      0    1.64e+00    0    1.15e+00
2006 09 13  0020    53991    1200      0    1.65e+00    0    1.16e+00
2006 09 13  0025    53991    1500      0    1.66e+00    0    1.16e+00
2006 09 13  0030    53991    1800      0    1.66e+00    0    1.16e+00
2006 09 13  0035    53991    2100      0    1.64e+00    0    1.15e+00
2006 09 13  0040    53991    2400      0    1.71e+00    0    1.20e+00
2006 09 13  0045    53991    2700      0    1.66e+00    0    1.16e+00
2006 09 13  0050    53991    3000      0    1.63e+00    0    1.13e+00
2006 09 13  0055    53991    3300      0    1.65e+00    0    1.14e+00
2006 09 13  0100    53991    3600      0    1.65e+00    0    1.15e+00
2006 09 13  0105    53991    3900      0    1.65e+00    0    1.15e+00
2006 09 13  0110    53991    4200      0    1.67e+00    0    1.16e+00
2006 09 13  0115    53991    4500      0    1.64e+00    0    1.15e+00
2006 09 13  0120    53991    4800      0    1.64e+00    0    1.14e+00
2006 09 13  0125    53991    5100      0    1.62e+00    0    1.14e+00
2006 09 13  0130    53991    5400      0    1.65e+00    0    1.15e+00
2006 09 13  0135    53991    5700      0    1.67e+00    0    1.18e+00
2006 09 13  0140    53991    6000      0    1.66e+00    0    1.16e+00
2006 09 13  0145    53991    6300      0    1.69e+00    0    1.19e+00
2006 09 13  0150    53991    6600      0    1.62e+00    0    1.14e+00
2006 09 13  0155    53991    6900      0    1.66e+00    0    1.17e+00
2006 09 13  0200    53991    7200      0    1.67e+00    0    1.16e+00
2006 09 13  0205    53991    7500      0    1.64e+00    0    1.14e+00
2006 09 13  0210    53991    7800      0    1.65e+00    0    1.15e+00
2006 09 13  0215    53991    8100      0    1.65e+00    0    1.16e+00
2006 09 13  0220    53991    8400      0    1.68e+00    0    1.17e+00
2006 09 13  0225    53991    8700      0    1.65e+00    0    1.16e+00
2006 09 13  0230    53991    9000      0    1.64e+00    0    1.15e+00
2006 09 13  0235    53991    9300      0    1.66e+00    0    1.15e+00
2006 09 13  0240    53991    9600      0    1.64e+00    0    1.14e+00
2006 09 13  0245    53991    9900      0    1.66e+00    0    1.16e+00
2006 09 13  0250    53991   10200      0    1.70e+00    0    1.19e+00
2006 09 13  0255    53991   10500      0    1.66e+00    0    1.16e+00
2006 09 13  0300    53991   10800      0    1.67e+00    0    1.17e+00
2006 09 13  0305    53991   11100      0    1.65e+00    0    1.16e+00
2006 09 13  0310    53991   11400      0    1.66e+00    0    1.16e+00
2006 09 13  0315    53991   11700      0    1.65e+00    0    1.16e+00
2006 09 13  0320    53991   12000      0    1.68e+00    0    1.18e+00
2006 09 13  0325    53991   12300      0    1.66e+00    0    1.17e+00
2006 09 13  0330    53991   12600      0    1.64e+00    0    1.15e+00
2006 09 13  0335    53991   12900      0    1.69e+00    0    1.19e+00
2006 09 13  0340    53991   13200      9   -1.00e+05    9   -1.00e+05
2006 09 13  0345    53991   13500      9   -1.00e+05    9   -1.00e+05
2006 09 13  0350    53991   13800      9   -1.00e+05    9   -1.00e+05
2006 09 13  0355    53991   14100      9   -1.00e+05    9   -1.00e+05
2006 09 13  0400    53991   14400      9   -1.00e+05    9   -1.00e+05
2006 09 13  0405    53991   14700      0    1.67e+00    0    1.17e+00
2006 09 13  0410    53991   15000      0    1.67e+00    0    1.18e+00
2006 09 13  0415    53991   15300      0    1.65e+00    0    1.16e+00
2006 09 13  0420    53991   15600      0    1.63e+00    0    1.15e+00
2006 09 13  0425    53991   15900      0    1.67e+00    0    1.16e+00
2006 09 13  0430    53991   16200      0    1.66e+00    0    1.15e+00
2006 09 13  0435    53991   16500      0    1.66e+00    0    1.17e+00
2006 09 13  0440    53991   16800      0    1.66e+00    0    1.15e+00
2006 09 13  0445    53991   17100      0    1.67e+00    0    1.16e+00
2006 09 13  0450    53991   17400      0    1.65e+00    0    1.16e+00
2006 09 13  0455    53991   17700      0    1.65e+00    0    1.16e+00
2006 09 13  0500    53991   18000      0    1.64e+00    0    1.14e+00
2006 09 13  0505    53991   18300      0    1.65e+00    0    1.16e+00
2006 09 13  0510    53991   18600      0    1.71e+00    0    1.20e+00
2006 09 13  0515    53991   18900      0    1.67e+00    0    1.18e+00
2006 09 13  0520    53991   19200      0    1.66e+00    0    1.16e+00
2006 09 13  0525    53991   19500      0    1.64e+00    0    1.16e+00
2006 09 13  0530    53991   19800      0    1.66e+00    0    1.16e+00
2006 09 13  0535    53991   20100      0    1.65e+00    0    1.16e+00
2006 09 13  0540    53991   20400      0    1.67e+00    0    1.17e+00
2006 09 13  0545    53991   20700      0    1.64e+00    0    1.15e+00
2006 09 13  0550    53991   21000      0    1.66e+00    0    1.17e+00
2006 09 13  0555    53991   21300      0    1.63e+00    0    1.12e+00
2006 09 13  0600    53991   21600      0    1.64e+00    0    1.15e+00
2006 09 13  0605    53991   21900      0    1.68e+00    0    1.19e+00
2006 09 13  0610    53991   22200      0    1.64e+00    0    1.15e+00
2006 09 13  0615    53991   22500      0    1.69e+00    0    1.20e+00
2006 09 13  0620    53991   22800      0    1.64e+00    0    1.14e+00
2006 09 13  0625    53991   23100      0    1.68e+00    0    1.18e+00
2006 09 13  0630    53991   23400      0    1.67e+00    0    1.16e+00
2006 09 13  0635    53991   23700      0    1.66e+00    0    1.15e+00
2006 09 13  0640    53991   24000      0    1.66e+00    0    1.15e+00
2006 09 13  0645    53991   24300      0    1.67e+00    0    1.18e+00
2006 09 13  0650    53991   24600      0    1.70e+00    0    1.19e+00
2006 09 13  0655    53991   24900      0    1.71e+00    0    1.19e+00
2006 09 13  0700    53991   25200      0    1.69e+00    0    1.19e+00
2006 09 13  0705    53991   25500      0    1.67e+00    0    1.18e+00
2006 09 13  0710    53991   25800      0    1.63e+00    0    1.13e+00
2006 09 13  0715    53991   26100      0    1.70e+00    0    1.19e+00
2006 09 13  0720    53991   26400      0    1.70e+00    0    1.18e+00
2006 09 13  0725    53991   26700      0    1.69e+00    0    1.19e+00
2006 09 13  0730    53991   27000      0    1.72e+00    0    1.21e+00
2006 09 13  0735    53991   27300      0    1.66e+00    0    1.16e+00
2006 09 13  0740    53991   27600      0    1.64e+00    0    1.16e+00
2006 09 13  0745    53991   27900      0    1.66e+00    0    1.16e+00
2006 09 13  0750    53991   28200      0    1.67e+00    0    1.18e+00
2006 09 13  0755    53991   28500      0    1.68e+00    0    1.18e+00
2006 09 13  0800    53991   28800      0    1.65e+00    0    1.15e+00
2006 09 13  0805    53991   29100      0    1.66e+00    0    1.17e+00
2006 09 13  0810    53991   29400      0    1.68e+00    0    1.18e+00
2006 09 13  0815    53991   29700      0    1.67e+00    0    1.16e+00
2006 09 13  0820    53991   30000      0    1.65e+00    0    1.17e+00
2006 09 13  0825    53991   30300      0    1.67e+00    0    1.17e+00
2006 09 13  0830    53991   30600      0    1.71e+00    0    1.20e+00
2006 09 13  0835    53991   30900      0    1.66e+00    0    1.16e+00
2006 09 13  0840    53991   31200      0    1.65e+00    0    1.16e+00
2006 09 13  0845    53991   31500      0    1.64e+00    0    1.15e+00
2006 09 13  0850    53991   31800      0    1.66e+00    0    1.16e+00
2006 09 13  0855    53991   32100      0    1.67e+00    0    1.16e+00
2006 09 13  0900    53991   32400      0    1.69e+00    0    1.19e+00
2006 09 13  0905    53991   32700      0    1.66e+00    0    1.18e+00
2006 09 13  0910    53991   33000      0    1.68e+00    0    1.18e+00
2006 09 13  0915    53991   33300      0    1.65e+00    0    1.15e+00
2006 09 13  0920    53991   33600      0    1.67e+00    0    1.17e+00
2006 09 13  0925    53991   33900      0    1.69e+00    0    1.18e+00
2006 09 13  0930    53991   34200      0    1.65e+00    0    1.16e+00
2006 09 13  0935    53991   34500      0    1.68e+00    0    1.17e+00
2006 09 13  0940    53991   34800      0    1.65e+00    0    1.15e+00
2006 09 13  0945    53991   35100      0    1.63e+00    0    1.13e+00
2006 09 13  0950    53991   35400      0    1.65e+00    0    1.15e+00
2006 09 13  0955    53991   35700      0    1.62e+00    0    1.14e+00
2006 09 13  1000    53991   36000      0    1.65e+00    0    1.16e+00
2006 09 13  1005    53991   36300      0    1.61e+00    0    1.13e+00
2006 09 13  1010    53991   36600      0    1.63e+00    0    1.13e+00
2006 09 13  1015    53991   36900      0    1.65e+00    0    1.15e+00
2006 09 13  1020    53991   37200      0    1.65e+00    0    1.16e+00
2006 09 13  1025    53991   37500      0    1.64e+00    0    1.14e+00
2006 09 13  1030    53991   37800      0    1.62e+00    0    1.13e+00
2006 09 13  1035    53991   38100      0    1.65e+00    0    1.15e+00
2006 09 13  1040    53991   38400      0    1.63e+00    0    1.15e+00
2006 09 13  1045    53991   38700      0    1.67e+00    0    1.18e+00
2006 09 13  1050    53991   39000      0    1.64e+00    0    1.14e+00
2006 09 13  1055    53991   39300      0    1.62e+00    0    1.13e+00
2006 09 13  1100    53991   39600      0    1.62e+00    0    1.13e+00
2006 09 13  1105    53991   39900      0    1.65e+00    0    1.17e+00
2006 09 13  1110    53991   40200      0    1.69e+00    0    1.18e+00
2006 09 13  1115    53991   40500      0    1.65e+00    0    1.17e+00
2006 09 13  1120    53991   40800      0    1.66e+00    0    1.16e+00
2006 09 13  1125    53991   41100      0    1.63e+00    0    1.13e+00
2006 09 13  1130    53991   41400      0    1.64e+00    0    1.15e+00
2006 09 13  1135    53991   41700      0    1.67e+00    0    1.17e+00
2006 09 13  1140    53991   42000      0    1.69e+00    0    1.18e+00
2006 09 13  1145    53991   42300      0    1.68e+00    0    1.16e+00
2006 09 13  1150    53991   42600      0    1.68e+00    0    1.18e+00
2006 09 13  1155    53991   42900      0    1.64e+00    0    1.15e+00
2006 09 13  1200    53991   43200      0    1.70e+00    0    1.19e+00
2006 09 13  1205    53991   43500      0    1.67e+00    0    1.19e+00
2006 09 13  1210    53991   43800      0    1.68e+00    0    1.19e+00
2006 09 13  1215    53991   44100      0    1.67e+00    0    1.16e+00
2006 09 13  1220    53991   44400      0    1.66e+00    0    1.17e+00
2006 09 13  1225    53991   44700      0    1.66e+00    0    1.18e+00
2006 09 13  1230    53991   45000      0    1.65e+00    0    1.16e+00
2006 09 13  1235    53991   45300      0    1.69e+00    0    1.19e+00
2006 09 13  1240    53991   45600      0    1.69e+00    0    1.19e+00
2006 09 13  1245    53991   45900      0    1.66e+00    0    1.16e+00
2006 09 13  1250    53991   46200      0    1.65e+00    0    1.15e+00
2006 09 13  1255    53991   46500      0    1.64e+00    0    1.14e+00
2006 09 13  1300    53991   46800      0    1.66e+00    0    1.17e+00
2006 09 13  1305    53991   47100      0    1.64e+00    0    1.15e+00
2006 09 13  1310    53991   47400      0    1.65e+00    0    1.16e+00
2006 09 13  1315    53991   47700      0    1.64e+00    0    1.16e+00
2006 09 13  1320    53991   48000      0    1.67e+00    0    1.17e+00
2006 09 13  1325    53991   48300      0    1.66e+00    0    1.16e+00
2006 09 13  1330    53991   48600      0    1.66e+00    0    1.16e+00
2006 09 13  1335    53991   48900      0    1.65e+00    0    1.16e+00
2006 09 13  1340    53991   49200      0    1.65e+00    0    1.15e+00
2006 09 13  1345    53991   49500      0    1.65e+00    0    1.17e+00
2006 09 13  1350    53991   49800      0    1.64e+00    0    1.16e+00
2006 09 13  1355    53991   50100      0    1.66e+00    0    1.17e+00
2006 09 13  1400    53991   50400      0    1.65e+00    0    1.16e+00
2006 09 13  1405    53991   50700      0    1.64e+00    0    1.14e+00
2006 09 13  1410    53991   51000      0    1.64e+00    0    1.14e+00
2006 09 13  1415    53991   51300      0    1.67e+00    0    1.19e+00
2006 09 13  1420    53991   51600      0    1.65e+00    0    1.15e+00
2006 09 13  1425    53991   51900      0    1.64e+00    0    1.14e+00
2006 09 13  1430    53991   52200      0    1.69e+00    0    1.18e+00
2006 09 13  1435    53991   52500      0    1.64e+00    0    1.14e+00
2006 09 13  1440    53991   52800      0    1.68e+00    0    1.17e+00
2006 09 13  1445    53991   53100      0    1.67e+00    0    1.17e+00
2006 09 13  1450    53991   53400      0    1.70e+00    0    1.19e+00
2006 09 13  1455    53991   53700      0    1.63e+00    0    1.14e+00
2006 09 13  1500    53991   54000      0    1.65e+00    0    1.15e+00
2006 09 13  1505    53991   54300      0    1.63e+00    0    1.13e+00
2006 09 13  1510    53991   54600      0    1.64e+00    0    1.16e+00
2006 09 13  1515    53991   54900      0    1.64e+00    0    1.15e+00
2006 09 13  1520    53991   55200      0    1.68e+00    0    1.19e+00
2006 09 13  1525    53991   55500      0    1.70e+00    0    1.20e+00
2006 09 13  1530    53991   55800      0    1.68e+00    0    1.17e+00
2006 09 13  1535    53991   56100      0    1.67e+00    0    1.18e+00
2006 09 13  1540    53991   56400      0    1.66e+00    0    1.16e+00
2006 09 13  1545    53991   56700      0    1.68e+00    0    1.18e+00
2006 09 13  1550    53991   57000      0    1.65e+00    0    1.17e+00
2006 09 13  1555    53991   57300      0    1.67e+00    0    1.16e+00
2006 09 13  1600    53991   57600      0    1.64e+00    0    1.15e+00
2006 09 13  1605    53991   57900      0    1.62e+00    0    1.12e+00
2006 09 13  1610    53991   58200      0    1.65e+00    0    1.16e+00
2006 09 13  1615    53991   58500      0    1.64e+00    0    1.15e+00
2006 09 13  1620    53991   58800      0    1.68e+00    0    1.18e+00
2006 09 13  1625    53991   59100      0    1.67e+00    0    1.18e+00
2006 09 13  1630    53991   59400      0    1.66e+00    0    1.18e+00
2006 09 13  1635    53991   59700      0    1.66e+00    0    1.16e+00
2006 09 13  1640    53991   60000      0    1.65e+00    0    1.16e+00
2006 09 13  1645    53991   60300      0    1.65e+00    0    1.15e+00
2006 09 13  1650    53991   60600      0    1.68e+00    0    1.18e+00
2006 09 13  1655    53991   60900      0    1.71e+00    0    1.20e+00
2006 09 13  1700    53991   61200      0    1.65e+00    0    1.16e+00
2006 09 13  1705    53991   61500      0    1.70e+00    0    1.19e+00
2006 09 13  1710    53991   61800      0    1.67e+00    0    1.17e+00
2006 09 13  1715    53991   62100      0    1.67e+00    0    1.18e+00
2006 09 13  1720    53991   62400      0    1.65e+00    0    1.16e+00
2006 09 13  1725    53991   62700      0    1.66e+00    0    1.16e+00
2006 09 13  1730    53991   63000      0    1.65e+00    0    1.16e+00
2006 09 13  1735    53991   63300      0    1.63e+00    0    1.14e+00
2006 09 13  1740    53991   63600      0    1.67e+00    0    1.17e+00
2006 09 13  1745    53991   63900      0    1.67e+00    0    1.18e+00
2006 09 13  1750    53991   64200      0    1.68e+00    0    1.16e+00
2006 09 13  1755    53991   64500      0    1.64e+00    0    1.15e+00
2006 09 13  1800    53991   64800      0    1.68e+00    0    1.18e+00
2006 09 13  1805    53991   65100      0    1.64e+00    0    1.16e+00
2006 09 13  1810    53991   65400      0    1.69e+00    0    1.18e+00
2006 09 13  1815    53991   65700      0    1.66e+00    0    1.17e+00
2006 09 13  1820    53991   66000      0    1.65e+00    0    1.16e+00
2006 09 13  1825    53991   66300      0    1.63e+00    0    1.14e+00
2006 09 13  1830    53991   66600      0    1.64e+00    0    1.16e+00
2006 09 13  1835    53991   66900      0    1.66e+00    0    1.16e+00
2006 09 13  1840    53991   67200      0    1.64e+00    0    1.15e+00
2006 09 13  1845    53991   67500      0    1.68e+00    0    1.18e+00
2006 09 13  1850    53991   67800      0    1.69e+00    0    1.19e+00
2006 09 13  1855    53991   68100      0    1.66e+00    0    1.17e+00
2006 09 13  1900    53991   68400      0    1.67e+00    0    1.17e+00
2006 09 13  1905    53991   68700      0    1.65e+00    0    1.17e+00
2006 09 13  1910    53991   69000      0    1.65e+00    0    1.16e+00
2006 09 13  1915    53991   69300      0    1.66e+00    0    1.15e+00
2006 09 13  1920    53991   69600      0    1.73e+00    0    1.22e+00
2006 09 13  1925    53991   69900      0    1.67e+00    0    1.17e+00
2006 09 13  1930    53991   70200      0    1.66e+00    0    1.16e+00
2006 09 13  1935    53991   70500      0    1.67e+00    0    1.18e+00
2006 09 13  1940    53991   70800      0    1.64e+00    0    1.17e+00
2006 09 13  1945    53991   71100      0    1.70e+00    0    1.20e+00
2006 09 13  1950    53991   71400      0    1.71e+00    0    1.18e+00
2006 09 13  1955    53991   71700      0    1.66e+00    0    1.17e+00
2006 09 13  2000    53991   72000      0    1.70e+00    0    1.20e+00
2006 09 13  2005    53991   72300      0    1.70e+00    0    1.18e+00
2006 09 13  2010    53991   72600      0    1.69e+00    0    1.18e+00
2006 09 13  2015    53991   72900      0    1.68e+00    0    1.17e+00
2006 09 13  2020    53991   73200      0    1.70e+00    0    1.20e+00
2006 09 13  2025    53991   73500      0    1.63e+00    0    1.13e+00
2006 09 13  2030    53991   73800      0    1.70e+00    0    1.19e+00
2006 09 13  2035    53991   74100      0    1.68e+00    0    1.17e+00
2006 09 13  2040    53991   74400      0    1.67e+00    0    1.17e+00
2006 09 13  2045    53991   74700      0    1.58e+00    0    1.10e+00
2006 09 13  2050    53991   75000      0    1.67e+00    0    1.15e+00
2006 09 13  2055    53991   75300      0    1.69e+00    0    1.18e+00
2006 09 13  2100    53991   75600      0    1.68e+00    0    1.18e+00
2006 09 13  2105    53991   75900      0    1.66e+00    0    1.17e+00
2006 09 13  2110    53991   76200      0    1.67e+00    0    1.17e+00
2006 09 13  2115    53991   76500      0    1.69e+00    0    1.18e+00
2006 09 13  2120    53991   76800      0    1.70e+00    0    1.20e+00
2006 09 13  2125    53991   77100      0    1.70e+00    0    1.18e+00
2006 09 13  2130    53991   77400      0    1.69e+00    0    1.18e+00
2006 09 13  2135    53991   77700      0    1.65e+00    0    1.17e+00
2006 09 13  2140    53991   78000      0    1.65e+00    0    1.15e+00
2006 09 13  2145    53991   78300      0    1.68e+00    0    1.18e+00
2006 09 13  2150    53991   78600      0    1.69e+00    0    1.20e+00
2006 09 13  2155    53991   78900      0    1.65e+00    0    1.16e+00
2006 09 13  2200    53991   79200      0    1.68e+00    0    1.17e+00
2006 09 13  2205    53991   79500      0    1.68e+00    0    1.18e+00
2006 09 13  2210    53991   79800      0    1.69e+00    0    1.19e+00
2006 09 13  2215    53991   80100      0    1.69e+00    0    1.19e+00
2006 09 13  2220    53991   80400      0    1.70e+00    0    1.20e+00
2006 09 13  2225    53991   80700      0    1.66e+00    0    1.17e+00
2006 09 13  2230    53991   81000      0    1.71e+00    0    1.20e+00
2006 09 13  2235    53991   81300      0    1.67e+00    0    1.16e+00
2006 09 13  2240    53991   81600      0    1.71e+00    0    1.20e+00
2006 09 13  2245    53991   81900      0    1.66e+00    0    1.16e+00
2006 09 13  2250    53991   82200      9   -1.00e+05    9   -1.00e+05
2006 09 13  2255    53991   82500      9   -1.00e+05    9   -1.00e+05
2006 09 13  2300    53991   82800      9   -1.00e+05    9   -1.00e+05
2006 09 13  2305    53991   83100      9   -1.00e+05    9   -1.00e+05
2006 09 13  2310    53991   83400      9   -1.00e+05    9   -1.00e+05
2006 09 13  2315    53991   83700      9   -1.00e+05    9   -1.00e+05
2006 09 13  2320    53991   84000      9   -1.00e+05    9   -1.00e+05
2006 09 13  2325    53991   84300      9   -1.00e+05    9   -1.00e+05
2006 09 13  2330    53991   84600      9   -1.00e+05    9   -1.00e+05
2006 09 13  2335    53991   84900      9   -1.00e+05    9   -1.00e+05
2006 09 13  2340    53991   85200      9   -1.00e+05    9   -1.00e+05
2006 09 13  2345    53991   85500      9   -1.00e+05    9   -1.00e+05
2006 09 13  2350    53991   85800      9   -1.00e+05    9   -1.00e+05
2006 09 13  2355    53991   86100      9   -1.00e+05    9   -1.00e+05
