:Data_list: 20061231_ace_sis_5m.txt
:Created: 2007 Jan 01 0011 UT
# Prepared by the U.S. Dept. of Commerce, NOAA, Space Environment Center.
# Please send comments and suggestions to SEC.Webmaster@noaa.gov 
# 
# Units: proton flux p/cs2-sec-ster
# Status(S): 0 = nominal data, 1 to 8 = bad data record, 9 = no data
# Missing data values: -1.00e+05
# Source: ACE Satellite - Solar Isotope Spectrometer
#
# 5-minute averaged Real-time Integral Flux of High-energy Solar Protons
# 
#                 Modified Seconds
# UT Date   Time   Julian  of the      ---- Integral Proton Flux ----
# YR MO DA  HHMM     Day     Day       S    > 10 MeV    S    > 30 MeV
#--------------------------------------------------------------------
2006 12 31  0000    54100       0      0    2.18e+00    0    1.52e+00
2006 12 31  0005    54100     300      0    2.20e+00    0    1.55e+00
2006 12 31  0010    54100     600      0    2.06e+00    0    1.45e+00
2006 12 31  0015    54100     900      0    2.01e+00    0    1.41e+00
2006 12 31  0020    54100    1200      0    1.96e+00    0    1.37e+00
2006 12 31  0025    54100    1500      0    2.21e+00    0    1.54e+00
2006 12 31  0030    54100    1800      0    2.32e+00    0    1.62e+00
2006 12 31  0035    54100    2100      0    2.15e+00    0    1.51e+00
2006 12 31  0040    54100    2400      0    2.16e+00    0    1.51e+00
2006 12 31  0045    54100    2700      0    2.14e+00    0    1.51e+00
2006 12 31  0050    54100    3000      0    1.93e+00    0    1.35e+00
2006 12 31  0055    54100    3300      0    1.96e+00    0    1.36e+00
2006 12 31  0100    54100    3600      0    2.26e+00    0    1.60e+00
2006 12 31  0105    54100    3900      0    2.31e+00    0    1.63e+00
2006 12 31  0110    54100    4200      0    2.18e+00    0    1.51e+00
2006 12 31  0115    54100    4500      0    2.13e+00    0    1.48e+00
2006 12 31  0120    54100    4800      0    2.11e+00    0    1.46e+00
2006 12 31  0125    54100    5100      0    1.99e+00    0    1.40e+00
2006 12 31  0130    54100    5400      0    1.98e+00    0    1.40e+00
2006 12 31  0135    54100    5700      0    2.29e+00    0    1.61e+00
2006 12 31  0140    54100    6000      0    2.17e+00    0    1.54e+00
2006 12 31  0145    54100    6300      0    2.25e+00    0    1.59e+00
2006 12 31  0150    54100    6600      0    2.13e+00    0    1.49e+00
2006 12 31  0155    54100    6900      0    2.09e+00    0    1.47e+00
2006 12 31  0200    54100    7200      0    1.92e+00    0    1.35e+00
2006 12 31  0205    54100    7500      0    2.07e+00    0    1.45e+00
2006 12 31  0210    54100    7800      0    2.27e+00    0    1.59e+00
2006 12 31  0215    54100    8100      0    2.23e+00    0    1.58e+00
2006 12 31  0220    54100    8400      0    2.15e+00    0    1.51e+00
2006 12 31  0225    54100    8700      0    2.05e+00    0    1.44e+00
2006 12 31  0230    54100    9000      0    2.03e+00    0    1.42e+00
2006 12 31  0235    54100    9300      0    1.83e+00    0    1.29e+00
2006 12 31  0240    54100    9600      0    2.06e+00    0    1.44e+00
2006 12 31  0245    54100    9900      0    2.23e+00    0    1.57e+00
2006 12 31  0250    54100   10200      0    2.17e+00    0    1.52e+00
2006 12 31  0255    54100   10500      0    2.12e+00    0    1.48e+00
2006 12 31  0300    54100   10800      0    2.03e+00    0    1.42e+00
2006 12 31  0305    54100   11100      0    2.00e+00    0    1.41e+00
2006 12 31  0310    54100   11400      0    1.80e+00    0    1.27e+00
2006 12 31  0315    54100   11700      0    2.04e+00    0    1.42e+00
2006 12 31  0320    54100   12000      0    2.19e+00    0    1.54e+00
2006 12 31  0325    54100   12300      0    2.16e+00    0    1.51e+00
2006 12 31  0330    54100   12600      0    2.10e+00    0    1.49e+00
2006 12 31  0335    54100   12900      0    2.02e+00    0    1.41e+00
2006 12 31  0340    54100   13200      0    1.87e+00    0    1.31e+00
2006 12 31  0345    54100   13500      0    1.76e+00    0    1.23e+00
2006 12 31  0350    54100   13800      0    2.18e+00    0    1.55e+00
2006 12 31  0355    54100   14100      0    2.25e+00    0    1.59e+00
2006 12 31  0400    54100   14400      0    2.19e+00    0    1.53e+00
2006 12 31  0405    54100   14700      0    2.05e+00    0    1.44e+00
2006 12 31  0410    54100   15000      0    2.04e+00    0    1.43e+00
2006 12 31  0415    54100   15300      0    1.89e+00    0    1.32e+00
2006 12 31  0420    54100   15600      0    1.84e+00    0    1.31e+00
2006 12 31  0425    54100   15900      0    2.19e+00    0    1.55e+00
2006 12 31  0430    54100   16200      0    2.18e+00    0    1.53e+00
2006 12 31  0435    54100   16500      0    2.10e+00    0    1.48e+00
2006 12 31  0440    54100   16800      0    2.10e+00    0    1.46e+00
2006 12 31  0445    54100   17100      0    2.01e+00    0    1.42e+00
2006 12 31  0450    54100   17400      0    1.80e+00    0    1.26e+00
2006 12 31  0455    54100   17700      0    1.86e+00    0    1.29e+00
2006 12 31  0500    54100   18000      0    2.17e+00    0    1.54e+00
2006 12 31  0505    54100   18300      0    2.15e+00    0    1.50e+00
2006 12 31  0510    54100   18600      0    2.13e+00    0    1.48e+00
2006 12 31  0515    54100   18900      0    2.01e+00    0    1.41e+00
2006 12 31  0520    54100   19200      0    1.91e+00    0    1.33e+00
2006 12 31  0525    54100   19500      0    1.77e+00    0    1.23e+00
2006 12 31  0530    54100   19800      0    1.99e+00    0    1.39e+00
2006 12 31  0535    54100   20100      0    2.19e+00    0    1.55e+00
2006 12 31  0540    54100   20400      0    2.17e+00    0    1.52e+00
2006 12 31  0545    54100   20700      0    2.16e+00    0    1.51e+00
2006 12 31  0550    54100   21000      0    1.94e+00    0    1.38e+00
2006 12 31  0555    54100   21300      0    1.95e+00    0    1.36e+00
2006 12 31  0600    54100   21600      0    1.74e+00    0    1.20e+00
2006 12 31  0605    54100   21900      0    2.01e+00    0    1.43e+00
2006 12 31  0610    54100   22200      0    2.25e+00    0    1.60e+00
2006 12 31  0615    54100   22500      0    2.14e+00    0    1.51e+00
2006 12 31  0620    54100   22800      0    2.16e+00    0    1.52e+00
2006 12 31  0625    54100   23100      0    2.06e+00    0    1.45e+00
2006 12 31  0630    54100   23400      0    1.92e+00    0    1.35e+00
2006 12 31  0635    54100   23700      0    1.81e+00    0    1.25e+00
2006 12 31  0640    54100   24000      0    2.09e+00    0    1.46e+00
2006 12 31  0645    54100   24300      0    2.29e+00    0    1.60e+00
2006 12 31  0650    54100   24600      0    2.16e+00    0    1.51e+00
2006 12 31  0655    54100   24900      0    2.11e+00    0    1.49e+00
2006 12 31  0700    54100   25200      0    2.02e+00    0    1.42e+00
2006 12 31  0705    54100   25500      0    1.88e+00    0    1.32e+00
2006 12 31  0710    54100   25800      0    1.81e+00    0    1.27e+00
2006 12 31  0715    54100   26100      0    2.14e+00    0    1.51e+00
2006 12 31  0720    54100   26400      0    2.18e+00    0    1.54e+00
2006 12 31  0725    54100   26700      0    2.16e+00    0    1.52e+00
2006 12 31  0730    54100   27000      0    2.07e+00    0    1.46e+00
2006 12 31  0735    54100   27300      0    1.99e+00    0    1.40e+00
2006 12 31  0740    54100   27600      0    1.83e+00    0    1.28e+00
2006 12 31  0745    54100   27900      0    1.83e+00    0    1.27e+00
2006 12 31  0750    54100   28200      0    2.22e+00    0    1.57e+00
2006 12 31  0755    54100   28500      0    2.26e+00    0    1.59e+00
2006 12 31  0800    54100   28800      0    2.17e+00    0    1.52e+00
2006 12 31  0805    54100   29100      0    2.05e+00    0    1.46e+00
2006 12 31  0810    54100   29400      0    2.06e+00    0    1.45e+00
2006 12 31  0815    54100   29700      0    1.81e+00    0    1.26e+00
2006 12 31  0820    54100   30000      0    1.89e+00    0    1.32e+00
2006 12 31  0825    54100   30300      0    2.23e+00    0    1.56e+00
2006 12 31  0830    54100   30600      0    2.23e+00    0    1.57e+00
2006 12 31  0835    54100   30900      0    2.19e+00    0    1.53e+00
2006 12 31  0840    54100   31200      0    2.06e+00    0    1.44e+00
2006 12 31  0845    54100   31500      0    2.01e+00    0    1.42e+00
2006 12 31  0850    54100   31800      0    1.82e+00    0    1.29e+00
2006 12 31  0855    54100   32100      0    2.03e+00    0    1.44e+00
2006 12 31  0900    54100   32400      0    2.22e+00    0    1.56e+00
2006 12 31  0905    54100   32700      0    2.17e+00    0    1.52e+00
2006 12 31  0910    54100   33000      0    2.13e+00    0    1.50e+00
2006 12 31  0915    54100   33300      0    2.05e+00    0    1.44e+00
2006 12 31  0920    54100   33600      0    1.98e+00    0    1.39e+00
2006 12 31  0925    54100   33900      0    1.86e+00    0    1.31e+00
2006 12 31  0930    54100   34200      0    2.08e+00    0    1.46e+00
2006 12 31  0935    54100   34500      0    2.21e+00    0    1.55e+00
2006 12 31  0940    54100   34800      0    2.11e+00    0    1.49e+00
2006 12 31  0945    54100   35100      0    2.14e+00    0    1.51e+00
2006 12 31  0950    54100   35400      0    2.13e+00    0    1.49e+00
2006 12 31  0955    54100   35700      0    2.01e+00    0    1.41e+00
2006 12 31  1000    54100   36000      0    1.92e+00    0    1.35e+00
2006 12 31  1005    54100   36300      0    2.20e+00    0    1.55e+00
2006 12 31  1010    54100   36600      0    2.25e+00    0    1.59e+00
2006 12 31  1015    54100   36900      0    2.22e+00    0    1.54e+00
2006 12 31  1020    54100   37200      0    2.17e+00    0    1.55e+00
2006 12 31  1025    54100   37500      0    2.09e+00    0    1.47e+00
2006 12 31  1030    54100   37800      0    1.96e+00    0    1.38e+00
2006 12 31  1035    54100   38100      0    1.88e+00    0    1.31e+00
2006 12 31  1040    54100   38400      0    2.23e+00    0    1.58e+00
2006 12 31  1045    54100   38700      0    2.26e+00    0    1.58e+00
2006 12 31  1050    54100   39000      0    2.22e+00    0    1.57e+00
2006 12 31  1055    54100   39300      0    2.08e+00    0    1.47e+00
2006 12 31  1100    54100   39600      0    2.06e+00    0    1.45e+00
2006 12 31  1105    54100   39900      0    1.90e+00    0    1.33e+00
2006 12 31  1110    54100   40200      0    1.89e+00    0    1.32e+00
2006 12 31  1115    54100   40500      0    2.24e+00    0    1.59e+00
2006 12 31  1120    54100   40800      0    2.23e+00    0    1.58e+00
2006 12 31  1125    54100   41100      0    2.10e+00    0    1.48e+00
2006 12 31  1130    54100   41400      0    2.09e+00    0    1.46e+00
2006 12 31  1135    54100   41700      0    2.08e+00    0    1.46e+00
2006 12 31  1140    54100   42000      0    1.85e+00    0    1.30e+00
2006 12 31  1145    54100   42300      0    1.97e+00    0    1.37e+00
2006 12 31  1150    54100   42600      0    2.19e+00    0    1.55e+00
2006 12 31  1155    54100   42900      0    2.15e+00    0    1.51e+00
2006 12 31  1200    54100   43200      0    2.12e+00    0    1.48e+00
2006 12 31  1205    54100   43500      0    2.06e+00    0    1.46e+00
2006 12 31  1210    54100   43800      0    2.04e+00    0    1.43e+00
2006 12 31  1215    54100   44100      0    1.82e+00    0    1.27e+00
2006 12 31  1220    54100   44400      0    2.03e+00    0    1.42e+00
2006 12 31  1225    54100   44700      0    2.23e+00    0    1.57e+00
2006 12 31  1230    54100   45000      0    2.15e+00    0    1.52e+00
2006 12 31  1235    54100   45300      0    2.19e+00    0    1.54e+00
2006 12 31  1240    54100   45600      0    2.01e+00    0    1.40e+00
2006 12 31  1245    54100   45900      0    1.98e+00    0    1.39e+00
2006 12 31  1250    54100   46200      0    1.85e+00    0    1.29e+00
2006 12 31  1255    54100   46500      0    2.08e+00    0    1.45e+00
2006 12 31  1300    54100   46800      0    2.25e+00    0    1.60e+00
2006 12 31  1305    54100   47100      0    2.17e+00    0    1.52e+00
2006 12 31  1310    54100   47400      0    2.17e+00    0    1.52e+00
2006 12 31  1315    54100   47700      0    2.01e+00    0    1.41e+00
2006 12 31  1320    54100   48000      0    2.02e+00    0    1.41e+00
2006 12 31  1325    54100   48300      0    1.97e+00    0    1.38e+00
2006 12 31  1330    54100   48600      0    2.19e+00    0    1.54e+00
2006 12 31  1335    54100   48900      0    2.25e+00    0    1.57e+00
2006 12 31  1340    54100   49200      0    2.24e+00    0    1.57e+00
2006 12 31  1345    54100   49500      0    2.21e+00    0    1.55e+00
2006 12 31  1350    54100   49800      0    2.11e+00    0    1.48e+00
2006 12 31  1355    54100   50100      0    1.97e+00    0    1.40e+00
2006 12 31  1400    54100   50400      0    1.95e+00    0    1.36e+00
2006 12 31  1405    54100   50700      0    2.26e+00    0    1.59e+00
2006 12 31  1410    54100   51000      0    2.21e+00    0    1.55e+00
2006 12 31  1415    54100   51300      0    2.20e+00    0    1.56e+00
2006 12 31  1420    54100   51600      0    2.11e+00    0    1.49e+00
2006 12 31  1425    54100   51900      0    2.11e+00    0    1.47e+00
2006 12 31  1430    54100   52200      0    1.99e+00    0    1.41e+00
2006 12 31  1435    54100   52500      0    1.99e+00    0    1.40e+00
2006 12 31  1440    54100   52800      0    2.28e+00    0    1.60e+00
2006 12 31  1445    54100   53100      0    2.20e+00    0    1.57e+00
2006 12 31  1450    54100   53400      0    2.18e+00    0    1.52e+00
2006 12 31  1455    54100   53700      0    2.15e+00    0    1.51e+00
2006 12 31  1500    54100   54000      0    2.07e+00    0    1.44e+00
2006 12 31  1505    54100   54300      0    1.95e+00    0    1.35e+00
2006 12 31  1510    54100   54600      0    2.04e+00    0    1.43e+00
2006 12 31  1515    54100   54900      0    2.23e+00    0    1.56e+00
2006 12 31  1520    54100   55200      0    2.19e+00    0    1.54e+00
2006 12 31  1525    54100   55500      0    2.19e+00    0    1.53e+00
2006 12 31  1530    54100   55800      0    2.08e+00    0    1.47e+00
2006 12 31  1535    54100   56100      0    2.05e+00    0    1.44e+00
2006 12 31  1540    54100   56400      0    1.92e+00    0    1.34e+00
2006 12 31  1545    54100   56700      0    2.16e+00    0    1.53e+00
2006 12 31  1550    54100   57000      0    2.29e+00    0    1.60e+00
2006 12 31  1555    54100   57300      0    2.21e+00    0    1.56e+00
2006 12 31  1600    54100   57600      0    2.17e+00    0    1.53e+00
2006 12 31  1605    54100   57900      0    2.08e+00    0    1.45e+00
2006 12 31  1610    54100   58200      0    2.05e+00    0    1.44e+00
2006 12 31  1615    54100   58500      0    1.89e+00    0    1.34e+00
2006 12 31  1620    54100   58800      0    2.03e+00    0    1.41e+00
2006 12 31  1625    54100   59100      0    2.27e+00    0    1.60e+00
2006 12 31  1630    54100   59400      0    2.21e+00    0    1.55e+00
2006 12 31  1635    54100   59700      0    2.17e+00    0    1.50e+00
2006 12 31  1640    54100   60000      0    2.12e+00    0    1.50e+00
2006 12 31  1645    54100   60300      0    2.08e+00    0    1.45e+00
2006 12 31  1650    54100   60600      0    1.97e+00    0    1.38e+00
2006 12 31  1655    54100   60900      0    2.25e+00    0    1.58e+00
2006 12 31  1700    54100   61200      0    2.24e+00    0    1.58e+00
2006 12 31  1705    54100   61500      0    2.20e+00    0    1.55e+00
2006 12 31  1710    54100   61800      0    2.19e+00    0    1.52e+00
2006 12 31  1715    54100   62100      0    2.14e+00    0    1.51e+00
2006 12 31  1720    54100   62400      0    1.95e+00    0    1.38e+00
2006 12 31  1725    54100   62700      0    1.95e+00    0    1.36e+00
2006 12 31  1730    54100   63000      0    2.27e+00    0    1.60e+00
2006 12 31  1735    54100   63300      0    2.24e+00    0    1.58e+00
2006 12 31  1740    54100   63600      0    2.23e+00    0    1.56e+00
2006 12 31  1745    54100   63900      0    2.16e+00    0    1.52e+00
2006 12 31  1750    54100   64200      0    2.22e+00    0    1.57e+00
2006 12 31  1755    54100   64500      0    1.96e+00    0    1.40e+00
2006 12 31  1800    54100   64800      0    2.02e+00    0    1.44e+00
2006 12 31  1805    54100   65100      0    2.28e+00    0    1.63e+00
2006 12 31  1810    54100   65400      0    2.28e+00    0    1.60e+00
2006 12 31  1815    54100   65700      0    2.18e+00    0    1.51e+00
2006 12 31  1820    54100   66000      0    2.15e+00    0    1.50e+00
2006 12 31  1825    54100   66300      0    2.08e+00    0    1.45e+00
2006 12 31  1830    54100   66600      0    1.89e+00    0    1.31e+00
2006 12 31  1835    54100   66900      0    2.10e+00    0    1.48e+00
2006 12 31  1840    54100   67200      0    2.24e+00    0    1.57e+00
2006 12 31  1845    54100   67500      0    2.23e+00    0    1.56e+00
2006 12 31  1850    54100   67800      0    2.21e+00    0    1.56e+00
2006 12 31  1855    54100   68100      0    2.13e+00    0    1.49e+00
2006 12 31  1900    54100   68400      0    2.06e+00    0    1.46e+00
2006 12 31  1905    54100   68700      0    1.92e+00    0    1.35e+00
2006 12 31  1910    54100   69000      0    1.97e+00    0    1.36e+00
2006 12 31  1915    54100   69300      0    2.28e+00    0    1.60e+00
2006 12 31  1920    54100   69600      0    2.16e+00    0    1.51e+00
2006 12 31  1925    54100   69900      0    2.19e+00    0    1.52e+00
2006 12 31  1930    54100   70200      0    2.14e+00    0    1.50e+00
2006 12 31  1935    54100   70500      0    2.05e+00    0    1.42e+00
2006 12 31  1940    54100   70800      0    1.97e+00    0    1.38e+00
2006 12 31  1945    54100   71100      0    2.26e+00    0    1.59e+00
2006 12 31  1950    54100   71400      0    2.26e+00    0    1.59e+00
2006 12 31  1955    54100   71700      0    2.19e+00    0    1.54e+00
2006 12 31  2000    54100   72000      0    2.16e+00    0    1.53e+00
2006 12 31  2005    54100   72300      0    2.11e+00    0    1.48e+00
2006 12 31  2010    54100   72600      0    2.05e+00    0    1.45e+00
2006 12 31  2015    54100   72900      0    2.01e+00    0    1.41e+00
2006 12 31  2020    54100   73200      0    2.23e+00    0    1.56e+00
2006 12 31  2025    54100   73500      0    2.30e+00    0    1.62e+00
2006 12 31  2030    54100   73800      0    2.18e+00    0    1.54e+00
2006 12 31  2035    54100   74100      0    2.26e+00    0    1.61e+00
2006 12 31  2040    54100   74400      0    2.14e+00    0    1.50e+00
2006 12 31  2045    54100   74700      0    2.00e+00    0    1.40e+00
2006 12 31  2050    54100   75000      0    2.05e+00    0    1.45e+00
2006 12 31  2055    54100   75300      0    2.23e+00    0    1.56e+00
2006 12 31  2100    54100   75600      0    2.27e+00    0    1.58e+00
2006 12 31  2105    54100   75900      9   -1.00e+05    9   -1.00e+05
2006 12 31  2110    54100   76200      9   -1.00e+05    9   -1.00e+05
2006 12 31  2115    54100   76500      9   -1.00e+05    9   -1.00e+05
2006 12 31  2120    54100   76800      0    2.01e+00    0    1.41e+00
2006 12 31  2125    54100   77100      0    2.12e+00    0    1.48e+00
2006 12 31  2130    54100   77400      0    2.27e+00    0    1.57e+00
2006 12 31  2135    54100   77700      0    2.30e+00    0    1.62e+00
2006 12 31  2140    54100   78000      0    2.25e+00    0    1.58e+00
2006 12 31  2145    54100   78300      0    2.15e+00    0    1.50e+00
2006 12 31  2150    54100   78600      0    2.18e+00    0    1.52e+00
2006 12 31  2155    54100   78900      0    2.05e+00    0    1.45e+00
2006 12 31  2200    54100   79200      0    2.12e+00    0    1.47e+00
2006 12 31  2205    54100   79500      0    2.28e+00    0    1.62e+00
2006 12 31  2210    54100   79800      0    2.26e+00    0    1.59e+00
2006 12 31  2215    54100   80100      0    2.23e+00    0    1.58e+00
2006 12 31  2220    54100   80400      0    2.18e+00    0    1.54e+00
2006 12 31  2225    54100   80700      0    2.13e+00    0    1.48e+00
2006 12 31  2230    54100   81000      0    1.97e+00    0    1.39e+00
2006 12 31  2235    54100   81300      0    2.10e+00    0    1.48e+00
2006 12 31  2240    54100   81600      0    2.27e+00    0    1.59e+00
2006 12 31  2245    54100   81900      0    2.21e+00    0    1.55e+00
2006 12 31  2250    54100   82200      0    2.19e+00    0    1.54e+00
2006 12 31  2255    54100   82500      0    2.13e+00    0    1.50e+00
2006 12 31  2300    54100   82800      0    2.06e+00    0    1.44e+00
2006 12 31  2305    54100   83100      0    1.94e+00    0    1.37e+00
2006 12 31  2310    54100   83400      0    2.19e+00    0    1.53e+00
2006 12 31  2315    54100   83700      0    2.18e+00    0    1.53e+00
2006 12 31  2320    54100   84000      0    2.16e+00    0    1.51e+00
2006 12 31  2325    54100   84300      0    2.12e+00    0    1.50e+00
2006 12 31  2330    54100   84600      0    2.08e+00    0    1.47e+00
2006 12 31  2335    54100   84900      0    1.97e+00    0    1.39e+00
2006 12 31  2340    54100   85200      0    1.94e+00    0    1.36e+00
2006 12 31  2345    54100   85500      0    2.30e+00    0    1.61e+00
2006 12 31  2350    54100   85800      0    2.25e+00    0    1.57e+00
2006 12 31  2355    54100   86100      0    2.24e+00    0    1.57e+00
