:Data_list: 20060821_ace_sis_5m.txt
:Created: 2006 Aug 22 0011 UT
# Prepared by the U.S. Dept. of Commerce, NOAA, Space Environment Center.
# Please send comments and suggestions to SEC.Webmaster@noaa.gov 
# 
# Units: proton flux p/cs2-sec-ster
# Status(S): 0 = nominal data, 1 to 8 = bad data record, 9 = no data
# Missing data values: -1.00e+05
# Source: ACE Satellite - Solar Isotope Spectrometer
#
# 5-minute averaged Real-time Integral Flux of High-energy Solar Protons
# 
#                 Modified Seconds
# UT Date   Time   Julian  of the      ---- Integral Proton Flux ----
# YR MO DA  HHMM     Day     Day       S    > 10 MeV    S    > 30 MeV
#--------------------------------------------------------------------
2006 08 21  0000    53968       0      0    1.52e+00    0    1.06e+00
2006 08 21  0005    53968     300      0    1.53e+00    0    1.07e+00
2006 08 21  0010    53968     600      0    1.57e+00    0    1.11e+00
2006 08 21  0015    53968     900      0    1.55e+00    0    1.09e+00
2006 08 21  0020    53968    1200      0    1.56e+00    0    1.09e+00
2006 08 21  0025    53968    1500      0    1.54e+00    0    1.07e+00
2006 08 21  0030    53968    1800      0    1.56e+00    0    1.09e+00
2006 08 21  0035    53968    2100      0    1.52e+00    0    1.05e+00
2006 08 21  0040    53968    2400      0    1.55e+00    0    1.08e+00
2006 08 21  0045    53968    2700      0    1.57e+00    0    1.10e+00
2006 08 21  0050    53968    3000      0    1.57e+00    0    1.10e+00
2006 08 21  0055    53968    3300      0    1.53e+00    0    1.07e+00
2006 08 21  0100    53968    3600      0    1.57e+00    0    1.11e+00
2006 08 21  0105    53968    3900      0    1.58e+00    0    1.11e+00
2006 08 21  0110    53968    4200      0    1.50e+00    0    1.04e+00
2006 08 21  0115    53968    4500      0    1.53e+00    0    1.08e+00
2006 08 21  0120    53968    4800      0    1.53e+00    0    1.06e+00
2006 08 21  0125    53968    5100      0    1.52e+00    0    1.05e+00
2006 08 21  0130    53968    5400      0    1.55e+00    0    1.08e+00
2006 08 21  0135    53968    5700      0    1.51e+00    0    1.06e+00
2006 08 21  0140    53968    6000      0    1.52e+00    0    1.07e+00
2006 08 21  0145    53968    6300      0    1.54e+00    0    1.07e+00
2006 08 21  0150    53968    6600      0    1.55e+00    0    1.09e+00
2006 08 21  0155    53968    6900      0    1.55e+00    0    1.08e+00
2006 08 21  0200    53968    7200      0    1.53e+00    0    1.07e+00
2006 08 21  0205    53968    7500      0    1.52e+00    0    1.06e+00
2006 08 21  0210    53968    7800      0    1.56e+00    0    1.10e+00
2006 08 21  0215    53968    8100      0    1.53e+00    0    1.06e+00
2006 08 21  0220    53968    8400      0    1.53e+00    0    1.07e+00
2006 08 21  0225    53968    8700      0    1.54e+00    0    1.08e+00
2006 08 21  0230    53968    9000      0    1.54e+00    0    1.09e+00
2006 08 21  0235    53968    9300      0    1.53e+00    0    1.07e+00
2006 08 21  0240    53968    9600      0    1.56e+00    0    1.09e+00
2006 08 21  0245    53968    9900      0    1.55e+00    0    1.08e+00
2006 08 21  0250    53968   10200      0    1.53e+00    0    1.06e+00
2006 08 21  0255    53968   10500      0    1.55e+00    0    1.09e+00
2006 08 21  0300    53968   10800      0    1.55e+00    0    1.08e+00
2006 08 21  0305    53968   11100      0    1.52e+00    0    1.06e+00
2006 08 21  0310    53968   11400      0    1.57e+00    0    1.10e+00
2006 08 21  0315    53968   11700      0    1.50e+00    0    1.05e+00
2006 08 21  0320    53968   12000      0    1.51e+00    0    1.07e+00
2006 08 21  0325    53968   12300      0    1.50e+00    0    1.04e+00
2006 08 21  0330    53968   12600      0    1.51e+00    0    1.05e+00
2006 08 21  0335    53968   12900      0    1.53e+00    0    1.07e+00
2006 08 21  0340    53968   13200      0    1.54e+00    0    1.08e+00
2006 08 21  0345    53968   13500      0    1.54e+00    0    1.08e+00
2006 08 21  0350    53968   13800      0    1.52e+00    0    1.07e+00
2006 08 21  0355    53968   14100      0    1.51e+00    0    1.06e+00
2006 08 21  0400    53968   14400      0    1.53e+00    0    1.07e+00
2006 08 21  0405    53968   14700      0    1.53e+00    0    1.08e+00
2006 08 21  0410    53968   15000      0    1.54e+00    0    1.07e+00
2006 08 21  0415    53968   15300      0    1.55e+00    0    1.09e+00
2006 08 21  0420    53968   15600      0    1.53e+00    0    1.08e+00
2006 08 21  0425    53968   15900      0    1.56e+00    0    1.09e+00
2006 08 21  0430    53968   16200      0    1.53e+00    0    1.07e+00
2006 08 21  0435    53968   16500      0    1.57e+00    0    1.10e+00
2006 08 21  0440    53968   16800      0    1.51e+00    0    1.05e+00
2006 08 21  0445    53968   17100      0    1.56e+00    0    1.09e+00
2006 08 21  0450    53968   17400      0    1.53e+00    0    1.08e+00
2006 08 21  0455    53968   17700      0    1.54e+00    0    1.08e+00
2006 08 21  0500    53968   18000      0    1.54e+00    0    1.08e+00
2006 08 21  0505    53968   18300      0    1.53e+00    0    1.08e+00
2006 08 21  0510    53968   18600      0    1.55e+00    0    1.08e+00
2006 08 21  0515    53968   18900      0    1.56e+00    0    1.10e+00
2006 08 21  0520    53968   19200      0    1.54e+00    0    1.08e+00
2006 08 21  0525    53968   19500      0    1.53e+00    0    1.08e+00
2006 08 21  0530    53968   19800      0    1.54e+00    0    1.08e+00
2006 08 21  0535    53968   20100      0    1.51e+00    0    1.07e+00
2006 08 21  0540    53968   20400      0    1.53e+00    0    1.05e+00
2006 08 21  0545    53968   20700      0    1.53e+00    0    1.09e+00
2006 08 21  0550    53968   21000      0    1.51e+00    0    1.06e+00
2006 08 21  0555    53968   21300      0    1.52e+00    0    1.06e+00
2006 08 21  0600    53968   21600      0    1.52e+00    0    1.06e+00
2006 08 21  0605    53968   21900      0    1.51e+00    0    1.05e+00
2006 08 21  0610    53968   22200      0    1.56e+00    0    1.09e+00
2006 08 21  0615    53968   22500      0    1.53e+00    0    1.06e+00
2006 08 21  0620    53968   22800      0    1.52e+00    0    1.06e+00
2006 08 21  0625    53968   23100      0    1.57e+00    0    1.10e+00
2006 08 21  0630    53968   23400      0    1.54e+00    0    1.08e+00
2006 08 21  0635    53968   23700      0    1.54e+00    0    1.07e+00
2006 08 21  0640    53968   24000      0    1.55e+00    0    1.09e+00
2006 08 21  0645    53968   24300      0    1.55e+00    0    1.09e+00
2006 08 21  0650    53968   24600      0    1.52e+00    0    1.07e+00
2006 08 21  0655    53968   24900      0    1.57e+00    0    1.09e+00
2006 08 21  0700    53968   25200      0    1.59e+00    0    1.12e+00
2006 08 21  0705    53968   25500      0    1.55e+00    0    1.09e+00
2006 08 21  0710    53968   25800      0    1.54e+00    0    1.09e+00
2006 08 21  0715    53968   26100      0    1.53e+00    0    1.07e+00
2006 08 21  0720    53968   26400      0    1.50e+00    0    1.05e+00
2006 08 21  0725    53968   26700      0    1.56e+00    0    1.09e+00
2006 08 21  0730    53968   27000      0    1.52e+00    0    1.06e+00
2006 08 21  0735    53968   27300      0    1.56e+00    0    1.10e+00
2006 08 21  0740    53968   27600      0    1.54e+00    0    1.07e+00
2006 08 21  0745    53968   27900      0    1.57e+00    0    1.09e+00
2006 08 21  0750    53968   28200      0    1.55e+00    0    1.08e+00
2006 08 21  0755    53968   28500      0    1.53e+00    0    1.08e+00
2006 08 21  0800    53968   28800      0    1.57e+00    0    1.09e+00
2006 08 21  0805    53968   29100      0    1.58e+00    0    1.11e+00
2006 08 21  0810    53968   29400      0    1.53e+00    0    1.06e+00
2006 08 21  0815    53968   29700      0    1.59e+00    0    1.12e+00
2006 08 21  0820    53968   30000      0    1.54e+00    0    1.07e+00
2006 08 21  0825    53968   30300      0    1.56e+00    0    1.11e+00
2006 08 21  0830    53968   30600      0    1.55e+00    0    1.08e+00
2006 08 21  0835    53968   30900      0    1.60e+00    0    1.12e+00
2006 08 21  0840    53968   31200      0    1.60e+00    0    1.14e+00
2006 08 21  0845    53968   31500      0    1.57e+00    0    1.10e+00
2006 08 21  0850    53968   31800      0    1.56e+00    0    1.10e+00
2006 08 21  0855    53968   32100      0    1.60e+00    0    1.12e+00
2006 08 21  0900    53968   32400      0    1.53e+00    0    1.07e+00
2006 08 21  0905    53968   32700      0    1.60e+00    0    1.12e+00
2006 08 21  0910    53968   33000      0    1.58e+00    0    1.11e+00
2006 08 21  0915    53968   33300      0    1.59e+00    0    1.10e+00
2006 08 21  0920    53968   33600      0    1.60e+00    0    1.13e+00
2006 08 21  0925    53968   33900      0    1.58e+00    0    1.10e+00
2006 08 21  0930    53968   34200      0    1.58e+00    0    1.11e+00
2006 08 21  0935    53968   34500      0    1.61e+00    0    1.13e+00
2006 08 21  0940    53968   34800      0    1.59e+00    0    1.11e+00
2006 08 21  0945    53968   35100      0    1.58e+00    0    1.11e+00
2006 08 21  0950    53968   35400      0    1.58e+00    0    1.11e+00
2006 08 21  0955    53968   35700      0    1.58e+00    0    1.10e+00
2006 08 21  1000    53968   36000      0    1.55e+00    0    1.08e+00
2006 08 21  1005    53968   36300      0    1.58e+00    0    1.10e+00
2006 08 21  1010    53968   36600      0    1.59e+00    0    1.12e+00
2006 08 21  1015    53968   36900      0    1.56e+00    0    1.08e+00
2006 08 21  1020    53968   37200      0    1.60e+00    0    1.11e+00
2006 08 21  1025    53968   37500      0    1.58e+00    0    1.11e+00
2006 08 21  1030    53968   37800      0    1.56e+00    0    1.10e+00
2006 08 21  1035    53968   38100      0    1.58e+00    0    1.11e+00
2006 08 21  1040    53968   38400      0    1.61e+00    0    1.13e+00
2006 08 21  1045    53968   38700      0    1.58e+00    0    1.11e+00
2006 08 21  1050    53968   39000      0    1.56e+00    0    1.10e+00
2006 08 21  1055    53968   39300      0    1.59e+00    0    1.11e+00
2006 08 21  1100    53968   39600      0    1.60e+00    0    1.10e+00
2006 08 21  1105    53968   39900      0    1.60e+00    0    1.11e+00
2006 08 21  1110    53968   40200      0    1.58e+00    0    1.11e+00
2006 08 21  1115    53968   40500      0    1.56e+00    0    1.10e+00
2006 08 21  1120    53968   40800      0    1.56e+00    0    1.10e+00
2006 08 21  1125    53968   41100      0    1.56e+00    0    1.09e+00
2006 08 21  1130    53968   41400      0    1.56e+00    0    1.09e+00
2006 08 21  1135    53968   41700      0    1.58e+00    0    1.11e+00
2006 08 21  1140    53968   42000      0    1.58e+00    0    1.11e+00
2006 08 21  1145    53968   42300      0    1.57e+00    0    1.10e+00
2006 08 21  1150    53968   42600      0    1.59e+00    0    1.12e+00
2006 08 21  1155    53968   42900      0    1.62e+00    0    1.14e+00
2006 08 21  1200    53968   43200      0    1.56e+00    0    1.08e+00
2006 08 21  1205    53968   43500      0    1.59e+00    0    1.11e+00
2006 08 21  1210    53968   43800      0    1.60e+00    0    1.12e+00
2006 08 21  1215    53968   44100      0    1.56e+00    0    1.10e+00
2006 08 21  1220    53968   44400      0    1.55e+00    0    1.08e+00
2006 08 21  1225    53968   44700      0    1.60e+00    0    1.11e+00
2006 08 21  1230    53968   45000      0    1.62e+00    0    1.13e+00
2006 08 21  1235    53968   45300      0    1.58e+00    0    1.10e+00
2006 08 21  1240    53968   45600      0    1.58e+00    0    1.11e+00
2006 08 21  1245    53968   45900      0    1.61e+00    0    1.14e+00
2006 08 21  1250    53968   46200      0    1.58e+00    0    1.12e+00
2006 08 21  1255    53968   46500      0    1.57e+00    0    1.10e+00
2006 08 21  1300    53968   46800      0    1.57e+00    0    1.10e+00
2006 08 21  1305    53968   47100      0    1.56e+00    0    1.09e+00
2006 08 21  1310    53968   47400      0    1.61e+00    0    1.13e+00
2006 08 21  1315    53968   47700      0    1.60e+00    0    1.13e+00
2006 08 21  1320    53968   48000      0    1.56e+00    0    1.10e+00
2006 08 21  1325    53968   48300      0    1.54e+00    0    1.08e+00
2006 08 21  1330    53968   48600      0    1.60e+00    0    1.12e+00
2006 08 21  1335    53968   48900      0    1.56e+00    0    1.08e+00
2006 08 21  1340    53968   49200      0    1.56e+00    0    1.09e+00
2006 08 21  1345    53968   49500      0    1.59e+00    0    1.12e+00
2006 08 21  1350    53968   49800      0    1.55e+00    0    1.09e+00
2006 08 21  1355    53968   50100      0    1.60e+00    0    1.12e+00
2006 08 21  1400    53968   50400      0    1.57e+00    0    1.11e+00
2006 08 21  1405    53968   50700      0    1.57e+00    0    1.10e+00
2006 08 21  1410    53968   51000      0    1.59e+00    0    1.12e+00
2006 08 21  1415    53968   51300      0    1.59e+00    0    1.12e+00
2006 08 21  1420    53968   51600      0    1.58e+00    0    1.10e+00
2006 08 21  1425    53968   51900      0    1.55e+00    0    1.08e+00
2006 08 21  1430    53968   52200      0    1.57e+00    0    1.13e+00
2006 08 21  1435    53968   52500      0    1.57e+00    0    1.10e+00
2006 08 21  1440    53968   52800      0    1.56e+00    0    1.08e+00
2006 08 21  1445    53968   53100      0    1.60e+00    0    1.12e+00
2006 08 21  1450    53968   53400      0    1.64e+00    0    1.15e+00
2006 08 21  1455    53968   53700      0    1.59e+00    0    1.12e+00
2006 08 21  1500    53968   54000      0    1.58e+00    0    1.10e+00
2006 08 21  1505    53968   54300      0    1.56e+00    0    1.10e+00
2006 08 21  1510    53968   54600      0    1.78e+00    0    9.90e-01
2006 08 21  1515    53968   54900      0    1.50e+00    0    1.04e+00
2006 08 21  1520    53968   55200      0    1.59e+00    0    1.11e+00
2006 08 21  1525    53968   55500      0    1.62e+00    0    1.13e+00
2006 08 21  1530    53968   55800      0    1.59e+00    0    1.11e+00
2006 08 21  1535    53968   56100      0    1.54e+00    0    1.07e+00
2006 08 21  1540    53968   56400      0    1.59e+00    0    1.11e+00
2006 08 21  1545    53968   56700      0    1.60e+00    0    1.12e+00
2006 08 21  1550    53968   57000      0    1.58e+00    0    1.12e+00
2006 08 21  1555    53968   57300      0    1.59e+00    0    1.12e+00
2006 08 21  1600    53968   57600      0    1.55e+00    0    1.10e+00
2006 08 21  1605    53968   57900      0    1.56e+00    0    1.09e+00
2006 08 21  1610    53968   58200      0    1.57e+00    0    1.09e+00
2006 08 21  1615    53968   58500      0    1.54e+00    0    1.07e+00
2006 08 21  1620    53968   58800      0    1.54e+00    0    1.07e+00
2006 08 21  1625    53968   59100      0    1.55e+00    0    1.10e+00
2006 08 21  1630    53968   59400      0    1.54e+00    0    1.08e+00
2006 08 21  1635    53968   59700      0    1.56e+00    0    1.09e+00
2006 08 21  1640    53968   60000      0    1.54e+00    0    1.07e+00
2006 08 21  1645    53968   60300      0    1.58e+00    0    1.11e+00
2006 08 21  1650    53968   60600      0    1.56e+00    0    1.09e+00
2006 08 21  1655    53968   60900      0    1.58e+00    0    1.10e+00
2006 08 21  1700    53968   61200      0    1.54e+00    0    1.08e+00
2006 08 21  1705    53968   61500      0    1.55e+00    0    1.09e+00
2006 08 21  1710    53968   61800      0    1.55e+00    0    1.08e+00
2006 08 21  1715    53968   62100      0    1.53e+00    0    1.06e+00
2006 08 21  1720    53968   62400      0    1.54e+00    0    1.08e+00
2006 08 21  1725    53968   62700      0    1.55e+00    0    1.08e+00
2006 08 21  1730    53968   63000      0    1.57e+00    0    1.09e+00
2006 08 21  1735    53968   63300      0    1.53e+00    0    1.08e+00
2006 08 21  1740    53968   63600      0    1.54e+00    0    1.08e+00
2006 08 21  1745    53968   63900      0    1.53e+00    0    1.06e+00
2006 08 21  1750    53968   64200      0    1.51e+00    0    1.06e+00
2006 08 21  1755    53968   64500      0    1.56e+00    0    1.10e+00
2006 08 21  1800    53968   64800      0    3.72e+00    0    3.26e+00
2006 08 21  1805    53968   65100      0    1.51e+00    0    1.06e+00
2006 08 21  1810    53968   65400      0    1.56e+00    0    1.09e+00
2006 08 21  1815    53968   65700      0    1.53e+00    0    1.07e+00
2006 08 21  1820    53968   66000      0    1.54e+00    0    1.08e+00
2006 08 21  1825    53968   66300      0    1.49e+00    0    1.04e+00
2006 08 21  1830    53968   66600      0    1.53e+00    0    1.08e+00
2006 08 21  1835    53968   66900      0    1.57e+00    0    1.10e+00
2006 08 21  1840    53968   67200      0    1.53e+00    0    1.07e+00
2006 08 21  1845    53968   67500      0    1.52e+00    0    1.06e+00
2006 08 21  1850    53968   67800      0    1.52e+00    0    1.08e+00
2006 08 21  1855    53968   68100      0    1.51e+00    0    1.05e+00
2006 08 21  1900    53968   68400      0    1.48e+00    0    1.05e+00
2006 08 21  1905    53968   68700      0    1.52e+00    0    1.06e+00
2006 08 21  1910    53968   69000      0    1.57e+00    0    1.09e+00
2006 08 21  1915    53968   69300      0    1.57e+00    0    1.09e+00
2006 08 21  1920    53968   69600      0    1.52e+00    0    1.08e+00
2006 08 21  1925    53968   69900      0    1.52e+00    0    1.06e+00
2006 08 21  1930    53968   70200      0    1.51e+00    0    1.05e+00
2006 08 21  1935    53968   70500      0    1.53e+00    0    1.06e+00
2006 08 21  1940    53968   70800      0    1.52e+00    0    1.08e+00
2006 08 21  1945    53968   71100      0    1.55e+00    0    1.09e+00
2006 08 21  1950    53968   71400      0    1.56e+00    0    1.09e+00
2006 08 21  1955    53968   71700      0    1.55e+00    0    1.08e+00
2006 08 21  2000    53968   72000      0    1.55e+00    0    1.09e+00
2006 08 21  2005    53968   72300      0    1.52e+00    0    1.05e+00
2006 08 21  2010    53968   72600      0    1.58e+00    0    1.11e+00
2006 08 21  2015    53968   72900      0    1.57e+00    0    1.11e+00
2006 08 21  2020    53968   73200      0    1.51e+00    0    1.06e+00
2006 08 21  2025    53968   73500      0    1.55e+00    0    1.09e+00
2006 08 21  2030    53968   73800      0    1.54e+00    0    1.07e+00
2006 08 21  2035    53968   74100      0    1.53e+00    0    1.07e+00
2006 08 21  2040    53968   74400      0    1.57e+00    0    1.11e+00
2006 08 21  2045    53968   74700      0    1.50e+00    0    1.05e+00
2006 08 21  2050    53968   75000      0    1.54e+00    0    1.09e+00
2006 08 21  2055    53968   75300      0    1.51e+00    0    1.05e+00
2006 08 21  2100    53968   75600      0    1.53e+00    0    1.07e+00
2006 08 21  2105    53968   75900      0    1.51e+00    0    1.06e+00
2006 08 21  2110    53968   76200      0    1.56e+00    0    1.10e+00
2006 08 21  2115    53968   76500      0    1.55e+00    0    1.10e+00
2006 08 21  2120    53968   76800      0    1.52e+00    0    1.06e+00
2006 08 21  2125    53968   77100      0    1.52e+00    0    1.07e+00
2006 08 21  2130    53968   77400      0    1.56e+00    0    1.09e+00
2006 08 21  2135    53968   77700      0    1.50e+00    0    1.05e+00
2006 08 21  2140    53968   78000      0    1.55e+00    0    1.09e+00
2006 08 21  2145    53968   78300      0    1.55e+00    0    1.09e+00
2006 08 21  2150    53968   78600      0    1.52e+00    0    1.07e+00
2006 08 21  2155    53968   78900      0    1.51e+00    0    1.07e+00
2006 08 21  2200    53968   79200      0    1.52e+00    0    1.07e+00
2006 08 21  2205    53968   79500      0    1.55e+00    0    1.09e+00
2006 08 21  2210    53968   79800      0    1.50e+00    0    1.04e+00
2006 08 21  2215    53968   80100      0    1.53e+00    0    1.07e+00
2006 08 21  2220    53968   80400      0    1.54e+00    0    1.08e+00
2006 08 21  2225    53968   80700      0    1.53e+00    0    1.07e+00
2006 08 21  2230    53968   81000      0    1.54e+00    0    1.09e+00
2006 08 21  2235    53968   81300      0    1.52e+00    0    1.06e+00
2006 08 21  2240    53968   81600      0    1.49e+00    0    1.05e+00
2006 08 21  2245    53968   81900      0    1.53e+00    0    1.06e+00
2006 08 21  2250    53968   82200      0    1.49e+00    0    1.05e+00
2006 08 21  2255    53968   82500      0    1.53e+00    0    1.08e+00
2006 08 21  2300    53968   82800      0    1.55e+00    0    1.09e+00
2006 08 21  2305    53968   83100      0    1.53e+00    0    1.08e+00
2006 08 21  2310    53968   83400      0    1.51e+00    0    1.06e+00
2006 08 21  2315    53968   83700      0    1.52e+00    0    1.07e+00
2006 08 21  2320    53968   84000      0    1.51e+00    0    1.06e+00
2006 08 21  2325    53968   84300      0    1.55e+00    0    1.08e+00
2006 08 21  2330    53968   84600      0    1.55e+00    0    1.09e+00
2006 08 21  2335    53968   84900      0    1.53e+00    0    1.07e+00
2006 08 21  2340    53968   85200      0    1.52e+00    0    1.05e+00
2006 08 21  2345    53968   85500      0    1.51e+00    0    1.06e+00
2006 08 21  2350    53968   85800      0    1.52e+00    0    1.06e+00
2006 08 21  2355    53968   86100      0    1.52e+00    0    1.08e+00
