:Data_list: 20060320_ace_sis_5m.txt
:Created: 2006 Mar 21 0011 UT
# Prepared by the U.S. Dept. of Commerce, NOAA, Space Environment Center.
# Please send comments and suggestions to SEC.Webmaster@noaa.gov 
# 
# Units: proton flux p/cs2-sec-ster
# Status(S): 0 = nominal data, 1 to 8 = bad data record, 9 = no data
# Missing data values: -1.00e+05
# Source: ACE Satellite - Solar Isotope Spectrometer
#
# 5-minute averaged Real-time Integral Flux of High-energy Solar Protons
# 
#                 Modified Seconds
# UT Date   Time   Julian  of the      ---- Integral Proton Flux ----
# YR MO DA  HHMM     Day     Day       S    > 10 MeV    S    > 30 MeV
#--------------------------------------------------------------------
2006 03 20  0000    53814       0      0    1.55e+00    0    1.09e+00
2006 03 20  0005    53814     300      0    1.51e+00    0    1.07e+00
2006 03 20  0010    53814     600      0    1.54e+00    0    1.08e+00
2006 03 20  0015    53814     900      0    1.47e+00    0    1.04e+00
2006 03 20  0020    53814    1200      0    1.49e+00    0    1.04e+00
2006 03 20  0025    53814    1500      0    1.53e+00    0    1.07e+00
2006 03 20  0030    53814    1800      0    1.50e+00    0    1.06e+00
2006 03 20  0035    53814    2100      0    1.49e+00    0    1.04e+00
2006 03 20  0040    53814    2400      0    1.49e+00    0    1.04e+00
2006 03 20  0045    53814    2700      0    1.51e+00    0    1.05e+00
2006 03 20  0050    53814    3000      0    1.47e+00    0    1.04e+00
2006 03 20  0055    53814    3300      0    1.54e+00    0    1.07e+00
2006 03 20  0100    53814    3600      0    1.49e+00    0    1.04e+00
2006 03 20  0105    53814    3900      0    1.49e+00    0    1.05e+00
2006 03 20  0110    53814    4200      0    1.57e+00    0    1.09e+00
2006 03 20  0115    53814    4500      0    1.52e+00    0    1.07e+00
2006 03 20  0120    53814    4800      0    1.52e+00    0    1.06e+00
2006 03 20  0125    53814    5100      0    1.53e+00    0    1.08e+00
2006 03 20  0130    53814    5400      0    1.52e+00    0    1.07e+00
2006 03 20  0135    53814    5700      0    1.52e+00    0    1.08e+00
2006 03 20  0140    53814    6000      0    1.53e+00    0    1.07e+00
2006 03 20  0145    53814    6300      0    1.51e+00    0    1.05e+00
2006 03 20  0150    53814    6600      0    1.50e+00    0    1.05e+00
2006 03 20  0155    53814    6900      0    1.51e+00    0    1.07e+00
2006 03 20  0200    53814    7200      0    1.49e+00    0    1.03e+00
2006 03 20  0205    53814    7500      0    1.50e+00    0    1.05e+00
2006 03 20  0210    53814    7800      0    1.51e+00    0    1.07e+00
2006 03 20  0215    53814    8100      0    1.51e+00    0    1.07e+00
2006 03 20  0220    53814    8400      0    1.49e+00    0    1.05e+00
2006 03 20  0225    53814    8700      0    1.54e+00    0    1.08e+00
2006 03 20  0230    53814    9000      0    1.51e+00    0    1.06e+00
2006 03 20  0235    53814    9300      0    1.56e+00    0    1.10e+00
2006 03 20  0240    53814    9600      0    1.51e+00    0    1.05e+00
2006 03 20  0245    53814    9900      0    1.53e+00    0    1.08e+00
2006 03 20  0250    53814   10200      0    1.53e+00    0    1.08e+00
2006 03 20  0255    53814   10500      0    1.52e+00    0    1.06e+00
2006 03 20  0300    53814   10800      0    1.52e+00    0    1.06e+00
2006 03 20  0305    53814   11100      0    1.57e+00    0    1.11e+00
2006 03 20  0310    53814   11400      0    1.53e+00    0    1.08e+00
2006 03 20  0315    53814   11700      0    1.56e+00    0    1.10e+00
2006 03 20  0320    53814   12000      0    1.52e+00    0    1.07e+00
2006 03 20  0325    53814   12300      0    1.52e+00    0    1.07e+00
2006 03 20  0330    53814   12600      0    1.51e+00    0    1.05e+00
2006 03 20  0335    53814   12900      0    1.57e+00    0    1.11e+00
2006 03 20  0340    53814   13200      0    1.55e+00    0    1.09e+00
2006 03 20  0345    53814   13500      0    1.52e+00    0    1.07e+00
2006 03 20  0350    53814   13800      0    1.52e+00    0    1.06e+00
2006 03 20  0355    53814   14100      0    1.54e+00    0    1.09e+00
2006 03 20  0400    53814   14400      0    1.55e+00    0    1.09e+00
2006 03 20  0405    53814   14700      0    1.53e+00    0    1.08e+00
2006 03 20  0410    53814   15000      0    1.51e+00    0    1.05e+00
2006 03 20  0415    53814   15300      0    1.54e+00    0    1.08e+00
2006 03 20  0420    53814   15600      0    1.54e+00    0    1.07e+00
2006 03 20  0425    53814   15900      0    1.50e+00    0    1.05e+00
2006 03 20  0430    53814   16200      0    1.52e+00    0    1.06e+00
2006 03 20  0435    53814   16500      0    1.52e+00    0    1.08e+00
2006 03 20  0440    53814   16800      0    1.52e+00    0    1.07e+00
2006 03 20  0445    53814   17100      0    1.52e+00    0    1.07e+00
2006 03 20  0450    53814   17400      0    1.56e+00    0    1.09e+00
2006 03 20  0455    53814   17700      0    1.53e+00    0    1.08e+00
2006 03 20  0500    53814   18000      0    1.53e+00    0    1.07e+00
2006 03 20  0505    53814   18300      0    1.55e+00    0    1.08e+00
2006 03 20  0510    53814   18600      0    1.51e+00    0    1.05e+00
2006 03 20  0515    53814   18900      0    1.52e+00    0    1.06e+00
2006 03 20  0520    53814   19200      0    1.53e+00    0    1.08e+00
2006 03 20  0525    53814   19500      0    1.52e+00    0    1.07e+00
2006 03 20  0530    53814   19800      0    1.54e+00    0    1.09e+00
2006 03 20  0535    53814   20100      0    1.51e+00    0    1.05e+00
2006 03 20  0540    53814   20400      0    1.53e+00    0    1.07e+00
2006 03 20  0545    53814   20700      0    1.50e+00    0    1.05e+00
2006 03 20  0550    53814   21000      0    1.53e+00    0    1.06e+00
2006 03 20  0555    53814   21300      0    1.52e+00    0    1.05e+00
2006 03 20  0600    53814   21600      0    1.51e+00    0    1.06e+00
2006 03 20  0605    53814   21900      0    1.54e+00    0    1.08e+00
2006 03 20  0610    53814   22200      0    1.53e+00    0    1.06e+00
2006 03 20  0615    53814   22500      0    1.54e+00    0    1.08e+00
2006 03 20  0620    53814   22800      0    1.52e+00    0    1.06e+00
2006 03 20  0625    53814   23100      0    1.52e+00    0    1.07e+00
2006 03 20  0630    53814   23400      0    1.53e+00    0    1.07e+00
2006 03 20  0635    53814   23700      0    1.51e+00    0    1.08e+00
2006 03 20  0640    53814   24000      0    1.54e+00    0    1.09e+00
2006 03 20  0645    53814   24300      0    1.50e+00    0    1.05e+00
2006 03 20  0650    53814   24600      0    1.55e+00    0    1.09e+00
2006 03 20  0655    53814   24900      0    1.49e+00    0    1.05e+00
2006 03 20  0700    53814   25200      0    1.53e+00    0    1.07e+00
2006 03 20  0705    53814   25500      0    1.50e+00    0    1.05e+00
2006 03 20  0710    53814   25800      0    1.51e+00    0    1.05e+00
2006 03 20  0715    53814   26100      0    1.53e+00    0    1.07e+00
2006 03 20  0720    53814   26400      0    1.52e+00    0    1.09e+00
2006 03 20  0725    53814   26700      0    1.51e+00    0    1.07e+00
2006 03 20  0730    53814   27000      0    1.52e+00    0    1.07e+00
2006 03 20  0735    53814   27300      0    1.52e+00    0    1.06e+00
2006 03 20  0740    53814   27600      0    1.55e+00    0    1.09e+00
2006 03 20  0745    53814   27900      0    1.52e+00    0    1.07e+00
2006 03 20  0750    53814   28200      0    1.50e+00    0    1.05e+00
2006 03 20  0755    53814   28500      0    1.54e+00    0    1.09e+00
2006 03 20  0800    53814   28800      0    1.51e+00    0    1.07e+00
2006 03 20  0805    53814   29100      0    1.52e+00    0    1.07e+00
2006 03 20  0810    53814   29400      0    1.52e+00    0    1.07e+00
2006 03 20  0815    53814   29700      0    1.52e+00    0    1.07e+00
2006 03 20  0820    53814   30000      0    1.55e+00    0    1.08e+00
2006 03 20  0825    53814   30300      0    1.49e+00    0    1.04e+00
2006 03 20  0830    53814   30600      0    1.54e+00    0    1.08e+00
2006 03 20  0835    53814   30900      0    1.52e+00    0    1.08e+00
2006 03 20  0840    53814   31200      0    1.51e+00    0    1.05e+00
2006 03 20  0845    53814   31500      0    1.54e+00    0    1.07e+00
2006 03 20  0850    53814   31800      0    1.51e+00    0    1.05e+00
2006 03 20  0855    53814   32100      0    1.55e+00    0    1.10e+00
2006 03 20  0900    53814   32400      0    1.50e+00    0    1.06e+00
2006 03 20  0905    53814   32700      0    1.54e+00    0    1.08e+00
2006 03 20  0910    53814   33000      0    1.56e+00    0    1.10e+00
2006 03 20  0915    53814   33300      0    1.53e+00    0    1.07e+00
2006 03 20  0920    53814   33600      0    1.54e+00    0    1.09e+00
2006 03 20  0925    53814   33900      0    1.48e+00    0    1.05e+00
2006 03 20  0930    53814   34200      0    1.55e+00    0    1.09e+00
2006 03 20  0935    53814   34500      0    1.54e+00    0    1.09e+00
2006 03 20  0940    53814   34800      0    1.51e+00    0    1.06e+00
2006 03 20  0945    53814   35100      0    1.51e+00    0    1.04e+00
2006 03 20  0950    53814   35400      0    1.51e+00    0    1.05e+00
2006 03 20  0955    53814   35700      0    1.52e+00    0    1.08e+00
2006 03 20  1000    53814   36000      0    1.50e+00    0    1.05e+00
2006 03 20  1005    53814   36300      0    1.50e+00    0    1.04e+00
2006 03 20  1010    53814   36600      0    1.50e+00    0    1.05e+00
2006 03 20  1015    53814   36900      0    1.50e+00    0    1.06e+00
2006 03 20  1020    53814   37200      0    1.52e+00    0    1.07e+00
2006 03 20  1025    53814   37500      0    1.51e+00    0    1.07e+00
2006 03 20  1030    53814   37800      0    1.51e+00    0    1.04e+00
2006 03 20  1035    53814   38100      0    1.51e+00    0    1.06e+00
2006 03 20  1040    53814   38400      0    1.48e+00    0    1.05e+00
2006 03 20  1045    53814   38700      0    1.51e+00    0    1.06e+00
2006 03 20  1050    53814   39000      0    1.51e+00    0    1.07e+00
2006 03 20  1055    53814   39300      0    1.52e+00    0    1.07e+00
2006 03 20  1100    53814   39600      0    1.51e+00    0    1.06e+00
2006 03 20  1105    53814   39900      0    1.51e+00    0    1.05e+00
2006 03 20  1110    53814   40200      0    1.46e+00    0    1.01e+00
2006 03 20  1115    53814   40500      0    1.49e+00    0    1.04e+00
2006 03 20  1120    53814   40800      0    1.49e+00    0    1.04e+00
2006 03 20  1125    53814   41100      0    1.49e+00    0    1.06e+00
2006 03 20  1130    53814   41400      0    1.52e+00    0    1.07e+00
2006 03 20  1135    53814   41700      0    1.47e+00    0    1.04e+00
2006 03 20  1140    53814   42000      0    1.49e+00    0    1.05e+00
2006 03 20  1145    53814   42300      0    1.49e+00    0    1.05e+00
2006 03 20  1150    53814   42600      0    1.53e+00    0    1.07e+00
2006 03 20  1155    53814   42900      0    1.51e+00    0    1.06e+00
2006 03 20  1200    53814   43200      0    1.52e+00    0    1.08e+00
2006 03 20  1205    53814   43500      0    1.49e+00    0    1.04e+00
2006 03 20  1210    53814   43800      0    1.48e+00    0    1.03e+00
2006 03 20  1215    53814   44100      0    1.49e+00    0    1.05e+00
2006 03 20  1220    53814   44400      0    1.52e+00    0    1.07e+00
2006 03 20  1225    53814   44700      0    1.47e+00    0    1.03e+00
2006 03 20  1230    53814   45000      0    1.47e+00    0    1.04e+00
2006 03 20  1235    53814   45300      0    1.50e+00    0    1.05e+00
2006 03 20  1240    53814   45600      0    1.50e+00    0    1.05e+00
2006 03 20  1245    53814   45900      0    1.49e+00    0    1.05e+00
2006 03 20  1250    53814   46200      0    1.48e+00    0    1.03e+00
2006 03 20  1255    53814   46500      0    1.54e+00    0    1.08e+00
2006 03 20  1300    53814   46800      0    1.51e+00    0    1.06e+00
2006 03 20  1305    53814   47100      0    1.52e+00    0    1.07e+00
2006 03 20  1310    53814   47400      0    1.46e+00    0    1.03e+00
2006 03 20  1315    53814   47700      0    1.51e+00    0    1.07e+00
2006 03 20  1320    53814   48000      0    1.49e+00    0    1.05e+00
2006 03 20  1325    53814   48300      0    1.52e+00    0    1.05e+00
2006 03 20  1330    53814   48600      0    1.50e+00    0    1.06e+00
2006 03 20  1335    53814   48900      0    1.49e+00    0    1.04e+00
2006 03 20  1340    53814   49200      0    1.53e+00    0    1.08e+00
2006 03 20  1345    53814   49500      0    1.52e+00    0    1.06e+00
2006 03 20  1350    53814   49800      0    1.54e+00    0    1.07e+00
2006 03 20  1355    53814   50100      0    1.54e+00    0    1.08e+00
2006 03 20  1400    53814   50400      0    1.55e+00    0    1.08e+00
2006 03 20  1405    53814   50700      0    1.48e+00    0    1.04e+00
2006 03 20  1410    53814   51000      0    1.50e+00    0    1.05e+00
2006 03 20  1415    53814   51300      0    1.52e+00    0    1.07e+00
2006 03 20  1420    53814   51600      0    1.51e+00    0    1.06e+00
2006 03 20  1425    53814   51900      0    1.48e+00    0    1.04e+00
2006 03 20  1430    53814   52200      0    1.47e+00    0    1.03e+00
2006 03 20  1435    53814   52500      0    1.50e+00    0    1.04e+00
2006 03 20  1440    53814   52800      0    1.50e+00    0    1.06e+00
2006 03 20  1445    53814   53100      0    1.48e+00    0    1.03e+00
2006 03 20  1450    53814   53400      0    1.48e+00    0    1.03e+00
2006 03 20  1455    53814   53700      0    1.50e+00    0    1.05e+00
2006 03 20  1500    53814   54000      0    1.49e+00    0    1.06e+00
2006 03 20  1505    53814   54300      0    1.52e+00    0    1.08e+00
2006 03 20  1510    53814   54600      0    1.49e+00    0    1.05e+00
2006 03 20  1515    53814   54900      0    1.46e+00    0    1.01e+00
2006 03 20  1520    53814   55200      0    1.48e+00    0    1.04e+00
2006 03 20  1525    53814   55500      0    1.50e+00    0    1.04e+00
2006 03 20  1530    53814   55800      0    1.48e+00    0    1.05e+00
2006 03 20  1535    53814   56100      0    1.48e+00    0    1.03e+00
2006 03 20  1540    53814   56400      0    1.48e+00    0    1.04e+00
2006 03 20  1545    53814   56700      0    1.52e+00    0    1.08e+00
2006 03 20  1550    53814   57000      0    1.49e+00    0    1.05e+00
2006 03 20  1555    53814   57300      0    1.50e+00    0    1.05e+00
2006 03 20  1600    53814   57600      0    1.52e+00    0    1.07e+00
2006 03 20  1605    53814   57900      0    1.46e+00    0    1.01e+00
2006 03 20  1610    53814   58200      0    1.50e+00    0    1.05e+00
2006 03 20  1615    53814   58500      0    1.48e+00    0    1.03e+00
2006 03 20  1620    53814   58800      0    1.52e+00    0    1.07e+00
2006 03 20  1625    53814   59100      0    1.51e+00    0    1.05e+00
2006 03 20  1630    53814   59400      0    1.55e+00    0    1.09e+00
2006 03 20  1635    53814   59700      0    1.48e+00    0    1.04e+00
2006 03 20  1640    53814   60000      0    1.52e+00    0    1.07e+00
2006 03 20  1645    53814   60300      0    1.53e+00    0    1.09e+00
2006 03 20  1650    53814   60600      0    1.51e+00    0    1.05e+00
2006 03 20  1655    53814   60900      0    1.51e+00    0    1.06e+00
2006 03 20  1700    53814   61200      0    1.52e+00    0    1.06e+00
2006 03 20  1705    53814   61500      0    1.52e+00    0    1.08e+00
2006 03 20  1710    53814   61800      0    1.51e+00    0    1.05e+00
2006 03 20  1715    53814   62100      0    1.51e+00    0    1.05e+00
2006 03 20  1720    53814   62400      0    1.52e+00    0    1.07e+00
2006 03 20  1725    53814   62700      0    1.48e+00    0    1.03e+00
2006 03 20  1730    53814   63000      0    1.49e+00    0    1.06e+00
2006 03 20  1735    53814   63300      0    1.50e+00    0    1.06e+00
2006 03 20  1740    53814   63600      0    1.49e+00    0    1.04e+00
2006 03 20  1745    53814   63900      0    1.52e+00    0    1.06e+00
2006 03 20  1750    53814   64200      0    1.55e+00    0    1.08e+00
2006 03 20  1755    53814   64500      0    1.53e+00    0    1.07e+00
2006 03 20  1800    53814   64800      0    1.49e+00    0    1.06e+00
2006 03 20  1805    53814   65100      0    1.49e+00    0    1.06e+00
2006 03 20  1810    53814   65400      0    1.51e+00    0    1.06e+00
2006 03 20  1815    53814   65700      0    1.50e+00    0    1.05e+00
2006 03 20  1820    53814   66000      0    1.54e+00    0    1.08e+00
2006 03 20  1825    53814   66300      0    1.52e+00    0    1.07e+00
2006 03 20  1830    53814   66600      0    1.49e+00    0    1.05e+00
2006 03 20  1835    53814   66900      0    1.51e+00    0    1.05e+00
2006 03 20  1840    53814   67200      0    1.53e+00    0    1.07e+00
2006 03 20  1845    53814   67500      0    1.48e+00    0    1.04e+00
2006 03 20  1850    53814   67800      0    1.52e+00    0    1.07e+00
2006 03 20  1855    53814   68100      0    1.50e+00    0    1.05e+00
2006 03 20  1900    53814   68400      0    1.53e+00    0    1.08e+00
2006 03 20  1905    53814   68700      0    1.52e+00    0    1.05e+00
2006 03 20  1910    53814   69000      0    1.52e+00    0    1.08e+00
2006 03 20  1915    53814   69300      0    1.52e+00    0    1.06e+00
2006 03 20  1920    53814   69600      0    1.51e+00    0    1.05e+00
2006 03 20  1925    53814   69900      0    1.49e+00    0    1.03e+00
2006 03 20  1930    53814   70200      0    1.50e+00    0    1.05e+00
2006 03 20  1935    53814   70500      0    1.50e+00    0    1.05e+00
2006 03 20  1940    53814   70800      0    1.53e+00    0    1.07e+00
2006 03 20  1945    53814   71100      0    1.53e+00    0    1.07e+00
2006 03 20  1950    53814   71400      0    1.53e+00    0    1.06e+00
2006 03 20  1955    53814   71700      0    1.54e+00    0    1.08e+00
2006 03 20  2000    53814   72000      0    1.50e+00    0    1.03e+00
2006 03 20  2005    53814   72300      0    1.50e+00    0    1.05e+00
2006 03 20  2010    53814   72600      0    1.51e+00    0    1.05e+00
2006 03 20  2015    53814   72900      0    1.52e+00    0    1.06e+00
2006 03 20  2020    53814   73200      0    1.50e+00    0    1.04e+00
2006 03 20  2025    53814   73500      0    1.47e+00    0    1.04e+00
2006 03 20  2030    53814   73800      0    1.52e+00    0    1.06e+00
2006 03 20  2035    53814   74100      0    1.52e+00    0    1.06e+00
2006 03 20  2040    53814   74400      0    1.51e+00    0    1.06e+00
2006 03 20  2045    53814   74700      0    1.51e+00    0    1.07e+00
2006 03 20  2050    53814   75000      0    1.49e+00    0    1.04e+00
2006 03 20  2055    53814   75300      0    1.51e+00    0    1.06e+00
2006 03 20  2100    53814   75600      0    1.49e+00    0    1.03e+00
2006 03 20  2105    53814   75900      0    1.54e+00    0    1.08e+00
2006 03 20  2110    53814   76200      0    1.53e+00    0    1.08e+00
2006 03 20  2115    53814   76500      0    1.51e+00    0    1.06e+00
2006 03 20  2120    53814   76800      0    1.51e+00    0    1.06e+00
2006 03 20  2125    53814   77100      0    1.49e+00    0    1.06e+00
2006 03 20  2130    53814   77400      0    1.50e+00    0    1.07e+00
2006 03 20  2135    53814   77700      0    1.48e+00    0    1.02e+00
2006 03 20  2140    53814   78000      0    1.49e+00    0    1.04e+00
2006 03 20  2145    53814   78300      0    1.50e+00    0    1.04e+00
2006 03 20  2150    53814   78600      0    1.49e+00    0    1.05e+00
2006 03 20  2155    53814   78900      0    1.52e+00    0    1.06e+00
2006 03 20  2200    53814   79200      0    1.52e+00    0    1.08e+00
2006 03 20  2205    53814   79500      0    1.51e+00    0    1.07e+00
2006 03 20  2210    53814   79800      0    1.50e+00    0    1.05e+00
2006 03 20  2215    53814   80100      0    1.53e+00    0    1.08e+00
2006 03 20  2220    53814   80400      0    1.56e+00    0    1.10e+00
2006 03 20  2225    53814   80700      0    1.54e+00    0    1.08e+00
2006 03 20  2230    53814   81000      0    1.48e+00    0    1.04e+00
2006 03 20  2235    53814   81300      0    1.52e+00    0    1.07e+00
2006 03 20  2240    53814   81600      0    1.49e+00    0    1.05e+00
2006 03 20  2245    53814   81900      0    1.49e+00    0    1.05e+00
2006 03 20  2250    53814   82200      0    1.54e+00    0    1.09e+00
2006 03 20  2255    53814   82500      0    1.54e+00    0    1.09e+00
2006 03 20  2300    53814   82800      0    1.51e+00    0    1.06e+00
2006 03 20  2305    53814   83100      0    1.52e+00    0    1.07e+00
2006 03 20  2310    53814   83400      0    1.52e+00    0    1.07e+00
2006 03 20  2315    53814   83700      0    1.51e+00    0    1.06e+00
2006 03 20  2320    53814   84000      0    1.49e+00    0    1.05e+00
2006 03 20  2325    53814   84300      0    1.48e+00    0    1.03e+00
2006 03 20  2330    53814   84600      0    1.50e+00    0    1.05e+00
2006 03 20  2335    53814   84900      0    1.52e+00    0    1.06e+00
2006 03 20  2340    53814   85200      0    1.55e+00    0    1.09e+00
2006 03 20  2345    53814   85500      0    1.52e+00    0    1.06e+00
2006 03 20  2350    53814   85800      0    1.48e+00    0    1.03e+00
2006 03 20  2355    53814   86100      0    1.56e+00    0    1.09e+00
