:Data_list: 20060410_ace_sis_5m.txt
:Created: 2006 Apr 11 0011 UT
# Prepared by the U.S. Dept. of Commerce, NOAA, Space Environment Center.
# Please send comments and suggestions to SEC.Webmaster@noaa.gov 
# 
# Units: proton flux p/cs2-sec-ster
# Status(S): 0 = nominal data, 1 to 8 = bad data record, 9 = no data
# Missing data values: -1.00e+05
# Source: ACE Satellite - Solar Isotope Spectrometer
#
# 5-minute averaged Real-time Integral Flux of High-energy Solar Protons
# 
#                 Modified Seconds
# UT Date   Time   Julian  of the      ---- Integral Proton Flux ----
# YR MO DA  HHMM     Day     Day       S    > 10 MeV    S    > 30 MeV
#--------------------------------------------------------------------
2006 04 10  0000    53835       0      0    1.51e+00    0    1.06e+00
2006 04 10  0005    53835     300      0    1.48e+00    0    1.04e+00
2006 04 10  0010    53835     600      0    1.47e+00    0    1.03e+00
2006 04 10  0015    53835     900      0    1.48e+00    0    1.04e+00
2006 04 10  0020    53835    1200      0    1.49e+00    0    1.03e+00
2006 04 10  0025    53835    1500      0    1.49e+00    0    1.05e+00
2006 04 10  0030    53835    1800      0    1.50e+00    0    1.05e+00
2006 04 10  0035    53835    2100      0    1.51e+00    0    1.06e+00
2006 04 10  0040    53835    2400      0    1.52e+00    0    1.08e+00
2006 04 10  0045    53835    2700      0    1.51e+00    0    1.06e+00
2006 04 10  0050    53835    3000      0    1.48e+00    0    1.04e+00
2006 04 10  0055    53835    3300      0    1.50e+00    0    1.05e+00
2006 04 10  0100    53835    3600      0    1.53e+00    0    1.07e+00
2006 04 10  0105    53835    3900      0    1.50e+00    0    1.05e+00
2006 04 10  0110    53835    4200      0    1.51e+00    0    1.07e+00
2006 04 10  0115    53835    4500      0    1.50e+00    0    1.05e+00
2006 04 10  0120    53835    4800      0    1.52e+00    0    1.07e+00
2006 04 10  0125    53835    5100      0    1.51e+00    0    1.05e+00
2006 04 10  0130    53835    5400      0    1.53e+00    0    1.08e+00
2006 04 10  0135    53835    5700      0    1.52e+00    0    1.07e+00
2006 04 10  0140    53835    6000      0    1.45e+00    0    1.03e+00
2006 04 10  0145    53835    6300      0    1.52e+00    0    1.08e+00
2006 04 10  0150    53835    6600      0    1.50e+00    0    1.06e+00
2006 04 10  0155    53835    6900      0    1.52e+00    0    1.07e+00
2006 04 10  0200    53835    7200      0    1.54e+00    0    1.09e+00
2006 04 10  0205    53835    7500      0    1.53e+00    0    1.08e+00
2006 04 10  0210    53835    7800      0    1.49e+00    0    1.04e+00
2006 04 10  0215    53835    8100      0    1.54e+00    0    1.07e+00
2006 04 10  0220    53835    8400      0    1.54e+00    0    1.08e+00
2006 04 10  0225    53835    8700      0    1.50e+00    0    1.06e+00
2006 04 10  0230    53835    9000      0    1.54e+00    0    1.08e+00
2006 04 10  0235    53835    9300      0    1.50e+00    0    1.06e+00
2006 04 10  0240    53835    9600      0    1.50e+00    0    1.05e+00
2006 04 10  0245    53835    9900      0    1.50e+00    0    1.05e+00
2006 04 10  0250    53835   10200      0    1.51e+00    0    1.06e+00
2006 04 10  0255    53835   10500      0    1.50e+00    0    1.05e+00
2006 04 10  0300    53835   10800      0    1.50e+00    0    1.05e+00
2006 04 10  0305    53835   11100      0    1.55e+00    0    1.09e+00
2006 04 10  0310    53835   11400      0    1.52e+00    0    1.06e+00
2006 04 10  0315    53835   11700      0    1.52e+00    0    1.07e+00
2006 04 10  0320    53835   12000      0    1.52e+00    0    1.08e+00
2006 04 10  0325    53835   12300      0    1.50e+00    0    1.05e+00
2006 04 10  0330    53835   12600      0    1.52e+00    0    1.08e+00
2006 04 10  0335    53835   12900      0    1.52e+00    0    1.06e+00
2006 04 10  0340    53835   13200      0    1.52e+00    0    1.07e+00
2006 04 10  0345    53835   13500      0    1.53e+00    0    1.06e+00
2006 04 10  0350    53835   13800      0    1.55e+00    0    1.10e+00
2006 04 10  0355    53835   14100      0    1.52e+00    0    1.06e+00
2006 04 10  0400    53835   14400      0    1.50e+00    0    1.05e+00
2006 04 10  0405    53835   14700      0    1.50e+00    0    1.05e+00
2006 04 10  0410    53835   15000      0    1.50e+00    0    1.06e+00
2006 04 10  0415    53835   15300      0    1.50e+00    0    1.06e+00
2006 04 10  0420    53835   15600      0    1.52e+00    0    1.07e+00
2006 04 10  0425    53835   15900      0    1.50e+00    0    1.04e+00
2006 04 10  0430    53835   16200      0    1.51e+00    0    1.07e+00
2006 04 10  0435    53835   16500      0    1.49e+00    0    1.06e+00
2006 04 10  0440    53835   16800      0    1.52e+00    0    1.08e+00
2006 04 10  0445    53835   17100      0    1.55e+00    0    1.08e+00
2006 04 10  0450    53835   17400      0    1.50e+00    0    1.05e+00
2006 04 10  0455    53835   17700      0    1.50e+00    0    1.06e+00
2006 04 10  0500    53835   18000      0    1.59e+00    0    1.15e+00
2006 04 10  0505    53835   18300      0    1.48e+00    0    1.04e+00
2006 04 10  0510    53835   18600      0    1.49e+00    0    1.04e+00
2006 04 10  0515    53835   18900      0    1.54e+00    0    1.08e+00
2006 04 10  0520    53835   19200      0    1.52e+00    0    1.07e+00
2006 04 10  0525    53835   19500      0    1.50e+00    0    1.06e+00
2006 04 10  0530    53835   19800      0    1.55e+00    0    1.09e+00
2006 04 10  0535    53835   20100      0    1.54e+00    0    1.07e+00
2006 04 10  0540    53835   20400      0    1.51e+00    0    1.06e+00
2006 04 10  0545    53835   20700      0    1.50e+00    0    1.05e+00
2006 04 10  0550    53835   21000      0    1.53e+00    0    1.07e+00
2006 04 10  0555    53835   21300      0    1.51e+00    0    1.06e+00
2006 04 10  0600    53835   21600      0    1.48e+00    0    1.04e+00
2006 04 10  0605    53835   21900      0    1.55e+00    0    1.07e+00
2006 04 10  0610    53835   22200      0    1.52e+00    0    1.08e+00
2006 04 10  0615    53835   22500      0    1.51e+00    0    1.07e+00
2006 04 10  0620    53835   22800      0    1.49e+00    0    1.04e+00
2006 04 10  0625    53835   23100      0    1.53e+00    0    1.07e+00
2006 04 10  0630    53835   23400      0    1.51e+00    0    1.07e+00
2006 04 10  0635    53835   23700      0    1.51e+00    0    1.06e+00
2006 04 10  0640    53835   24000      0    1.50e+00    0    1.04e+00
2006 04 10  0645    53835   24300      0    1.51e+00    0    1.06e+00
2006 04 10  0650    53835   24600      0    1.52e+00    0    1.06e+00
2006 04 10  0655    53835   24900      0    1.51e+00    0    1.06e+00
2006 04 10  0700    53835   25200      0    1.47e+00    0    1.04e+00
2006 04 10  0705    53835   25500      0    1.53e+00    0    1.06e+00
2006 04 10  0710    53835   25800      0    1.48e+00    0    1.03e+00
2006 04 10  0715    53835   26100      0    1.50e+00    0    1.05e+00
2006 04 10  0720    53835   26400      0    1.50e+00    0    1.05e+00
2006 04 10  0725    53835   26700      0    1.48e+00    0    1.04e+00
2006 04 10  0730    53835   27000      0    1.52e+00    0    1.09e+00
2006 04 10  0735    53835   27300      0    1.52e+00    0    1.07e+00
2006 04 10  0740    53835   27600      0    1.48e+00    0    1.05e+00
2006 04 10  0745    53835   27900      0    1.51e+00    0    1.07e+00
2006 04 10  0750    53835   28200      0    1.52e+00    0    1.06e+00
2006 04 10  0755    53835   28500      0    1.50e+00    0    1.05e+00
2006 04 10  0800    53835   28800      0    1.49e+00    0    1.04e+00
2006 04 10  0805    53835   29100      0    1.53e+00    0    1.08e+00
2006 04 10  0810    53835   29400      0    1.53e+00    0    1.08e+00
2006 04 10  0815    53835   29700      0    1.52e+00    0    1.06e+00
2006 04 10  0820    53835   30000      0    1.51e+00    0    1.04e+00
2006 04 10  0825    53835   30300      0    1.54e+00    0    1.07e+00
2006 04 10  0830    53835   30600      0    1.50e+00    0    1.06e+00
2006 04 10  0835    53835   30900      0    1.52e+00    0    1.07e+00
2006 04 10  0840    53835   31200      0    1.50e+00    0    1.05e+00
2006 04 10  0845    53835   31500      0    1.52e+00    0    1.07e+00
2006 04 10  0850    53835   31800      0    1.51e+00    0    1.06e+00
2006 04 10  0855    53835   32100      0    1.54e+00    0    1.08e+00
2006 04 10  0900    53835   32400      0    1.53e+00    0    1.09e+00
2006 04 10  0905    53835   32700      0    1.52e+00    0    1.07e+00
2006 04 10  0910    53835   33000      0    1.54e+00    0    1.08e+00
2006 04 10  0915    53835   33300      0    1.51e+00    0    1.06e+00
2006 04 10  0920    53835   33600      0    1.52e+00    0    1.07e+00
2006 04 10  0925    53835   33900      0    1.50e+00    0    1.06e+00
2006 04 10  0930    53835   34200      0    1.51e+00    0    1.06e+00
2006 04 10  0935    53835   34500      0    1.49e+00    0    1.04e+00
2006 04 10  0940    53835   34800      0    1.52e+00    0    1.07e+00
2006 04 10  0945    53835   35100      0    1.49e+00    0    1.04e+00
2006 04 10  0950    53835   35400      0    1.52e+00    0    1.06e+00
2006 04 10  0955    53835   35700      0    1.52e+00    0    1.07e+00
2006 04 10  1000    53835   36000      0    1.50e+00    0    1.06e+00
2006 04 10  1005    53835   36300      0    1.51e+00    0    1.05e+00
2006 04 10  1010    53835   36600      0    1.53e+00    0    1.07e+00
2006 04 10  1015    53835   36900      0    1.50e+00    0    1.06e+00
2006 04 10  1020    53835   37200      0    1.50e+00    0    1.05e+00
2006 04 10  1025    53835   37500      0    1.51e+00    0    1.07e+00
2006 04 10  1030    53835   37800      0    1.50e+00    0    1.05e+00
2006 04 10  1035    53835   38100      0    1.56e+00    0    1.10e+00
2006 04 10  1040    53835   38400      0    1.51e+00    0    1.06e+00
2006 04 10  1045    53835   38700      0    1.50e+00    0    1.05e+00
2006 04 10  1050    53835   39000      0    1.51e+00    0    1.05e+00
2006 04 10  1055    53835   39300      0    1.48e+00    0    1.05e+00
2006 04 10  1100    53835   39600      0    1.49e+00    0    1.05e+00
2006 04 10  1105    53835   39900      0    1.56e+00    0    1.08e+00
2006 04 10  1110    53835   40200      0    1.50e+00    0    1.05e+00
2006 04 10  1115    53835   40500      0    1.52e+00    0    1.06e+00
2006 04 10  1120    53835   40800      0    1.53e+00    0    1.06e+00
2006 04 10  1125    53835   41100      0    1.52e+00    0    1.07e+00
2006 04 10  1130    53835   41400      0    1.51e+00    0    1.06e+00
2006 04 10  1135    53835   41700      0    1.53e+00    0    1.08e+00
2006 04 10  1140    53835   42000      0    1.51e+00    0    1.07e+00
2006 04 10  1145    53835   42300      0    1.54e+00    0    1.10e+00
2006 04 10  1150    53835   42600      0    1.52e+00    0    1.06e+00
2006 04 10  1155    53835   42900      0    1.53e+00    0    1.06e+00
2006 04 10  1200    53835   43200      0    1.56e+00    0    1.09e+00
2006 04 10  1205    53835   43500      0    1.55e+00    0    1.09e+00
2006 04 10  1210    53835   43800      0    1.51e+00    0    1.05e+00
2006 04 10  1215    53835   44100      0    1.54e+00    0    1.09e+00
2006 04 10  1220    53835   44400      0    1.56e+00    0    1.10e+00
2006 04 10  1225    53835   44700      0    1.52e+00    0    1.07e+00
2006 04 10  1230    53835   45000      0    1.55e+00    0    1.09e+00
2006 04 10  1235    53835   45300      0    1.51e+00    0    1.07e+00
2006 04 10  1240    53835   45600      0    1.48e+00    0    1.05e+00
2006 04 10  1245    53835   45900      0    1.56e+00    0    1.09e+00
2006 04 10  1250    53835   46200      0    1.54e+00    0    1.08e+00
2006 04 10  1255    53835   46500      0    1.50e+00    0    1.05e+00
2006 04 10  1300    53835   46800      0    1.50e+00    0    1.05e+00
2006 04 10  1305    53835   47100      0    1.54e+00    0    1.07e+00
2006 04 10  1310    53835   47400      0    1.52e+00    0    1.07e+00
2006 04 10  1315    53835   47700      0    1.49e+00    0    1.05e+00
2006 04 10  1320    53835   48000      0    1.55e+00    0    1.09e+00
2006 04 10  1325    53835   48300      0    1.55e+00    0    1.10e+00
2006 04 10  1330    53835   48600      0    1.53e+00    0    1.07e+00
2006 04 10  1335    53835   48900      0    1.52e+00    0    1.06e+00
2006 04 10  1340    53835   49200      0    1.53e+00    0    1.08e+00
2006 04 10  1345    53835   49500      0    1.53e+00    0    1.08e+00
2006 04 10  1350    53835   49800      0    1.51e+00    0    1.06e+00
2006 04 10  1355    53835   50100      0    1.48e+00    0    1.04e+00
2006 04 10  1400    53835   50400      0    1.52e+00    0    1.07e+00
2006 04 10  1405    53835   50700      0    1.48e+00    0    1.04e+00
2006 04 10  1410    53835   51000      0    1.53e+00    0    1.08e+00
2006 04 10  1415    53835   51300      0    1.49e+00    0    1.04e+00
2006 04 10  1420    53835   51600      0    1.52e+00    0    1.07e+00
2006 04 10  1425    53835   51900      0    1.52e+00    0    1.07e+00
2006 04 10  1430    53835   52200      0    1.58e+00    0    1.11e+00
2006 04 10  1435    53835   52500      0    1.52e+00    0    1.06e+00
2006 04 10  1440    53835   52800      0    1.54e+00    0    1.08e+00
2006 04 10  1445    53835   53100      0    1.53e+00    0    1.07e+00
2006 04 10  1450    53835   53400      0    1.52e+00    0    1.06e+00
2006 04 10  1455    53835   53700      0    1.51e+00    0    1.05e+00
2006 04 10  1500    53835   54000      0    1.53e+00    0    1.08e+00
2006 04 10  1505    53835   54300      0    1.52e+00    0    1.07e+00
2006 04 10  1510    53835   54600      0    1.53e+00    0    1.07e+00
2006 04 10  1515    53835   54900      0    1.57e+00    0    1.10e+00
2006 04 10  1520    53835   55200      0    1.52e+00    0    1.08e+00
2006 04 10  1525    53835   55500      0    1.53e+00    0    1.08e+00
2006 04 10  1530    53835   55800      0    1.54e+00    0    1.07e+00
2006 04 10  1535    53835   56100      0    1.53e+00    0    1.08e+00
2006 04 10  1540    53835   56400      0    1.52e+00    0    1.07e+00
2006 04 10  1545    53835   56700      0    1.53e+00    0    1.07e+00
2006 04 10  1550    53835   57000      0    1.52e+00    0    1.06e+00
2006 04 10  1555    53835   57300      0    1.53e+00    0    1.08e+00
2006 04 10  1600    53835   57600      0    1.53e+00    0    1.08e+00
2006 04 10  1605    53835   57900      0    1.53e+00    0    1.07e+00
2006 04 10  1610    53835   58200      0    1.52e+00    0    1.07e+00
2006 04 10  1615    53835   58500      0    1.53e+00    0    1.06e+00
2006 04 10  1620    53835   58800      0    1.52e+00    0    1.07e+00
2006 04 10  1625    53835   59100      0    1.54e+00    0    1.09e+00
2006 04 10  1630    53835   59400      0    1.53e+00    0    1.07e+00
2006 04 10  1635    53835   59700      0    1.54e+00    0    1.07e+00
2006 04 10  1640    53835   60000      0    1.52e+00    0    1.06e+00
2006 04 10  1645    53835   60300      0    1.55e+00    0    1.09e+00
2006 04 10  1650    53835   60600      0    1.50e+00    0    1.06e+00
2006 04 10  1655    53835   60900      0    1.53e+00    0    1.08e+00
2006 04 10  1700    53835   61200      0    1.53e+00    0    1.08e+00
2006 04 10  1705    53835   61500      0    1.53e+00    0    1.08e+00
2006 04 10  1710    53835   61800      0    1.53e+00    0    1.08e+00
2006 04 10  1715    53835   62100      0    1.52e+00    0    1.07e+00
2006 04 10  1720    53835   62400      0    1.54e+00    0    1.08e+00
2006 04 10  1725    53835   62700      0    1.52e+00    0    1.06e+00
2006 04 10  1730    53835   63000      0    1.50e+00    0    1.05e+00
2006 04 10  1735    53835   63300      0    1.53e+00    0    1.08e+00
2006 04 10  1740    53835   63600      0    1.53e+00    0    1.07e+00
2006 04 10  1745    53835   63900      0    1.53e+00    0    1.07e+00
2006 04 10  1750    53835   64200      0    1.52e+00    0    1.06e+00
2006 04 10  1755    53835   64500      0    1.53e+00    0    1.07e+00
2006 04 10  1800    53835   64800      0    1.52e+00    0    1.06e+00
2006 04 10  1805    53835   65100      0    1.49e+00    0    1.06e+00
2006 04 10  1810    53835   65400      0    1.50e+00    0    1.04e+00
2006 04 10  1815    53835   65700      0    1.53e+00    0    1.08e+00
2006 04 10  1820    53835   66000      0    1.51e+00    0    1.06e+00
2006 04 10  1825    53835   66300      0    1.50e+00    0    1.04e+00
2006 04 10  1830    53835   66600      0    1.53e+00    0    1.08e+00
2006 04 10  1835    53835   66900      0    1.52e+00    0    1.07e+00
2006 04 10  1840    53835   67200      0    1.52e+00    0    1.06e+00
2006 04 10  1845    53835   67500      0    1.51e+00    0    1.05e+00
2006 04 10  1850    53835   67800      0    1.53e+00    0    1.07e+00
2006 04 10  1855    53835   68100      0    1.53e+00    0    1.07e+00
2006 04 10  1900    53835   68400      0    1.52e+00    0    1.06e+00
2006 04 10  1905    53835   68700      0    1.52e+00    0    1.07e+00
2006 04 10  1910    53835   69000      0    1.54e+00    0    1.08e+00
2006 04 10  1915    53835   69300      0    1.54e+00    0    1.08e+00
2006 04 10  1920    53835   69600      0    1.53e+00    0    1.07e+00
2006 04 10  1925    53835   69900      0    1.53e+00    0    1.09e+00
2006 04 10  1930    53835   70200      0    1.52e+00    0    1.07e+00
2006 04 10  1935    53835   70500      0    1.48e+00    0    1.03e+00
2006 04 10  1940    53835   70800      0    1.49e+00    0    1.06e+00
2006 04 10  1945    53835   71100      0    1.53e+00    0    1.07e+00
2006 04 10  1950    53835   71400      0    1.52e+00    0    1.07e+00
2006 04 10  1955    53835   71700      0    1.55e+00    0    1.09e+00
2006 04 10  2000    53835   72000      0    1.52e+00    0    1.07e+00
2006 04 10  2005    53835   72300      0    1.53e+00    0    1.07e+00
2006 04 10  2010    53835   72600      0    1.50e+00    0    1.05e+00
2006 04 10  2015    53835   72900      0    1.55e+00    0    1.09e+00
2006 04 10  2020    53835   73200      0    1.55e+00    0    1.09e+00
2006 04 10  2025    53835   73500      0    1.51e+00    0    1.06e+00
2006 04 10  2030    53835   73800      0    1.50e+00    0    1.04e+00
2006 04 10  2035    53835   74100      0    1.53e+00    0    1.07e+00
2006 04 10  2040    53835   74400      0    1.53e+00    0    1.06e+00
2006 04 10  2045    53835   74700      0    1.51e+00    0    1.06e+00
2006 04 10  2050    53835   75000      0    1.55e+00    0    1.09e+00
2006 04 10  2055    53835   75300      0    1.49e+00    0    1.04e+00
2006 04 10  2100    53835   75600      0    1.54e+00    0    1.08e+00
2006 04 10  2105    53835   75900      0    1.53e+00    0    1.08e+00
2006 04 10  2110    53835   76200      0    1.51e+00    0    1.04e+00
2006 04 10  2115    53835   76500      0    1.53e+00    0    1.06e+00
2006 04 10  2120    53835   76800      0    1.51e+00    0    1.07e+00
2006 04 10  2125    53835   77100      0    1.54e+00    0    1.08e+00
2006 04 10  2130    53835   77400      0    1.51e+00    0    1.06e+00
2006 04 10  2135    53835   77700      0    1.54e+00    0    1.08e+00
2006 04 10  2140    53835   78000      0    1.53e+00    0    1.06e+00
2006 04 10  2145    53835   78300      0    1.51e+00    0    1.06e+00
2006 04 10  2150    53835   78600      0    1.54e+00    0    1.08e+00
2006 04 10  2155    53835   78900      0    1.54e+00    0    1.08e+00
2006 04 10  2200    53835   79200      0    1.51e+00    0    1.06e+00
2006 04 10  2205    53835   79500      0    1.53e+00    0    1.07e+00
2006 04 10  2210    53835   79800      0    1.54e+00    0    1.08e+00
2006 04 10  2215    53835   80100      0    1.51e+00    0    1.05e+00
2006 04 10  2220    53835   80400      0    1.51e+00    0    1.06e+00
2006 04 10  2225    53835   80700      0    1.48e+00    0    1.04e+00
2006 04 10  2230    53835   81000      0    1.54e+00    0    1.08e+00
2006 04 10  2235    53835   81300      0    1.53e+00    0    1.08e+00
2006 04 10  2240    53835   81600      0    1.51e+00    0    1.05e+00
2006 04 10  2245    53835   81900      0    1.54e+00    0    1.07e+00
2006 04 10  2250    53835   82200      0    1.55e+00    0    1.09e+00
2006 04 10  2255    53835   82500      0    1.51e+00    0    1.06e+00
2006 04 10  2300    53835   82800      0    1.52e+00    0    1.07e+00
2006 04 10  2305    53835   83100      0    1.51e+00    0    1.06e+00
2006 04 10  2310    53835   83400      0    1.53e+00    0    1.07e+00
2006 04 10  2315    53835   83700      0    1.51e+00    0    1.06e+00
2006 04 10  2320    53835   84000      0    1.48e+00    0    1.04e+00
2006 04 10  2325    53835   84300      0    1.50e+00    0    1.05e+00
2006 04 10  2330    53835   84600      0    1.53e+00    0    1.08e+00
2006 04 10  2335    53835   84900      0    1.53e+00    0    1.08e+00
2006 04 10  2340    53835   85200      0    1.52e+00    0    1.06e+00
2006 04 10  2345    53835   85500      0    1.55e+00    0    1.09e+00
2006 04 10  2350    53835   85800      0    1.54e+00    0    1.08e+00
2006 04 10  2355    53835   86100      0    1.53e+00    0    1.08e+00
