:Data_list: 20060516_ace_sis_5m.txt
:Created: 2006 May 17 0011 UT
# Prepared by the U.S. Dept. of Commerce, NOAA, Space Environment Center.
# Please send comments and suggestions to SEC.Webmaster@noaa.gov 
# 
# Units: proton flux p/cs2-sec-ster
# Status(S): 0 = nominal data, 1 to 8 = bad data record, 9 = no data
# Missing data values: -1.00e+05
# Source: ACE Satellite - Solar Isotope Spectrometer
#
# 5-minute averaged Real-time Integral Flux of High-energy Solar Protons
# 
#                 Modified Seconds
# UT Date   Time   Julian  of the      ---- Integral Proton Flux ----
# YR MO DA  HHMM     Day     Day       S    > 10 MeV    S    > 30 MeV
#--------------------------------------------------------------------
2006 05 16  0000    53871       0      0    1.59e+00    0    1.11e+00
2006 05 16  0005    53871     300      0    1.58e+00    0    1.12e+00
2006 05 16  0010    53871     600      0    1.57e+00    0    1.10e+00
2006 05 16  0015    53871     900      0    1.57e+00    0    1.10e+00
2006 05 16  0020    53871    1200      0    1.58e+00    0    1.10e+00
2006 05 16  0025    53871    1500      0    1.59e+00    0    1.12e+00
2006 05 16  0030    53871    1800      0    1.62e+00    0    1.14e+00
2006 05 16  0035    53871    2100      0    1.60e+00    0    1.10e+00
2006 05 16  0040    53871    2400      0    1.56e+00    0    1.09e+00
2006 05 16  0045    53871    2700      0    1.59e+00    0    1.10e+00
2006 05 16  0050    53871    3000      0    1.56e+00    0    1.09e+00
2006 05 16  0055    53871    3300      0    1.60e+00    0    1.10e+00
2006 05 16  0100    53871    3600      0    1.62e+00    0    1.14e+00
2006 05 16  0105    53871    3900      0    1.58e+00    0    1.11e+00
2006 05 16  0110    53871    4200      0    1.59e+00    0    1.12e+00
2006 05 16  0115    53871    4500      0    1.59e+00    0    1.12e+00
2006 05 16  0120    53871    4800      0    1.60e+00    0    1.12e+00
2006 05 16  0125    53871    5100      0    1.59e+00    0    1.12e+00
2006 05 16  0130    53871    5400      0    1.61e+00    0    1.14e+00
2006 05 16  0135    53871    5700      0    1.56e+00    0    1.10e+00
2006 05 16  0140    53871    6000      0    1.58e+00    0    1.11e+00
2006 05 16  0145    53871    6300      0    1.59e+00    0    1.12e+00
2006 05 16  0150    53871    6600      0    1.56e+00    0    1.10e+00
2006 05 16  0155    53871    6900      0    1.58e+00    0    1.11e+00
2006 05 16  0200    53871    7200      0    1.60e+00    0    1.12e+00
2006 05 16  0205    53871    7500      0    1.58e+00    0    1.11e+00
2006 05 16  0210    53871    7800      0    1.60e+00    0    1.11e+00
2006 05 16  0215    53871    8100      0    1.57e+00    0    1.11e+00
2006 05 16  0220    53871    8400      0    1.57e+00    0    1.10e+00
2006 05 16  0225    53871    8700      0    1.60e+00    0    1.12e+00
2006 05 16  0230    53871    9000      0    1.62e+00    0    1.14e+00
2006 05 16  0235    53871    9300      0    1.56e+00    0    1.10e+00
2006 05 16  0240    53871    9600      0    1.63e+00    0    1.14e+00
2006 05 16  0245    53871    9900      0    1.58e+00    0    1.11e+00
2006 05 16  0250    53871   10200      0    1.57e+00    0    1.11e+00
2006 05 16  0255    53871   10500      0    1.56e+00    0    1.09e+00
2006 05 16  0300    53871   10800      0    1.58e+00    0    1.11e+00
2006 05 16  0305    53871   11100      0    1.60e+00    0    1.12e+00
2006 05 16  0310    53871   11400      0    1.58e+00    0    1.10e+00
2006 05 16  0315    53871   11700      0    1.56e+00    0    1.09e+00
2006 05 16  0320    53871   12000      0    1.56e+00    0    1.10e+00
2006 05 16  0325    53871   12300      0    1.60e+00    0    1.13e+00
2006 05 16  0330    53871   12600      0    1.55e+00    0    1.09e+00
2006 05 16  0335    53871   12900      0    1.56e+00    0    1.09e+00
2006 05 16  0340    53871   13200      0    1.60e+00    0    1.12e+00
2006 05 16  0345    53871   13500      0    1.54e+00    0    1.07e+00
2006 05 16  0350    53871   13800      0    1.56e+00    0    1.09e+00
2006 05 16  0355    53871   14100      0    1.55e+00    0    1.08e+00
2006 05 16  0400    53871   14400      0    1.60e+00    0    1.11e+00
2006 05 16  0405    53871   14700      0    1.58e+00    0    1.11e+00
2006 05 16  0410    53871   15000      0    1.58e+00    0    1.11e+00
2006 05 16  0415    53871   15300      0    1.56e+00    0    1.08e+00
2006 05 16  0420    53871   15600      0    1.57e+00    0    1.09e+00
2006 05 16  0425    53871   15900      0    1.60e+00    0    1.11e+00
2006 05 16  0430    53871   16200      0    1.59e+00    0    1.12e+00
2006 05 16  0435    53871   16500      0    1.58e+00    0    1.11e+00
2006 05 16  0440    53871   16800      0    1.57e+00    0    1.10e+00
2006 05 16  0445    53871   17100      0    1.58e+00    0    1.10e+00
2006 05 16  0450    53871   17400      0    1.57e+00    0    1.10e+00
2006 05 16  0455    53871   17700      0    1.56e+00    0    1.11e+00
2006 05 16  0500    53871   18000      0    1.59e+00    0    1.11e+00
2006 05 16  0505    53871   18300      0    1.58e+00    0    1.11e+00
2006 05 16  0510    53871   18600      0    1.59e+00    0    1.12e+00
2006 05 16  0515    53871   18900      0    1.57e+00    0    1.10e+00
2006 05 16  0520    53871   19200      0    1.60e+00    0    1.10e+00
2006 05 16  0525    53871   19500      0    1.57e+00    0    1.10e+00
2006 05 16  0530    53871   19800      0    1.59e+00    0    1.12e+00
2006 05 16  0535    53871   20100      0    1.58e+00    0    1.10e+00
2006 05 16  0540    53871   20400      0    1.59e+00    0    1.11e+00
2006 05 16  0545    53871   20700      0    1.61e+00    0    1.13e+00
2006 05 16  0550    53871   21000      0    1.56e+00    0    1.10e+00
2006 05 16  0555    53871   21300      0    1.58e+00    0    1.12e+00
2006 05 16  0600    53871   21600      0    1.59e+00    0    1.12e+00
2006 05 16  0605    53871   21900      0    1.62e+00    0    1.14e+00
2006 05 16  0610    53871   22200      0    1.62e+00    0    1.13e+00
2006 05 16  0615    53871   22500      0    1.59e+00    0    1.12e+00
2006 05 16  0620    53871   22800      0    1.57e+00    0    1.09e+00
2006 05 16  0625    53871   23100      0    1.55e+00    0    1.09e+00
2006 05 16  0630    53871   23400      0    1.58e+00    0    1.10e+00
2006 05 16  0635    53871   23700      0    1.60e+00    0    1.13e+00
2006 05 16  0640    53871   24000      0    1.55e+00    0    1.09e+00
2006 05 16  0645    53871   24300      0    1.54e+00    0    1.07e+00
2006 05 16  0650    53871   24600      0    1.60e+00    0    1.12e+00
2006 05 16  0655    53871   24900      0    1.59e+00    0    1.11e+00
2006 05 16  0700    53871   25200      0    1.58e+00    0    1.11e+00
2006 05 16  0705    53871   25500      0    1.58e+00    0    1.12e+00
2006 05 16  0710    53871   25800      0    1.58e+00    0    1.11e+00
2006 05 16  0715    53871   26100      0    1.59e+00    0    1.10e+00
2006 05 16  0720    53871   26400      0    1.59e+00    0    1.12e+00
2006 05 16  0725    53871   26700      0    1.59e+00    0    1.11e+00
2006 05 16  0730    53871   27000      0    1.56e+00    0    1.11e+00
2006 05 16  0735    53871   27300      0    1.62e+00    0    1.13e+00
2006 05 16  0740    53871   27600      0    1.57e+00    0    1.09e+00
2006 05 16  0745    53871   27900      0    1.57e+00    0    1.10e+00
2006 05 16  0750    53871   28200      0    1.60e+00    0    1.12e+00
2006 05 16  0755    53871   28500      0    1.58e+00    0    1.11e+00
2006 05 16  0800    53871   28800      0    1.63e+00    0    1.14e+00
2006 05 16  0805    53871   29100      0    1.59e+00    0    1.11e+00
2006 05 16  0810    53871   29400      0    1.59e+00    0    1.10e+00
2006 05 16  0815    53871   29700      0    1.58e+00    0    1.11e+00
2006 05 16  0820    53871   30000      0    1.61e+00    0    1.12e+00
2006 05 16  0825    53871   30300      0    1.59e+00    0    1.10e+00
2006 05 16  0830    53871   30600      0    1.59e+00    0    1.12e+00
2006 05 16  0835    53871   30900      0    1.61e+00    0    1.12e+00
2006 05 16  0840    53871   31200      0    1.58e+00    0    1.09e+00
2006 05 16  0845    53871   31500      0    1.58e+00    0    1.12e+00
2006 05 16  0850    53871   31800      0    1.59e+00    0    1.12e+00
2006 05 16  0855    53871   32100      0    1.61e+00    0    1.13e+00
2006 05 16  0900    53871   32400      0    1.57e+00    0    1.10e+00
2006 05 16  0905    53871   32700      0    1.56e+00    0    1.10e+00
2006 05 16  0910    53871   33000      0    1.60e+00    0    1.12e+00
2006 05 16  0915    53871   33300      0    1.59e+00    0    1.11e+00
2006 05 16  0920    53871   33600      0    1.60e+00    0    1.12e+00
2006 05 16  0925    53871   33900      0    1.58e+00    0    1.10e+00
2006 05 16  0930    53871   34200      0    1.62e+00    0    1.13e+00
2006 05 16  0935    53871   34500      0    1.61e+00    0    1.13e+00
2006 05 16  0940    53871   34800      0    1.60e+00    0    1.13e+00
2006 05 16  0945    53871   35100      0    1.61e+00    0    1.12e+00
2006 05 16  0950    53871   35400      0    1.59e+00    0    1.11e+00
2006 05 16  0955    53871   35700      0    1.64e+00    0    1.14e+00
2006 05 16  1000    53871   36000      0    1.58e+00    0    1.11e+00
2006 05 16  1005    53871   36300      0    1.59e+00    0    1.12e+00
2006 05 16  1010    53871   36600      0    1.59e+00    0    1.10e+00
2006 05 16  1015    53871   36900      0    1.59e+00    0    1.12e+00
2006 05 16  1020    53871   37200      0    1.58e+00    0    1.10e+00
2006 05 16  1025    53871   37500      0    1.55e+00    0    1.08e+00
2006 05 16  1030    53871   37800      0    1.58e+00    0    1.11e+00
2006 05 16  1035    53871   38100      0    1.56e+00    0    1.09e+00
2006 05 16  1040    53871   38400      0    1.59e+00    0    1.12e+00
2006 05 16  1045    53871   38700      0    1.62e+00    0    1.13e+00
2006 05 16  1050    53871   39000      0    1.58e+00    0    1.11e+00
2006 05 16  1055    53871   39300      0    1.60e+00    0    1.12e+00
2006 05 16  1100    53871   39600      0    1.59e+00    0    1.11e+00
2006 05 16  1105    53871   39900      0    1.60e+00    0    1.12e+00
2006 05 16  1110    53871   40200      0    1.60e+00    0    1.12e+00
2006 05 16  1115    53871   40500      0    1.59e+00    0    1.12e+00
2006 05 16  1120    53871   40800      0    1.58e+00    0    1.10e+00
2006 05 16  1125    53871   41100      0    1.56e+00    0    1.09e+00
2006 05 16  1130    53871   41400      0    1.57e+00    0    1.09e+00
2006 05 16  1135    53871   41700      0    1.58e+00    0    1.10e+00
2006 05 16  1140    53871   42000      0    1.60e+00    0    1.12e+00
2006 05 16  1145    53871   42300      0    1.57e+00    0    1.09e+00
2006 05 16  1150    53871   42600      0    1.62e+00    0    1.13e+00
2006 05 16  1155    53871   42900      0    1.63e+00    0    1.13e+00
2006 05 16  1200    53871   43200      0    1.60e+00    0    1.12e+00
2006 05 16  1205    53871   43500      0    1.60e+00    0    1.13e+00
2006 05 16  1210    53871   43800      0    1.62e+00    0    1.13e+00
2006 05 16  1215    53871   44100      0    1.64e+00    0    1.15e+00
2006 05 16  1220    53871   44400      0    1.60e+00    0    1.12e+00
2006 05 16  1225    53871   44700      0    1.59e+00    0    1.13e+00
2006 05 16  1230    53871   45000      0    1.64e+00    0    1.14e+00
2006 05 16  1235    53871   45300      0    1.60e+00    0    1.13e+00
2006 05 16  1240    53871   45600      0    1.60e+00    0    1.11e+00
2006 05 16  1245    53871   45900      0    1.62e+00    0    1.13e+00
2006 05 16  1250    53871   46200      0    1.59e+00    0    1.12e+00
2006 05 16  1255    53871   46500      0    1.62e+00    0    1.14e+00
2006 05 16  1300    53871   46800      0    1.63e+00    0    1.14e+00
2006 05 16  1305    53871   47100      0    1.59e+00    0    1.13e+00
2006 05 16  1310    53871   47400      0    1.60e+00    0    1.13e+00
2006 05 16  1315    53871   47700      0    1.58e+00    0    1.11e+00
2006 05 16  1320    53871   48000      0    1.61e+00    0    1.13e+00
2006 05 16  1325    53871   48300      0    1.61e+00    0    1.11e+00
2006 05 16  1330    53871   48600      0    1.65e+00    0    1.15e+00
2006 05 16  1335    53871   48900      0    1.61e+00    0    1.13e+00
2006 05 16  1340    53871   49200      0    1.59e+00    0    1.11e+00
2006 05 16  1345    53871   49500      0    1.60e+00    0    1.12e+00
2006 05 16  1350    53871   49800      0    1.63e+00    0    1.15e+00
2006 05 16  1355    53871   50100      0    1.58e+00    0    1.10e+00
2006 05 16  1400    53871   50400      0    1.56e+00    0    1.10e+00
2006 05 16  1405    53871   50700      0    1.59e+00    0    1.12e+00
2006 05 16  1410    53871   51000      0    1.58e+00    0    1.11e+00
2006 05 16  1415    53871   51300      0    1.59e+00    0    1.11e+00
2006 05 16  1420    53871   51600      0    1.58e+00    0    1.11e+00
2006 05 16  1425    53871   51900      0    1.60e+00    0    1.12e+00
2006 05 16  1430    53871   52200      0    1.64e+00    0    1.15e+00
2006 05 16  1435    53871   52500      0    1.62e+00    0    1.14e+00
2006 05 16  1440    53871   52800      0    1.60e+00    0    1.12e+00
2006 05 16  1445    53871   53100      0    1.64e+00    0    1.14e+00
2006 05 16  1450    53871   53400      0    1.60e+00    0    1.14e+00
2006 05 16  1455    53871   53700      0    1.60e+00    0    1.12e+00
2006 05 16  1500    53871   54000      0    1.58e+00    0    1.10e+00
2006 05 16  1505    53871   54300      0    1.59e+00    0    1.10e+00
2006 05 16  1510    53871   54600      0    1.59e+00    0    1.12e+00
2006 05 16  1515    53871   54900      0    1.59e+00    0    1.11e+00
2006 05 16  1520    53871   55200      0    1.56e+00    0    1.08e+00
2006 05 16  1525    53871   55500      0    1.63e+00    0    1.14e+00
2006 05 16  1530    53871   55800      0    1.61e+00    0    1.12e+00
2006 05 16  1535    53871   56100      0    1.62e+00    0    1.13e+00
2006 05 16  1540    53871   56400      0    1.60e+00    0    1.12e+00
2006 05 16  1545    53871   56700      0    1.58e+00    0    1.11e+00
2006 05 16  1550    53871   57000      0    1.60e+00    0    1.13e+00
2006 05 16  1555    53871   57300      0    1.60e+00    0    1.12e+00
2006 05 16  1600    53871   57600      0    1.61e+00    0    1.13e+00
2006 05 16  1605    53871   57900      0    1.60e+00    0    1.13e+00
2006 05 16  1610    53871   58200      0    1.59e+00    0    1.11e+00
2006 05 16  1615    53871   58500      0    1.61e+00    0    1.14e+00
2006 05 16  1620    53871   58800      0    1.63e+00    0    1.14e+00
2006 05 16  1625    53871   59100      0    1.62e+00    0    1.14e+00
2006 05 16  1630    53871   59400      0    1.59e+00    0    1.11e+00
2006 05 16  1635    53871   59700      0    1.62e+00    0    1.13e+00
2006 05 16  1640    53871   60000      0    1.58e+00    0    1.11e+00
2006 05 16  1645    53871   60300      0    1.59e+00    0    1.12e+00
2006 05 16  1650    53871   60600      0    1.62e+00    0    1.14e+00
2006 05 16  1655    53871   60900      0    1.61e+00    0    1.12e+00
2006 05 16  1700    53871   61200      0    1.63e+00    0    1.13e+00
2006 05 16  1705    53871   61500      0    1.59e+00    0    1.12e+00
2006 05 16  1710    53871   61800      0    1.54e+00    0    1.08e+00
2006 05 16  1715    53871   62100      0    1.61e+00    0    1.13e+00
2006 05 16  1720    53871   62400      0    1.57e+00    0    1.11e+00
2006 05 16  1725    53871   62700      0    1.61e+00    0    1.13e+00
2006 05 16  1730    53871   63000      0    1.60e+00    0    1.12e+00
2006 05 16  1735    53871   63300      0    1.58e+00    0    1.12e+00
2006 05 16  1740    53871   63600      0    1.61e+00    0    1.13e+00
2006 05 16  1745    53871   63900      0    1.59e+00    0    1.11e+00
2006 05 16  1750    53871   64200      0    1.55e+00    0    1.08e+00
2006 05 16  1755    53871   64500      0    1.60e+00    0    1.12e+00
2006 05 16  1800    53871   64800      0    1.60e+00    0    1.12e+00
2006 05 16  1805    53871   65100      0    1.62e+00    0    1.13e+00
2006 05 16  1810    53871   65400      0    1.58e+00    0    1.11e+00
2006 05 16  1815    53871   65700      0    1.56e+00    0    1.09e+00
2006 05 16  1820    53871   66000      0    1.60e+00    0    1.11e+00
2006 05 16  1825    53871   66300      0    1.59e+00    0    1.10e+00
2006 05 16  1830    53871   66600      0    1.58e+00    0    1.11e+00
2006 05 16  1835    53871   66900      0    1.59e+00    0    1.11e+00
2006 05 16  1840    53871   67200      0    1.59e+00    0    1.12e+00
2006 05 16  1845    53871   67500      0    1.61e+00    0    1.12e+00
2006 05 16  1850    53871   67800      0    1.57e+00    0    1.10e+00
2006 05 16  1855    53871   68100      0    1.59e+00    0    1.10e+00
2006 05 16  1900    53871   68400      0    1.58e+00    0    1.11e+00
2006 05 16  1905    53871   68700      0    1.60e+00    0    1.13e+00
2006 05 16  1910    53871   69000      0    1.58e+00    0    1.10e+00
2006 05 16  1915    53871   69300      0    1.58e+00    0    1.12e+00
2006 05 16  1920    53871   69600      0    1.60e+00    0    1.10e+00
2006 05 16  1925    53871   69900      0    1.60e+00    0    1.13e+00
2006 05 16  1930    53871   70200      0    1.59e+00    0    1.12e+00
2006 05 16  1935    53871   70500      0    1.58e+00    0    1.11e+00
2006 05 16  1940    53871   70800      0    1.56e+00    0    1.09e+00
2006 05 16  1945    53871   71100      0    1.63e+00    0    1.16e+00
2006 05 16  1950    53871   71400      0    1.62e+00    0    1.12e+00
2006 05 16  1955    53871   71700      0    1.64e+00    0    1.16e+00
2006 05 16  2000    53871   72000      0    1.59e+00    0    1.11e+00
2006 05 16  2005    53871   72300      0    1.58e+00    0    1.10e+00
2006 05 16  2010    53871   72600      0    1.62e+00    0    1.14e+00
2006 05 16  2015    53871   72900      0    1.59e+00    0    1.12e+00
2006 05 16  2020    53871   73200      0    1.58e+00    0    1.11e+00
2006 05 16  2025    53871   73500      0    1.58e+00    0    1.12e+00
2006 05 16  2030    53871   73800      0    1.60e+00    0    1.12e+00
2006 05 16  2035    53871   74100      0    1.58e+00    0    1.10e+00
2006 05 16  2040    53871   74400      0    1.59e+00    0    1.11e+00
2006 05 16  2045    53871   74700      0    1.59e+00    0    1.12e+00
2006 05 16  2050    53871   75000      0    1.61e+00    0    1.14e+00
2006 05 16  2055    53871   75300      0    1.57e+00    0    1.09e+00
2006 05 16  2100    53871   75600      0    1.62e+00    0    1.13e+00
2006 05 16  2105    53871   75900      0    1.61e+00    0    1.12e+00
2006 05 16  2110    53871   76200      0    1.58e+00    0    1.12e+00
2006 05 16  2115    53871   76500      0    1.56e+00    0    1.10e+00
2006 05 16  2120    53871   76800      0    1.61e+00    0    1.13e+00
2006 05 16  2125    53871   77100      0    1.59e+00    0    1.12e+00
2006 05 16  2130    53871   77400      0    1.55e+00    0    1.10e+00
2006 05 16  2135    53871   77700      0    1.57e+00    0    1.08e+00
2006 05 16  2140    53871   78000      0    1.61e+00    0    1.13e+00
2006 05 16  2145    53871   78300      0    1.58e+00    0    1.12e+00
2006 05 16  2150    53871   78600      0    1.60e+00    0    1.13e+00
2006 05 16  2155    53871   78900      0    1.60e+00    0    1.13e+00
2006 05 16  2200    53871   79200      0    1.58e+00    0    1.11e+00
2006 05 16  2205    53871   79500      0    1.61e+00    0    1.13e+00
2006 05 16  2210    53871   79800      0    1.63e+00    0    1.15e+00
2006 05 16  2215    53871   80100      0    1.60e+00    0    1.13e+00
2006 05 16  2220    53871   80400      0    1.63e+00    0    1.15e+00
2006 05 16  2225    53871   80700      0    1.61e+00    0    1.13e+00
2006 05 16  2230    53871   81000      0    1.58e+00    0    1.11e+00
2006 05 16  2235    53871   81300      0    1.56e+00    0    1.08e+00
2006 05 16  2240    53871   81600      0    1.61e+00    0    1.12e+00
2006 05 16  2245    53871   81900      0    1.59e+00    0    1.11e+00
2006 05 16  2250    53871   82200      0    1.58e+00    0    1.11e+00
2006 05 16  2255    53871   82500      0    1.58e+00    0    1.12e+00
2006 05 16  2300    53871   82800      0    1.62e+00    0    1.14e+00
2006 05 16  2305    53871   83100      0    1.60e+00    0    1.12e+00
2006 05 16  2310    53871   83400      0    1.60e+00    0    1.11e+00
2006 05 16  2315    53871   83700      0    1.58e+00    0    1.11e+00
2006 05 16  2320    53871   84000      0    1.61e+00    0    1.14e+00
2006 05 16  2325    53871   84300      0    1.57e+00    0    1.10e+00
2006 05 16  2330    53871   84600      0    1.58e+00    0    1.12e+00
2006 05 16  2335    53871   84900      0    1.60e+00    0    1.13e+00
2006 05 16  2340    53871   85200      0    1.58e+00    0    1.12e+00
2006 05 16  2345    53871   85500      0    1.65e+00    0    1.16e+00
2006 05 16  2350    53871   85800      0    1.61e+00    0    1.13e+00
2006 05 16  2355    53871   86100      0    1.60e+00    0    1.12e+00
