:Data_list: 20060828_ace_sis_5m.txt
:Created: 2006 Aug 29 0011 UT
# Prepared by the U.S. Dept. of Commerce, NOAA, Space Environment Center.
# Please send comments and suggestions to SEC.Webmaster@noaa.gov 
# 
# Units: proton flux p/cs2-sec-ster
# Status(S): 0 = nominal data, 1 to 8 = bad data record, 9 = no data
# Missing data values: -1.00e+05
# Source: ACE Satellite - Solar Isotope Spectrometer
#
# 5-minute averaged Real-time Integral Flux of High-energy Solar Protons
# 
#                 Modified Seconds
# UT Date   Time   Julian  of the      ---- Integral Proton Flux ----
# YR MO DA  HHMM     Day     Day       S    > 10 MeV    S    > 30 MeV
#--------------------------------------------------------------------
2006 08 28  0000    53975       0      0    1.66e+00    0    1.17e+00
2006 08 28  0005    53975     300      0    1.68e+00    0    1.17e+00
2006 08 28  0010    53975     600      0    1.63e+00    0    1.14e+00
2006 08 28  0015    53975     900      0    1.64e+00    0    1.15e+00
2006 08 28  0020    53975    1200      0    1.67e+00    0    1.17e+00
2006 08 28  0025    53975    1500      0    1.65e+00    0    1.15e+00
2006 08 28  0030    53975    1800      0    1.69e+00    0    1.18e+00
2006 08 28  0035    53975    2100      0    1.68e+00    0    1.18e+00
2006 08 28  0040    53975    2400      0    1.65e+00    0    1.16e+00
2006 08 28  0045    53975    2700      0    1.66e+00    0    1.16e+00
2006 08 28  0050    53975    3000      0    1.69e+00    0    1.19e+00
2006 08 28  0055    53975    3300      0    1.68e+00    0    1.18e+00
2006 08 28  0100    53975    3600      0    1.63e+00    0    1.14e+00
2006 08 28  0105    53975    3900      0    1.69e+00    0    1.18e+00
2006 08 28  0110    53975    4200      0    1.67e+00    0    1.17e+00
2006 08 28  0115    53975    4500      0    1.68e+00    0    1.17e+00
2006 08 28  0120    53975    4800      0    1.64e+00    0    1.14e+00
2006 08 28  0125    53975    5100      0    1.66e+00    0    1.16e+00
2006 08 28  0130    53975    5400      0    1.63e+00    0    1.15e+00
2006 08 28  0135    53975    5700      0    1.68e+00    0    1.17e+00
2006 08 28  0140    53975    6000      0    1.66e+00    0    1.16e+00
2006 08 28  0145    53975    6300      0    1.66e+00    0    1.16e+00
2006 08 28  0150    53975    6600      0    1.64e+00    0    1.15e+00
2006 08 28  0155    53975    6900      0    1.62e+00    0    1.12e+00
2006 08 28  0200    53975    7200      0    1.64e+00    0    1.16e+00
2006 08 28  0205    53975    7500      0    1.64e+00    0    1.15e+00
2006 08 28  0210    53975    7800      0    1.64e+00    0    1.14e+00
2006 08 28  0215    53975    8100      0    1.66e+00    0    1.16e+00
2006 08 28  0220    53975    8400      0    1.63e+00    0    1.14e+00
2006 08 28  0225    53975    8700      0    1.65e+00    0    1.16e+00
2006 08 28  0230    53975    9000      0    1.65e+00    0    1.15e+00
2006 08 28  0235    53975    9300      0    1.62e+00    0    1.13e+00
2006 08 28  0240    53975    9600      0    1.66e+00    0    1.15e+00
2006 08 28  0245    53975    9900      0    1.65e+00    0    1.15e+00
2006 08 28  0250    53975   10200      0    1.67e+00    0    1.17e+00
2006 08 28  0255    53975   10500      0    1.71e+00    0    1.19e+00
2006 08 28  0300    53975   10800      0    1.65e+00    0    1.15e+00
2006 08 28  0305    53975   11100      0    1.66e+00    0    1.17e+00
2006 08 28  0310    53975   11400      0    1.67e+00    0    1.18e+00
2006 08 28  0315    53975   11700      0    1.70e+00    0    1.18e+00
2006 08 28  0320    53975   12000      0    1.62e+00    0    1.13e+00
2006 08 28  0325    53975   12300      0    1.68e+00    0    1.17e+00
2006 08 28  0330    53975   12600      0    1.65e+00    0    1.15e+00
2006 08 28  0335    53975   12900      0    1.66e+00    0    1.15e+00
2006 08 28  0340    53975   13200      0    1.63e+00    0    1.14e+00
2006 08 28  0345    53975   13500      0    1.64e+00    0    1.15e+00
2006 08 28  0350    53975   13800      0    1.64e+00    0    1.14e+00
2006 08 28  0355    53975   14100      0    1.64e+00    0    1.16e+00
2006 08 28  0400    53975   14400      0    1.67e+00    0    1.17e+00
2006 08 28  0405    53975   14700      0    1.64e+00    0    1.14e+00
2006 08 28  0410    53975   15000      0    1.68e+00    0    1.18e+00
2006 08 28  0415    53975   15300      0    1.66e+00    0    1.17e+00
2006 08 28  0420    53975   15600      0    1.61e+00    0    1.12e+00
2006 08 28  0425    53975   15900      0    1.68e+00    0    1.18e+00
2006 08 28  0430    53975   16200      0    1.63e+00    0    1.15e+00
2006 08 28  0435    53975   16500      0    1.62e+00    0    1.14e+00
2006 08 28  0440    53975   16800      0    1.67e+00    0    1.17e+00
2006 08 28  0445    53975   17100      0    1.67e+00    0    1.17e+00
2006 08 28  0450    53975   17400      0    1.65e+00    0    1.16e+00
2006 08 28  0455    53975   17700      0    1.66e+00    0    1.17e+00
2006 08 28  0500    53975   18000      0    1.66e+00    0    1.17e+00
2006 08 28  0505    53975   18300      0    1.63e+00    0    1.13e+00
2006 08 28  0510    53975   18600      0    1.64e+00    0    1.15e+00
2006 08 28  0515    53975   18900      0    1.68e+00    0    1.17e+00
2006 08 28  0520    53975   19200      0    1.71e+00    0    1.21e+00
2006 08 28  0525    53975   19500      0    1.61e+00    0    1.13e+00
2006 08 28  0530    53975   19800      0    1.68e+00    0    1.19e+00
2006 08 28  0535    53975   20100      0    1.67e+00    0    1.18e+00
2006 08 28  0540    53975   20400      0    1.64e+00    0    1.14e+00
2006 08 28  0545    53975   20700      0    1.65e+00    0    1.16e+00
2006 08 28  0550    53975   21000      0    1.64e+00    0    1.15e+00
2006 08 28  0555    53975   21300      0    1.65e+00    0    1.15e+00
2006 08 28  0600    53975   21600      0    1.60e+00    0    1.12e+00
2006 08 28  0605    53975   21900      0    1.62e+00    0    1.13e+00
2006 08 28  0610    53975   22200      0    1.67e+00    0    1.17e+00
2006 08 28  0615    53975   22500      0    1.66e+00    0    1.17e+00
2006 08 28  0620    53975   22800      0    1.66e+00    0    1.16e+00
2006 08 28  0625    53975   23100      0    1.65e+00    0    1.15e+00
2006 08 28  0630    53975   23400      0    1.63e+00    0    1.15e+00
2006 08 28  0635    53975   23700      0    1.68e+00    0    1.18e+00
2006 08 28  0640    53975   24000      0    1.67e+00    0    1.17e+00
2006 08 28  0645    53975   24300      0    1.67e+00    0    1.18e+00
2006 08 28  0650    53975   24600      0    1.69e+00    0    1.19e+00
2006 08 28  0655    53975   24900      0    1.62e+00    0    1.12e+00
2006 08 28  0700    53975   25200      0    1.63e+00    0    1.15e+00
2006 08 28  0705    53975   25500      0    1.64e+00    0    1.15e+00
2006 08 28  0710    53975   25800      0    1.65e+00    0    1.16e+00
2006 08 28  0715    53975   26100      0    1.67e+00    0    1.19e+00
2006 08 28  0720    53975   26400      0    1.62e+00    0    1.14e+00
2006 08 28  0725    53975   26700      0    1.65e+00    0    1.16e+00
2006 08 28  0730    53975   27000      0    1.65e+00    0    1.15e+00
2006 08 28  0735    53975   27300      0    1.65e+00    0    1.16e+00
2006 08 28  0740    53975   27600      0    1.66e+00    0    1.16e+00
2006 08 28  0745    53975   27900      0    1.63e+00    0    1.13e+00
2006 08 28  0750    53975   28200      0    1.65e+00    0    1.15e+00
2006 08 28  0755    53975   28500      0    1.65e+00    0    1.15e+00
2006 08 28  0800    53975   28800      0    1.62e+00    0    1.14e+00
2006 08 28  0805    53975   29100      0    1.67e+00    0    1.17e+00
2006 08 28  0810    53975   29400      0    1.66e+00    0    1.17e+00
2006 08 28  0815    53975   29700      0    1.61e+00    0    1.13e+00
2006 08 28  0820    53975   30000      0    1.61e+00    0    1.12e+00
2006 08 28  0825    53975   30300      0    1.66e+00    0    1.16e+00
2006 08 28  0830    53975   30600      0    1.61e+00    0    1.14e+00
2006 08 28  0835    53975   30900      0    1.63e+00    0    1.14e+00
2006 08 28  0840    53975   31200      0    1.66e+00    0    1.16e+00
2006 08 28  0845    53975   31500      0    1.66e+00    0    1.17e+00
2006 08 28  0850    53975   31800      0    1.65e+00    0    1.15e+00
2006 08 28  0855    53975   32100      0    1.69e+00    0    1.19e+00
2006 08 28  0900    53975   32400      0    1.68e+00    0    1.16e+00
2006 08 28  0905    53975   32700      0    1.62e+00    0    1.13e+00
2006 08 28  0910    53975   33000      0    1.67e+00    0    1.17e+00
2006 08 28  0915    53975   33300      0    1.64e+00    0    1.14e+00
2006 08 28  0920    53975   33600      0    1.66e+00    0    1.16e+00
2006 08 28  0925    53975   33900      0    1.67e+00    0    1.17e+00
2006 08 28  0930    53975   34200      0    1.66e+00    0    1.17e+00
2006 08 28  0935    53975   34500      0    1.66e+00    0    1.16e+00
2006 08 28  0940    53975   34800      0    1.69e+00    0    1.17e+00
2006 08 28  0945    53975   35100      0    1.67e+00    0    1.18e+00
2006 08 28  0950    53975   35400      0    1.66e+00    0    1.15e+00
2006 08 28  0955    53975   35700      0    1.61e+00    0    1.14e+00
2006 08 28  1000    53975   36000      0    1.66e+00    0    1.16e+00
2006 08 28  1005    53975   36300      0    1.64e+00    0    1.15e+00
2006 08 28  1010    53975   36600      0    1.66e+00    0    1.16e+00
2006 08 28  1015    53975   36900      0    1.66e+00    0    1.17e+00
2006 08 28  1020    53975   37200      0    1.66e+00    0    1.16e+00
2006 08 28  1025    53975   37500      0    1.68e+00    0    1.17e+00
2006 08 28  1030    53975   37800      0    1.62e+00    0    1.15e+00
2006 08 28  1035    53975   38100      0    1.69e+00    0    1.19e+00
2006 08 28  1040    53975   38400      0    1.61e+00    0    1.14e+00
2006 08 28  1045    53975   38700      0    1.66e+00    0    1.17e+00
2006 08 28  1050    53975   39000      0    1.66e+00    0    1.17e+00
2006 08 28  1055    53975   39300      0    1.64e+00    0    1.15e+00
2006 08 28  1100    53975   39600      0    1.68e+00    0    1.18e+00
2006 08 28  1105    53975   39900      0    1.64e+00    0    1.15e+00
2006 08 28  1110    53975   40200      0    1.65e+00    0    1.15e+00
2006 08 28  1115    53975   40500      0    1.63e+00    0    1.13e+00
2006 08 28  1120    53975   40800      0    1.65e+00    0    1.16e+00
2006 08 28  1125    53975   41100      0    1.65e+00    0    1.16e+00
2006 08 28  1130    53975   41400      0    1.64e+00    0    1.15e+00
2006 08 28  1135    53975   41700      0    1.65e+00    0    1.14e+00
2006 08 28  1140    53975   42000      0    1.63e+00    0    1.13e+00
2006 08 28  1145    53975   42300      0    1.62e+00    0    1.13e+00
2006 08 28  1150    53975   42600      0    1.66e+00    0    1.17e+00
2006 08 28  1155    53975   42900      0    1.62e+00    0    1.13e+00
2006 08 28  1200    53975   43200      0    1.66e+00    0    1.16e+00
2006 08 28  1205    53975   43500      0    1.67e+00    0    1.17e+00
2006 08 28  1210    53975   43800      0    1.65e+00    0    1.17e+00
2006 08 28  1215    53975   44100      0    1.67e+00    0    1.17e+00
2006 08 28  1220    53975   44400      0    1.64e+00    0    1.16e+00
2006 08 28  1225    53975   44700      0    1.67e+00    0    1.16e+00
2006 08 28  1230    53975   45000      0    1.65e+00    0    1.15e+00
2006 08 28  1235    53975   45300      0    1.67e+00    0    1.16e+00
2006 08 28  1240    53975   45600      0    1.64e+00    0    1.14e+00
2006 08 28  1245    53975   45900      0    1.64e+00    0    1.14e+00
2006 08 28  1250    53975   46200      0    1.66e+00    0    1.16e+00
2006 08 28  1255    53975   46500      0    1.66e+00    0    1.17e+00
2006 08 28  1300    53975   46800      0    1.66e+00    0    1.16e+00
2006 08 28  1305    53975   47100      0    1.69e+00    0    1.19e+00
2006 08 28  1310    53975   47400      0    1.66e+00    0    1.16e+00
2006 08 28  1315    53975   47700      0    1.66e+00    0    1.17e+00
2006 08 28  1320    53975   48000      0    1.66e+00    0    1.17e+00
2006 08 28  1325    53975   48300      0    1.67e+00    0    1.17e+00
2006 08 28  1330    53975   48600      0    1.68e+00    0    1.18e+00
2006 08 28  1335    53975   48900      0    1.67e+00    0    1.16e+00
2006 08 28  1340    53975   49200      0    1.67e+00    0    1.17e+00
2006 08 28  1345    53975   49500      0    1.63e+00    0    1.15e+00
2006 08 28  1350    53975   49800      0    1.69e+00    0    1.18e+00
2006 08 28  1355    53975   50100      0    1.67e+00    0    1.17e+00
2006 08 28  1400    53975   50400      0    1.66e+00    0    1.17e+00
2006 08 28  1405    53975   50700      0    1.64e+00    0    1.13e+00
2006 08 28  1410    53975   51000      0    1.69e+00    0    1.20e+00
2006 08 28  1415    53975   51300      0    1.65e+00    0    1.15e+00
2006 08 28  1420    53975   51600      0    1.64e+00    0    1.14e+00
2006 08 28  1425    53975   51900      0    1.57e+00    0    1.08e+00
2006 08 28  1430    53975   52200      0    1.64e+00    0    1.14e+00
2006 08 28  1435    53975   52500      0    1.65e+00    0    1.16e+00
2006 08 28  1440    53975   52800      0    1.61e+00    0    1.13e+00
2006 08 28  1445    53975   53100      0    1.66e+00    0    1.15e+00
2006 08 28  1450    53975   53400      0    1.64e+00    0    1.15e+00
2006 08 28  1455    53975   53700      0    1.65e+00    0    1.14e+00
2006 08 28  1500    53975   54000      0    1.65e+00    0    1.16e+00
2006 08 28  1505    53975   54300      0    1.65e+00    0    1.15e+00
2006 08 28  1510    53975   54600      0    1.63e+00    0    1.15e+00
2006 08 28  1515    53975   54900      0    1.65e+00    0    1.16e+00
2006 08 28  1520    53975   55200      0    1.70e+00    0    1.19e+00
2006 08 28  1525    53975   55500      0    1.65e+00    0    1.17e+00
2006 08 28  1530    53975   55800      0    1.64e+00    0    1.13e+00
2006 08 28  1535    53975   56100      0    1.63e+00    0    1.14e+00
2006 08 28  1540    53975   56400      0    1.66e+00    0    1.17e+00
2006 08 28  1545    53975   56700      0    1.65e+00    0    1.16e+00
2006 08 28  1550    53975   57000      0    1.67e+00    0    1.18e+00
2006 08 28  1555    53975   57300      0    1.64e+00    0    1.15e+00
2006 08 28  1600    53975   57600      0    1.62e+00    0    1.15e+00
2006 08 28  1605    53975   57900      0    1.66e+00    0    1.16e+00
2006 08 28  1610    53975   58200      0    1.63e+00    0    1.14e+00
2006 08 28  1615    53975   58500      0    1.68e+00    0    1.17e+00
2006 08 28  1620    53975   58800      0    1.63e+00    0    1.14e+00
2006 08 28  1625    53975   59100      0    1.68e+00    0    1.19e+00
2006 08 28  1630    53975   59400      0    1.65e+00    0    1.17e+00
2006 08 28  1635    53975   59700      0    1.68e+00    0    1.17e+00
2006 08 28  1640    53975   60000      0    1.68e+00    0    1.18e+00
2006 08 28  1645    53975   60300      0    1.64e+00    0    1.14e+00
2006 08 28  1650    53975   60600      0    1.62e+00    0    1.14e+00
2006 08 28  1655    53975   60900      0    1.64e+00    0    1.14e+00
2006 08 28  1700    53975   61200      0    1.68e+00    0    1.18e+00
2006 08 28  1705    53975   61500      0    1.67e+00    0    1.17e+00
2006 08 28  1710    53975   61800      0    1.68e+00    0    1.17e+00
2006 08 28  1715    53975   62100      0    1.68e+00    0    1.18e+00
2006 08 28  1720    53975   62400      0    1.67e+00    0    1.18e+00
2006 08 28  1725    53975   62700      0    1.68e+00    0    1.18e+00
2006 08 28  1730    53975   63000      0    1.63e+00    0    1.13e+00
2006 08 28  1735    53975   63300      0    1.63e+00    0    1.14e+00
2006 08 28  1740    53975   63600      0    1.63e+00    0    1.15e+00
2006 08 28  1745    53975   63900      0    1.69e+00    0    1.20e+00
2006 08 28  1750    53975   64200      0    1.65e+00    0    1.15e+00
2006 08 28  1755    53975   64500      0    1.66e+00    0    1.16e+00
2006 08 28  1800    53975   64800      0    1.64e+00    0    1.14e+00
2006 08 28  1805    53975   65100      0    1.66e+00    0    1.15e+00
2006 08 28  1810    53975   65400      0    1.65e+00    0    1.15e+00
2006 08 28  1815    53975   65700      0    1.65e+00    0    1.15e+00
2006 08 28  1820    53975   66000      0    1.67e+00    0    1.19e+00
2006 08 28  1825    53975   66300      0    1.65e+00    0    1.16e+00
2006 08 28  1830    53975   66600      0    1.63e+00    0    1.14e+00
2006 08 28  1835    53975   66900      0    1.66e+00    0    1.15e+00
2006 08 28  1840    53975   67200      0    1.66e+00    0    1.16e+00
2006 08 28  1845    53975   67500      0    1.64e+00    0    1.15e+00
2006 08 28  1850    53975   67800      0    1.60e+00    0    1.14e+00
2006 08 28  1855    53975   68100      0    1.63e+00    0    1.14e+00
2006 08 28  1900    53975   68400      0    1.65e+00    0    1.14e+00
2006 08 28  1905    53975   68700      0    1.63e+00    0    1.15e+00
2006 08 28  1910    53975   69000      0    1.64e+00    0    1.16e+00
2006 08 28  1915    53975   69300      0    1.66e+00    0    1.16e+00
2006 08 28  1920    53975   69600      0    1.65e+00    0    1.17e+00
2006 08 28  1925    53975   69900      0    1.66e+00    0    1.16e+00
2006 08 28  1930    53975   70200      0    1.62e+00    0    1.12e+00
2006 08 28  1935    53975   70500      0    1.63e+00    0    1.14e+00
2006 08 28  1940    53975   70800      0    1.62e+00    0    1.14e+00
2006 08 28  1945    53975   71100      0    1.66e+00    0    1.16e+00
2006 08 28  1950    53975   71400      0    1.64e+00    0    1.15e+00
2006 08 28  1955    53975   71700      0    1.66e+00    0    1.15e+00
2006 08 28  2000    53975   72000      0    1.69e+00    0    1.19e+00
2006 08 28  2005    53975   72300      0    1.61e+00    0    1.14e+00
2006 08 28  2010    53975   72600      0    1.62e+00    0    1.13e+00
2006 08 28  2015    53975   72900      0    1.67e+00    0    1.18e+00
2006 08 28  2020    53975   73200      0    1.64e+00    0    1.16e+00
2006 08 28  2025    53975   73500      0    1.60e+00    0    1.11e+00
2006 08 28  2030    53975   73800      0    1.67e+00    0    1.17e+00
2006 08 28  2035    53975   74100      0    1.61e+00    0    1.13e+00
2006 08 28  2040    53975   74400      0    1.66e+00    0    1.16e+00
2006 08 28  2045    53975   74700      0    1.67e+00    0    1.18e+00
2006 08 28  2050    53975   75000      0    1.62e+00    0    1.13e+00
2006 08 28  2055    53975   75300      0    1.68e+00    0    1.17e+00
2006 08 28  2100    53975   75600      0    1.66e+00    0    1.15e+00
2006 08 28  2105    53975   75900      0    1.66e+00    0    1.15e+00
2006 08 28  2110    53975   76200      0    1.61e+00    0    1.11e+00
2006 08 28  2115    53975   76500      0    1.64e+00    0    1.15e+00
2006 08 28  2120    53975   76800      0    1.64e+00    0    1.15e+00
2006 08 28  2125    53975   77100      0    1.62e+00    0    1.13e+00
2006 08 28  2130    53975   77400      0    1.65e+00    0    1.15e+00
2006 08 28  2135    53975   77700      0    1.63e+00    0    1.15e+00
2006 08 28  2140    53975   78000      0    1.61e+00    0    1.14e+00
2006 08 28  2145    53975   78300      0    1.61e+00    0    1.12e+00
2006 08 28  2150    53975   78600      0    1.66e+00    0    1.16e+00
2006 08 28  2155    53975   78900      0    1.65e+00    0    1.15e+00
2006 08 28  2200    53975   79200      0    1.66e+00    0    1.17e+00
2006 08 28  2205    53975   79500      0    1.68e+00    0    1.18e+00
2006 08 28  2210    53975   79800      0    1.63e+00    0    1.13e+00
2006 08 28  2215    53975   80100      0    1.67e+00    0    1.17e+00
2006 08 28  2220    53975   80400      0    1.67e+00    0    1.17e+00
2006 08 28  2225    53975   80700      0    1.69e+00    0    1.18e+00
2006 08 28  2230    53975   81000      0    1.66e+00    0    1.16e+00
2006 08 28  2235    53975   81300      0    1.63e+00    0    1.14e+00
2006 08 28  2240    53975   81600      0    1.67e+00    0    1.17e+00
2006 08 28  2245    53975   81900      0    1.67e+00    0    1.17e+00
2006 08 28  2250    53975   82200      0    1.65e+00    0    1.16e+00
2006 08 28  2255    53975   82500      0    1.68e+00    0    1.19e+00
2006 08 28  2300    53975   82800      0    1.67e+00    0    1.17e+00
2006 08 28  2305    53975   83100      0    1.62e+00    0    1.14e+00
2006 08 28  2310    53975   83400      0    1.67e+00    0    1.18e+00
2006 08 28  2315    53975   83700      0    1.66e+00    0    1.17e+00
2006 08 28  2320    53975   84000      0    1.64e+00    0    1.15e+00
2006 08 28  2325    53975   84300      0    1.63e+00    0    1.16e+00
2006 08 28  2330    53975   84600      0    1.65e+00    0    1.15e+00
2006 08 28  2335    53975   84900      0    1.69e+00    0    1.19e+00
2006 08 28  2340    53975   85200      0    1.64e+00    0    1.14e+00
2006 08 28  2345    53975   85500      0    1.65e+00    0    1.17e+00
2006 08 28  2350    53975   85800      0    1.63e+00    0    1.14e+00
2006 08 28  2355    53975   86100      0    1.65e+00    0    1.16e+00
