:Data_list: 20060901_ace_sis_5m.txt
:Created: 2006 Sep 02 0011 UT
# Prepared by the U.S. Dept. of Commerce, NOAA, Space Environment Center.
# Please send comments and suggestions to SEC.Webmaster@noaa.gov 
# 
# Units: proton flux p/cs2-sec-ster
# Status(S): 0 = nominal data, 1 to 8 = bad data record, 9 = no data
# Missing data values: -1.00e+05
# Source: ACE Satellite - Solar Isotope Spectrometer
#
# 5-minute averaged Real-time Integral Flux of High-energy Solar Protons
# 
#                 Modified Seconds
# UT Date   Time   Julian  of the      ---- Integral Proton Flux ----
# YR MO DA  HHMM     Day     Day       S    > 10 MeV    S    > 30 MeV
#--------------------------------------------------------------------
2006 09 01  0000    53979       0      0    1.63e+00    0    1.15e+00
2006 09 01  0005    53979     300      0    1.62e+00    0    1.14e+00
2006 09 01  0010    53979     600      0    1.63e+00    0    1.14e+00
2006 09 01  0015    53979     900      0    1.59e+00    0    1.13e+00
2006 09 01  0020    53979    1200      0    1.62e+00    0    1.14e+00
2006 09 01  0025    53979    1500      0    1.63e+00    0    1.14e+00
2006 09 01  0030    53979    1800      0    1.61e+00    0    1.14e+00
2006 09 01  0035    53979    2100      0    1.65e+00    0    1.16e+00
2006 09 01  0040    53979    2400      0    1.59e+00    0    1.10e+00
2006 09 01  0045    53979    2700      0    1.60e+00    0    1.11e+00
2006 09 01  0050    53979    3000      0    1.65e+00    0    1.16e+00
2006 09 01  0055    53979    3300      0    1.63e+00    0    1.14e+00
2006 09 01  0100    53979    3600      0    1.58e+00    0    1.10e+00
2006 09 01  0105    53979    3900      0    1.59e+00    0    1.12e+00
2006 09 01  0110    53979    4200      0    1.60e+00    0    1.12e+00
2006 09 01  0115    53979    4500      0    1.61e+00    0    1.13e+00
2006 09 01  0120    53979    4800      0    1.61e+00    0    1.13e+00
2006 09 01  0125    53979    5100      0    1.62e+00    0    1.11e+00
2006 09 01  0130    53979    5400      0    1.62e+00    0    1.13e+00
2006 09 01  0135    53979    5700      0    1.60e+00    0    1.12e+00
2006 09 01  0140    53979    6000      0    1.62e+00    0    1.14e+00
2006 09 01  0145    53979    6300      0    1.60e+00    0    1.13e+00
2006 09 01  0150    53979    6600      0    1.65e+00    0    1.16e+00
2006 09 01  0155    53979    6900      0    1.65e+00    0    1.15e+00
2006 09 01  0200    53979    7200      0    1.60e+00    0    1.11e+00
2006 09 01  0205    53979    7500      0    1.62e+00    0    1.14e+00
2006 09 01  0210    53979    7800      0    1.63e+00    0    1.13e+00
2006 09 01  0215    53979    8100      0    1.63e+00    0    1.14e+00
2006 09 01  0220    53979    8400      0    1.59e+00    0    1.11e+00
2006 09 01  0225    53979    8700      0    1.60e+00    0    1.11e+00
2006 09 01  0230    53979    9000      0    1.63e+00    0    1.13e+00
2006 09 01  0235    53979    9300      0    1.60e+00    0    1.12e+00
2006 09 01  0240    53979    9600      0    1.60e+00    0    1.12e+00
2006 09 01  0245    53979    9900      0    1.64e+00    0    1.14e+00
2006 09 01  0250    53979   10200      0    1.52e+00    0    1.06e+00
2006 09 01  0255    53979   10500      0    1.60e+00    0    1.12e+00
2006 09 01  0300    53979   10800      0    1.65e+00    0    1.14e+00
2006 09 01  0305    53979   11100      0    1.60e+00    0    1.12e+00
2006 09 01  0310    53979   11400      0    1.65e+00    0    1.15e+00
2006 09 01  0315    53979   11700      0    1.65e+00    0    1.16e+00
2006 09 01  0320    53979   12000      0    1.62e+00    0    1.14e+00
2006 09 01  0325    53979   12300      0    1.65e+00    0    1.15e+00
2006 09 01  0330    53979   12600      0    1.61e+00    0    1.12e+00
2006 09 01  0335    53979   12900      0    1.61e+00    0    1.13e+00
2006 09 01  0340    53979   13200      0    1.57e+00    0    1.10e+00
2006 09 01  0345    53979   13500      0    1.68e+00    0    1.17e+00
2006 09 01  0350    53979   13800      0    1.60e+00    0    1.12e+00
2006 09 01  0355    53979   14100      0    1.60e+00    0    1.11e+00
2006 09 01  0400    53979   14400      0    1.61e+00    0    1.12e+00
2006 09 01  0405    53979   14700      0    1.61e+00    0    1.13e+00
2006 09 01  0410    53979   15000      0    1.61e+00    0    1.12e+00
2006 09 01  0415    53979   15300      0    1.64e+00    0    1.15e+00
2006 09 01  0420    53979   15600      0    1.57e+00    0    1.10e+00
2006 09 01  0425    53979   15900      0    1.60e+00    0    1.12e+00
2006 09 01  0430    53979   16200      0    1.60e+00    0    1.11e+00
2006 09 01  0435    53979   16500      0    1.58e+00    0    1.11e+00
2006 09 01  0440    53979   16800      0    1.61e+00    0    1.12e+00
2006 09 01  0445    53979   17100      0    1.60e+00    0    1.11e+00
2006 09 01  0450    53979   17400      0    1.60e+00    0    1.13e+00
2006 09 01  0455    53979   17700      0    1.60e+00    0    1.12e+00
2006 09 01  0500    53979   18000      0    1.60e+00    0    1.11e+00
2006 09 01  0505    53979   18300      0    1.58e+00    0    1.11e+00
2006 09 01  0510    53979   18600      0    1.61e+00    0    1.13e+00
2006 09 01  0515    53979   18900      0    1.61e+00    0    1.11e+00
2006 09 01  0520    53979   19200      0    1.59e+00    0    1.11e+00
2006 09 01  0525    53979   19500      0    1.62e+00    0    1.13e+00
2006 09 01  0530    53979   19800      0    1.61e+00    0    1.14e+00
2006 09 01  0535    53979   20100      0    1.67e+00    0    1.16e+00
2006 09 01  0540    53979   20400      0    1.63e+00    0    1.14e+00
2006 09 01  0545    53979   20700      0    1.59e+00    0    1.09e+00
2006 09 01  0550    53979   21000      0    1.60e+00    0    1.13e+00
2006 09 01  0555    53979   21300      0    1.61e+00    0    1.12e+00
2006 09 01  0600    53979   21600      0    1.61e+00    0    1.12e+00
2006 09 01  0605    53979   21900      0    1.63e+00    0    1.14e+00
2006 09 01  0610    53979   22200      0    1.58e+00    0    1.09e+00
2006 09 01  0615    53979   22500      0    1.57e+00    0    1.09e+00
2006 09 01  0620    53979   22800      0    1.63e+00    0    1.14e+00
2006 09 01  0625    53979   23100      0    1.57e+00    0    1.10e+00
2006 09 01  0630    53979   23400      0    1.58e+00    0    1.10e+00
2006 09 01  0635    53979   23700      0    1.61e+00    0    1.12e+00
2006 09 01  0640    53979   24000      0    1.60e+00    0    1.12e+00
2006 09 01  0645    53979   24300      0    1.57e+00    0    1.08e+00
2006 09 01  0650    53979   24600      0    1.63e+00    0    1.14e+00
2006 09 01  0655    53979   24900      0    1.63e+00    0    1.14e+00
2006 09 01  0700    53979   25200      0    1.59e+00    0    1.10e+00
2006 09 01  0705    53979   25500      0    1.65e+00    0    1.14e+00
2006 09 01  0710    53979   25800      0    1.64e+00    0    1.15e+00
2006 09 01  0715    53979   26100      0    1.61e+00    0    1.12e+00
2006 09 01  0720    53979   26400      0    1.59e+00    0    1.11e+00
2006 09 01  0725    53979   26700      0    1.60e+00    0    1.11e+00
2006 09 01  0730    53979   27000      0    1.61e+00    0    1.12e+00
2006 09 01  0735    53979   27300      0    1.61e+00    0    1.12e+00
2006 09 01  0740    53979   27600      0    1.66e+00    0    1.18e+00
2006 09 01  0745    53979   27900      0    1.63e+00    0    1.14e+00
2006 09 01  0750    53979   28200      0    1.63e+00    0    1.14e+00
2006 09 01  0755    53979   28500      0    1.61e+00    0    1.14e+00
2006 09 01  0800    53979   28800      0    1.62e+00    0    1.14e+00
2006 09 01  0805    53979   29100      0    1.61e+00    0    1.13e+00
2006 09 01  0810    53979   29400      0    1.60e+00    0    1.12e+00
2006 09 01  0815    53979   29700      0    1.64e+00    0    1.14e+00
2006 09 01  0820    53979   30000      0    1.63e+00    0    1.13e+00
2006 09 01  0825    53979   30300      0    1.60e+00    0    1.12e+00
2006 09 01  0830    53979   30600      0    1.64e+00    0    1.15e+00
2006 09 01  0835    53979   30900      0    1.63e+00    0    1.14e+00
2006 09 01  0840    53979   31200      0    1.60e+00    0    1.11e+00
2006 09 01  0845    53979   31500      0    1.56e+00    0    1.09e+00
2006 09 01  0850    53979   31800      0    1.62e+00    0    1.13e+00
2006 09 01  0855    53979   32100      0    1.59e+00    0    1.11e+00
2006 09 01  0900    53979   32400      0    1.62e+00    0    1.12e+00
2006 09 01  0905    53979   32700      0    1.63e+00    0    1.15e+00
2006 09 01  0910    53979   33000      0    1.63e+00    0    1.14e+00
2006 09 01  0915    53979   33300      0    1.64e+00    0    1.16e+00
2006 09 01  0920    53979   33600      0    1.61e+00    0    1.13e+00
2006 09 01  0925    53979   33900      0    1.65e+00    0    1.15e+00
2006 09 01  0930    53979   34200      0    1.65e+00    0    1.15e+00
2006 09 01  0935    53979   34500      0    1.62e+00    0    1.14e+00
2006 09 01  0940    53979   34800      0    1.60e+00    0    1.12e+00
2006 09 01  0945    53979   35100      0    1.59e+00    0    1.11e+00
2006 09 01  0950    53979   35400      0    1.65e+00    0    1.16e+00
2006 09 01  0955    53979   35700      0    1.60e+00    0    1.13e+00
2006 09 01  1000    53979   36000      0    1.63e+00    0    1.15e+00
2006 09 01  1005    53979   36300      0    1.63e+00    0    1.14e+00
2006 09 01  1010    53979   36600      0    1.64e+00    0    1.14e+00
2006 09 01  1015    53979   36900      0    1.65e+00    0    1.16e+00
2006 09 01  1020    53979   37200      0    1.60e+00    0    1.11e+00
2006 09 01  1025    53979   37500      0    1.61e+00    0    1.12e+00
2006 09 01  1030    53979   37800      0    1.62e+00    0    1.14e+00
2006 09 01  1035    53979   38100      0    1.58e+00    0    1.09e+00
2006 09 01  1040    53979   38400      0    1.63e+00    0    1.14e+00
2006 09 01  1045    53979   38700      0    1.56e+00    0    1.09e+00
2006 09 01  1050    53979   39000      0    1.60e+00    0    1.10e+00
2006 09 01  1055    53979   39300      0    1.67e+00    0    1.17e+00
2006 09 01  1100    53979   39600      0    1.61e+00    0    1.12e+00
2006 09 01  1105    53979   39900      0    1.61e+00    0    1.13e+00
2006 09 01  1110    53979   40200      0    1.59e+00    0    1.11e+00
2006 09 01  1115    53979   40500      0    1.64e+00    0    1.15e+00
2006 09 01  1120    53979   40800      0    1.64e+00    0    1.15e+00
2006 09 01  1125    53979   41100      0    1.60e+00    0    1.12e+00
2006 09 01  1130    53979   41400      0    1.62e+00    0    1.13e+00
2006 09 01  1135    53979   41700      0    1.62e+00    0    1.14e+00
2006 09 01  1140    53979   42000      0    1.62e+00    0    1.13e+00
2006 09 01  1145    53979   42300      0    1.63e+00    0    1.13e+00
2006 09 01  1150    53979   42600      0    1.62e+00    0    1.13e+00
2006 09 01  1155    53979   42900      0    1.61e+00    0    1.12e+00
2006 09 01  1200    53979   43200      0    1.62e+00    0    1.13e+00
2006 09 01  1205    53979   43500      0    1.62e+00    0    1.14e+00
2006 09 01  1210    53979   43800      0    1.66e+00    0    1.16e+00
2006 09 01  1215    53979   44100      0    1.66e+00    0    1.16e+00
2006 09 01  1220    53979   44400      0    1.66e+00    0    1.15e+00
2006 09 01  1225    53979   44700      0    1.61e+00    0    1.12e+00
2006 09 01  1230    53979   45000      0    1.64e+00    0    1.14e+00
2006 09 01  1235    53979   45300      0    1.66e+00    0    1.15e+00
2006 09 01  1240    53979   45600      0    1.65e+00    0    1.15e+00
2006 09 01  1245    53979   45900      0    1.63e+00    0    1.13e+00
2006 09 01  1250    53979   46200      0    1.63e+00    0    1.15e+00
2006 09 01  1255    53979   46500      0    1.63e+00    0    1.13e+00
2006 09 01  1300    53979   46800      0    1.68e+00    0    1.17e+00
2006 09 01  1305    53979   47100      0    1.60e+00    0    1.11e+00
2006 09 01  1310    53979   47400      0    1.64e+00    0    1.14e+00
2006 09 01  1315    53979   47700      0    1.63e+00    0    1.14e+00
2006 09 01  1320    53979   48000      0    1.63e+00    0    1.13e+00
2006 09 01  1325    53979   48300      0    1.20e+00    0    8.31e-01
2006 09 01  1330    53979   48600      0    1.54e+00    0    1.07e+00
2006 09 01  1335    53979   48900      0    1.63e+00    0    1.14e+00
2006 09 01  1340    53979   49200      0    1.62e+00    0    1.12e+00
2006 09 01  1345    53979   49500      0    1.62e+00    0    1.13e+00
2006 09 01  1350    53979   49800      0    1.61e+00    0    1.13e+00
2006 09 01  1355    53979   50100      0    1.59e+00    0    1.11e+00
2006 09 01  1400    53979   50400      0    1.63e+00    0    1.14e+00
2006 09 01  1405    53979   50700      0    1.59e+00    0    1.11e+00
2006 09 01  1410    53979   51000      0    1.62e+00    0    1.12e+00
2006 09 01  1415    53979   51300      0    1.60e+00    0    1.11e+00
2006 09 01  1420    53979   51600      0    1.62e+00    0    1.14e+00
2006 09 01  1425    53979   51900      0    1.65e+00    0    1.15e+00
2006 09 01  1430    53979   52200      0    1.64e+00    0    1.14e+00
2006 09 01  1435    53979   52500      0    1.62e+00    0    1.12e+00
2006 09 01  1440    53979   52800      0    1.53e+00    0    1.07e+00
2006 09 01  1445    53979   53100      0    1.61e+00    0    1.12e+00
2006 09 01  1450    53979   53400      0    1.63e+00    0    1.14e+00
2006 09 01  1455    53979   53700      0    1.65e+00    0    1.13e+00
2006 09 01  1500    53979   54000      0    1.62e+00    0    1.12e+00
2006 09 01  1505    53979   54300      0    1.63e+00    0    1.13e+00
2006 09 01  1510    53979   54600      0    1.60e+00    0    1.11e+00
2006 09 01  1515    53979   54900      0    1.62e+00    0    1.12e+00
2006 09 01  1520    53979   55200      0    1.64e+00    0    1.14e+00
2006 09 01  1525    53979   55500      0    1.65e+00    0    1.14e+00
2006 09 01  1530    53979   55800      0    1.63e+00    0    1.13e+00
2006 09 01  1535    53979   56100      0    1.66e+00    0    1.14e+00
2006 09 01  1540    53979   56400      0    1.66e+00    0    1.16e+00
2006 09 01  1545    53979   56700      0    1.62e+00    0    1.13e+00
2006 09 01  1550    53979   57000      0    1.63e+00    0    1.14e+00
2006 09 01  1555    53979   57300      0    1.61e+00    0    1.11e+00
2006 09 01  1600    53979   57600      0    1.60e+00    0    1.12e+00
2006 09 01  1605    53979   57900      0    1.62e+00    0    1.13e+00
2006 09 01  1610    53979   58200      0    1.62e+00    0    1.12e+00
2006 09 01  1615    53979   58500      0    1.61e+00    0    1.13e+00
2006 09 01  1620    53979   58800      0    1.65e+00    0    1.15e+00
2006 09 01  1625    53979   59100      0    1.65e+00    0    1.15e+00
2006 09 01  1630    53979   59400      0    1.66e+00    0    1.14e+00
2006 09 01  1635    53979   59700      0    1.64e+00    0    1.14e+00
2006 09 01  1640    53979   60000      0    1.61e+00    0    1.12e+00
2006 09 01  1645    53979   60300      0    1.65e+00    0    1.15e+00
2006 09 01  1650    53979   60600      0    1.61e+00    0    1.12e+00
2006 09 01  1655    53979   60900      0    1.62e+00    0    1.13e+00
2006 09 01  1700    53979   61200      0    1.63e+00    0    1.14e+00
2006 09 01  1705    53979   61500      0    1.64e+00    0    1.13e+00
2006 09 01  1710    53979   61800      0    1.61e+00    0    1.11e+00
2006 09 01  1715    53979   62100      0    1.61e+00    0    1.11e+00
2006 09 01  1720    53979   62400      0    1.60e+00    0    1.12e+00
2006 09 01  1725    53979   62700      0    1.60e+00    0    1.12e+00
2006 09 01  1730    53979   63000      0    1.71e+00    0    1.21e+00
2006 09 01  1735    53979   63300      0    1.63e+00    0    1.14e+00
2006 09 01  1740    53979   63600      0    1.60e+00    0    1.10e+00
2006 09 01  1745    53979   63900      0    1.59e+00    0    1.12e+00
2006 09 01  1750    53979   64200      0    1.61e+00    0    1.11e+00
2006 09 01  1755    53979   64500      0    1.63e+00    0    1.14e+00
2006 09 01  1800    53979   64800      0    1.62e+00    0    1.13e+00
2006 09 01  1805    53979   65100      0    1.60e+00    0    1.10e+00
2006 09 01  1810    53979   65400      0    1.59e+00    0    1.11e+00
2006 09 01  1815    53979   65700      0    1.61e+00    0    1.12e+00
2006 09 01  1820    53979   66000      0    1.57e+00    0    1.09e+00
2006 09 01  1825    53979   66300      0    1.60e+00    0    1.12e+00
2006 09 01  1830    53979   66600      0    1.64e+00    0    1.14e+00
2006 09 01  1835    53979   66900      0    1.66e+00    0    1.17e+00
2006 09 01  1840    53979   67200      0    1.63e+00    0    1.14e+00
2006 09 01  1845    53979   67500      0    1.62e+00    0    1.13e+00
2006 09 01  1850    53979   67800      0    1.64e+00    0    1.15e+00
2006 09 01  1855    53979   68100      0    1.64e+00    0    1.14e+00
2006 09 01  1900    53979   68400      0    1.61e+00    0    1.10e+00
2006 09 01  1905    53979   68700      0    1.60e+00    0    1.11e+00
2006 09 01  1910    53979   69000      0    1.62e+00    0    1.11e+00
2006 09 01  1915    53979   69300      0    1.67e+00    0    1.18e+00
2006 09 01  1920    53979   69600      0    1.58e+00    0    1.10e+00
2006 09 01  1925    53979   69900      0    1.66e+00    0    1.15e+00
2006 09 01  1930    53979   70200      0    1.60e+00    0    1.11e+00
2006 09 01  1935    53979   70500      0    1.58e+00    0    1.09e+00
2006 09 01  1940    53979   70800      0    1.63e+00    0    1.14e+00
2006 09 01  1945    53979   71100      0    1.62e+00    0    1.12e+00
2006 09 01  1950    53979   71400      0    1.62e+00    0    1.14e+00
2006 09 01  1955    53979   71700      0    1.59e+00    0    1.10e+00
2006 09 01  2000    53979   72000      0    1.60e+00    0    1.11e+00
2006 09 01  2005    53979   72300      0    1.61e+00    0    1.13e+00
2006 09 01  2010    53979   72600      0    1.61e+00    0    1.13e+00
2006 09 01  2015    53979   72900      0    1.62e+00    0    1.13e+00
2006 09 01  2020    53979   73200      0    1.61e+00    0    1.12e+00
2006 09 01  2025    53979   73500      0    1.60e+00    0    1.11e+00
2006 09 01  2030    53979   73800      0    1.61e+00    0    1.11e+00
2006 09 01  2035    53979   74100      0    1.62e+00    0    1.13e+00
2006 09 01  2040    53979   74400      0    1.60e+00    0    1.12e+00
2006 09 01  2045    53979   74700      0    1.58e+00    0    1.10e+00
2006 09 01  2050    53979   75000      0    1.61e+00    0    1.12e+00
2006 09 01  2055    53979   75300      0    1.59e+00    0    1.09e+00
2006 09 01  2100    53979   75600      0    1.59e+00    0    1.10e+00
2006 09 01  2105    53979   75900      0    1.62e+00    0    1.11e+00
2006 09 01  2110    53979   76200      0    1.59e+00    0    1.11e+00
2006 09 01  2115    53979   76500      0    1.58e+00    0    1.10e+00
2006 09 01  2120    53979   76800      0    1.60e+00    0    1.10e+00
2006 09 01  2125    53979   77100      0    1.66e+00    0    1.16e+00
2006 09 01  2130    53979   77400      0    1.60e+00    0    1.12e+00
2006 09 01  2135    53979   77700      0    1.59e+00    0    1.11e+00
2006 09 01  2140    53979   78000      0    1.58e+00    0    1.10e+00
2006 09 01  2145    53979   78300      0    1.62e+00    0    1.14e+00
2006 09 01  2150    53979   78600      0    1.60e+00    0    1.12e+00
2006 09 01  2155    53979   78900      0    1.62e+00    0    1.13e+00
2006 09 01  2200    53979   79200      0    1.60e+00    0    1.11e+00
2006 09 01  2205    53979   79500      0    1.58e+00    0    1.10e+00
2006 09 01  2210    53979   79800      0    1.60e+00    0    1.12e+00
2006 09 01  2215    53979   80100      0    1.62e+00    0    1.14e+00
2006 09 01  2220    53979   80400      0    1.62e+00    0    1.12e+00
2006 09 01  2225    53979   80700      0    1.61e+00    0    1.12e+00
2006 09 01  2230    53979   81000      0    1.61e+00    0    1.13e+00
2006 09 01  2235    53979   81300      0    1.64e+00    0    1.14e+00
2006 09 01  2240    53979   81600      0    1.65e+00    0    1.15e+00
2006 09 01  2245    53979   81900      0    1.59e+00    0    1.10e+00
2006 09 01  2250    53979   82200      0    1.62e+00    0    1.13e+00
2006 09 01  2255    53979   82500      0    1.64e+00    0    1.15e+00
2006 09 01  2300    53979   82800      0    1.61e+00    0    1.11e+00
2006 09 01  2305    53979   83100      0    1.61e+00    0    1.12e+00
2006 09 01  2310    53979   83400      0    1.58e+00    0    1.10e+00
2006 09 01  2315    53979   83700      0    1.61e+00    0    1.11e+00
2006 09 01  2320    53979   84000      0    1.60e+00    0    1.12e+00
2006 09 01  2325    53979   84300      0    1.58e+00    0    1.10e+00
2006 09 01  2330    53979   84600      0    1.61e+00    0    1.13e+00
2006 09 01  2335    53979   84900      0    1.61e+00    0    1.12e+00
2006 09 01  2340    53979   85200      0    1.59e+00    0    1.10e+00
2006 09 01  2345    53979   85500      0    1.60e+00    0    1.13e+00
2006 09 01  2350    53979   85800      0    1.56e+00    0    1.09e+00
2006 09 01  2355    53979   86100      0    1.56e+00    0    1.07e+00
