:Data_list: 20061209_ace_sis_5m.txt
:Created: 2006 Dec 10 0011 UT
# Prepared by the U.S. Dept. of Commerce, NOAA, Space Environment Center.
# Please send comments and suggestions to SEC.Webmaster@noaa.gov 
# 
# Units: proton flux p/cs2-sec-ster
# Status(S): 0 = nominal data, 1 to 8 = bad data record, 9 = no data
# Missing data values: -1.00e+05
# Source: ACE Satellite - Solar Isotope Spectrometer
#
# 5-minute averaged Real-time Integral Flux of High-energy Solar Protons
# 
#                 Modified Seconds
# UT Date   Time   Julian  of the      ---- Integral Proton Flux ----
# YR MO DA  HHMM     Day     Day       S    > 10 MeV    S    > 30 MeV
#--------------------------------------------------------------------
2006 12 09  0000    54078       0      0    4.03e+02    0    8.28e+01
2006 12 09  0005    54078     300      0    4.08e+02    0    8.46e+01
2006 12 09  0010    54078     600      0    4.02e+02    0    8.30e+01
2006 12 09  0015    54078     900      0    4.04e+02    0    8.35e+01
2006 12 09  0020    54078    1200      0    4.05e+02    0    8.31e+01
2006 12 09  0025    54078    1500      0    4.03e+02    0    8.32e+01
2006 12 09  0030    54078    1800      0    4.04e+02    0    8.51e+01
2006 12 09  0035    54078    2100      0    4.05e+02    0    8.41e+01
2006 12 09  0040    54078    2400      0    4.01e+02    0    8.41e+01
2006 12 09  0045    54078    2700      0    4.01e+02    0    8.19e+01
2006 12 09  0050    54078    3000      0    3.97e+02    0    8.27e+01
2006 12 09  0055    54078    3300      0    3.98e+02    0    8.18e+01
2006 12 09  0100    54078    3600      0    3.92e+02    0    8.38e+01
2006 12 09  0105    54078    3900      0    3.95e+02    0    8.09e+01
2006 12 09  0110    54078    4200      0    3.90e+02    0    7.89e+01
2006 12 09  0115    54078    4500      0    3.87e+02    0    7.85e+01
2006 12 09  0120    54078    4800      0    3.84e+02    0    7.92e+01
2006 12 09  0125    54078    5100      0    3.89e+02    0    7.74e+01
2006 12 09  0130    54078    5400      0    3.82e+02    0    7.87e+01
2006 12 09  0135    54078    5700      0    3.83e+02    0    7.73e+01
2006 12 09  0140    54078    6000      0    3.81e+02    0    7.92e+01
2006 12 09  0145    54078    6300      0    3.81e+02    0    7.89e+01
2006 12 09  0150    54078    6600      0    3.76e+02    0    7.72e+01
2006 12 09  0155    54078    6900      0    3.83e+02    0    7.75e+01
2006 12 09  0200    54078    7200      0    3.79e+02    0    7.68e+01
2006 12 09  0205    54078    7500      0    3.87e+02    0    7.83e+01
2006 12 09  0210    54078    7800      0    3.84e+02    0    7.72e+01
2006 12 09  0215    54078    8100      0    3.82e+02    0    7.70e+01
2006 12 09  0220    54078    8400      0    3.81e+02    0    7.70e+01
2006 12 09  0225    54078    8700      0    3.76e+02    0    7.58e+01
2006 12 09  0230    54078    9000      0    3.74e+02    0    7.73e+01
2006 12 09  0235    54078    9300      0    3.75e+02    0    7.71e+01
2006 12 09  0240    54078    9600      0    3.72e+02    0    7.41e+01
2006 12 09  0245    54078    9900      0    3.78e+02    0    7.78e+01
2006 12 09  0250    54078   10200      0    3.74e+02    0    7.61e+01
2006 12 09  0255    54078   10500      0    3.75e+02    0    7.65e+01
2006 12 09  0300    54078   10800      0    3.73e+02    0    7.63e+01
2006 12 09  0305    54078   11100      0    3.70e+02    0    7.66e+01
2006 12 09  0310    54078   11400      0    3.74e+02    0    7.64e+01
2006 12 09  0315    54078   11700      0    3.70e+02    0    7.58e+01
2006 12 09  0320    54078   12000      0    3.64e+02    0    7.43e+01
2006 12 09  0325    54078   12300      0    3.64e+02    0    7.39e+01
2006 12 09  0330    54078   12600      0    3.67e+02    0    7.55e+01
2006 12 09  0335    54078   12900      0    3.63e+02    0    7.36e+01
2006 12 09  0340    54078   13200      0    3.55e+02    0    7.24e+01
2006 12 09  0345    54078   13500      0    3.56e+02    0    7.24e+01
2006 12 09  0350    54078   13800      0    3.56e+02    0    7.32e+01
2006 12 09  0355    54078   14100      0    3.53e+02    0    7.12e+01
2006 12 09  0400    54078   14400      0    3.58e+02    0    7.24e+01
2006 12 09  0405    54078   14700      0    3.49e+02    0    7.27e+01
2006 12 09  0410    54078   15000      0    3.48e+02    0    7.05e+01
2006 12 09  0415    54078   15300      0    3.46e+02    0    6.96e+01
2006 12 09  0420    54078   15600      0    3.48e+02    0    7.09e+01
2006 12 09  0425    54078   15900      0    3.50e+02    0    7.32e+01
2006 12 09  0430    54078   16200      0    3.49e+02    0    7.27e+01
2006 12 09  0435    54078   16500      0    3.49e+02    0    7.16e+01
2006 12 09  0440    54078   16800      0    3.44e+02    0    7.08e+01
2006 12 09  0445    54078   17100      0    3.43e+02    0    6.99e+01
2006 12 09  0450    54078   17400      0    3.47e+02    0    6.99e+01
2006 12 09  0455    54078   17700      0    3.46e+02    0    6.97e+01
2006 12 09  0500    54078   18000      0    3.40e+02    0    6.92e+01
2006 12 09  0505    54078   18300      0    3.46e+02    0    7.18e+01
2006 12 09  0510    54078   18600      0    3.53e+02    0    7.18e+01
2006 12 09  0515    54078   18900      0    3.47e+02    0    6.91e+01
2006 12 09  0520    54078   19200      0    3.50e+02    0    6.98e+01
2006 12 09  0525    54078   19500      0    3.50e+02    0    7.13e+01
2006 12 09  0530    54078   19800      0    3.46e+02    0    7.07e+01
2006 12 09  0535    54078   20100      0    3.40e+02    0    6.92e+01
2006 12 09  0540    54078   20400      0    3.38e+02    0    6.80e+01
2006 12 09  0545    54078   20700      0    3.34e+02    0    6.79e+01
2006 12 09  0550    54078   21000      0    3.32e+02    0    6.83e+01
2006 12 09  0555    54078   21300      0    3.28e+02    0    6.70e+01
2006 12 09  0600    54078   21600      0    3.25e+02    0    6.62e+01
2006 12 09  0605    54078   21900      0    3.29e+02    0    6.74e+01
2006 12 09  0610    54078   22200      0    3.25e+02    0    6.69e+01
2006 12 09  0615    54078   22500      0    3.24e+02    0    6.46e+01
2006 12 09  0620    54078   22800      0    3.28e+02    0    6.76e+01
2006 12 09  0625    54078   23100      0    3.23e+02    0    6.35e+01
2006 12 09  0630    54078   23400      0    3.25e+02    0    6.46e+01
2006 12 09  0635    54078   23700      0    3.24e+02    0    6.35e+01
2006 12 09  0640    54078   24000      0    3.23e+02    0    6.41e+01
2006 12 09  0645    54078   24300      0    3.28e+02    0    6.68e+01
2006 12 09  0650    54078   24600      0    3.30e+02    0    6.60e+01
2006 12 09  0655    54078   24900      0    3.33e+02    0    6.58e+01
2006 12 09  0700    54078   25200      0    3.27e+02    0    6.79e+01
2006 12 09  0705    54078   25500      0    3.28e+02    0    6.58e+01
2006 12 09  0710    54078   25800      0    3.21e+02    0    6.39e+01
2006 12 09  0715    54078   26100      0    3.26e+02    0    6.50e+01
2006 12 09  0720    54078   26400      0    3.27e+02    0    6.59e+01
2006 12 09  0725    54078   26700      0    3.24e+02    0    6.56e+01
2006 12 09  0730    54078   27000      0    3.23e+02    0    6.28e+01
2006 12 09  0735    54078   27300      0    3.23e+02    0    6.56e+01
2006 12 09  0740    54078   27600      0    3.24e+02    0    6.47e+01
2006 12 09  0745    54078   27900      0    3.23e+02    0    6.55e+01
2006 12 09  0750    54078   28200      0    3.21e+02    0    6.61e+01
2006 12 09  0755    54078   28500      0    3.24e+02    0    6.57e+01
2006 12 09  0800    54078   28800      0    3.18e+02    0    6.36e+01
2006 12 09  0805    54078   29100      0    3.21e+02    0    6.48e+01
2006 12 09  0810    54078   29400      0    3.21e+02    0    6.42e+01
2006 12 09  0815    54078   29700      0    3.20e+02    0    6.59e+01
2006 12 09  0820    54078   30000      0    3.25e+02    0    6.57e+01
2006 12 09  0825    54078   30300      0    3.20e+02    0    6.43e+01
2006 12 09  0830    54078   30600      0    3.19e+02    0    6.36e+01
2006 12 09  0835    54078   30900      0    3.14e+02    0    6.31e+01
2006 12 09  0840    54078   31200      0    3.12e+02    0    6.18e+01
2006 12 09  0845    54078   31500      0    3.13e+02    0    6.34e+01
2006 12 09  0850    54078   31800      0    3.08e+02    0    6.35e+01
2006 12 09  0855    54078   32100      0    3.11e+02    0    6.00e+01
2006 12 09  0900    54078   32400      0    3.12e+02    0    6.36e+01
2006 12 09  0905    54078   32700      0    3.08e+02    0    6.09e+01
2006 12 09  0910    54078   33000      0    3.11e+02    0    6.29e+01
2006 12 09  0915    54078   33300      0    3.17e+02    0    6.45e+01
2006 12 09  0920    54078   33600      0    3.08e+02    0    6.29e+01
2006 12 09  0925    54078   33900      0    3.11e+02    0    6.12e+01
2006 12 09  0930    54078   34200      0    3.08e+02    0    6.17e+01
2006 12 09  0935    54078   34500      0    3.08e+02    0    6.20e+01
2006 12 09  0940    54078   34800      0    3.11e+02    0    6.28e+01
2006 12 09  0945    54078   35100      0    3.11e+02    0    6.30e+01
2006 12 09  0950    54078   35400      0    3.08e+02    0    5.98e+01
2006 12 09  0955    54078   35700      0    3.06e+02    0    6.07e+01
2006 12 09  1000    54078   36000      0    3.07e+02    0    6.25e+01
2006 12 09  1005    54078   36300      0    3.03e+02    0    6.21e+01
2006 12 09  1010    54078   36600      0    3.07e+02    0    5.98e+01
2006 12 09  1015    54078   36900      0    3.08e+02    0    6.33e+01
2006 12 09  1020    54078   37200      0    3.02e+02    0    5.94e+01
2006 12 09  1025    54078   37500      0    3.02e+02    0    5.98e+01
2006 12 09  1030    54078   37800      0    3.02e+02    0    5.96e+01
2006 12 09  1035    54078   38100      0    3.01e+02    0    6.06e+01
2006 12 09  1040    54078   38400      0    3.02e+02    0    5.94e+01
2006 12 09  1045    54078   38700      0    3.04e+02    0    5.87e+01
2006 12 09  1050    54078   39000      0    3.02e+02    0    6.00e+01
2006 12 09  1055    54078   39300      0    3.02e+02    0    5.98e+01
2006 12 09  1100    54078   39600      0    3.04e+02    0    6.13e+01
2006 12 09  1105    54078   39900      0    3.05e+02    0    6.13e+01
2006 12 09  1110    54078   40200      0    3.00e+02    0    6.00e+01
2006 12 09  1115    54078   40500      0    3.03e+02    0    6.08e+01
2006 12 09  1120    54078   40800      0    3.05e+02    0    6.28e+01
2006 12 09  1125    54078   41100      0    3.04e+02    0    6.15e+01
2006 12 09  1130    54078   41400      0    2.99e+02    0    6.02e+01
2006 12 09  1135    54078   41700      0    3.02e+02    0    6.12e+01
2006 12 09  1140    54078   42000      0    3.02e+02    0    5.99e+01
2006 12 09  1145    54078   42300      0    3.02e+02    0    6.04e+01
2006 12 09  1150    54078   42600      0    2.95e+02    0    5.76e+01
2006 12 09  1155    54078   42900      0    2.95e+02    0    5.91e+01
2006 12 09  1200    54078   43200      0    3.01e+02    0    6.08e+01
2006 12 09  1205    54078   43500      0    2.91e+02    0    5.85e+01
2006 12 09  1210    54078   43800      0    2.93e+02    0    5.92e+01
2006 12 09  1215    54078   44100      0    2.90e+02    0    5.84e+01
2006 12 09  1220    54078   44400      0    2.89e+02    0    5.73e+01
2006 12 09  1225    54078   44700      0    2.89e+02    0    5.83e+01
2006 12 09  1230    54078   45000      0    2.91e+02    0    5.97e+01
2006 12 09  1235    54078   45300      0    2.86e+02    0    5.69e+01
2006 12 09  1240    54078   45600      0    2.91e+02    0    5.78e+01
2006 12 09  1245    54078   45900      0    2.89e+02    0    5.82e+01
2006 12 09  1250    54078   46200      0    2.89e+02    0    5.79e+01
2006 12 09  1255    54078   46500      0    2.87e+02    0    5.74e+01
2006 12 09  1300    54078   46800      0    2.87e+02    0    5.83e+01
2006 12 09  1305    54078   47100      0    2.87e+02    0    5.86e+01
2006 12 09  1310    54078   47400      0    2.88e+02    0    5.74e+01
2006 12 09  1315    54078   47700      0    2.92e+02    0    6.02e+01
2006 12 09  1320    54078   48000      0    2.88e+02    0    5.80e+01
2006 12 09  1325    54078   48300      0    2.91e+02    0    5.85e+01
2006 12 09  1330    54078   48600      0    2.96e+02    0    5.66e+01
2006 12 09  1335    54078   48900      0    3.00e+02    0    5.92e+01
2006 12 09  1340    54078   49200      0    3.03e+02    0    5.70e+01
2006 12 09  1345    54078   49500      0    3.02e+02    0    6.00e+01
2006 12 09  1350    54078   49800      0    2.94e+02    0    5.55e+01
2006 12 09  1355    54078   50100      0    2.94e+02    0    5.88e+01
2006 12 09  1400    54078   50400      0    2.98e+02    0    5.93e+01
2006 12 09  1405    54078   50700      0    2.91e+02    0    5.78e+01
2006 12 09  1410    54078   51000      0    2.93e+02    0    5.72e+01
2006 12 09  1415    54078   51300      0    2.94e+02    0    5.79e+01
2006 12 09  1420    54078   51600      0    2.96e+02    0    5.85e+01
2006 12 09  1425    54078   51900      0    2.94e+02    0    5.63e+01
2006 12 09  1430    54078   52200      0    2.93e+02    0    5.61e+01
2006 12 09  1435    54078   52500      0    2.95e+02    0    5.72e+01
2006 12 09  1440    54078   52800      0    2.97e+02    0    6.11e+01
2006 12 09  1445    54078   53100      0    2.96e+02    0    5.79e+01
2006 12 09  1450    54078   53400      0    2.94e+02    0    5.80e+01
2006 12 09  1455    54078   53700      0    2.95e+02    0    5.67e+01
2006 12 09  1500    54078   54000      0    2.90e+02    0    5.77e+01
2006 12 09  1505    54078   54300      0    2.87e+02    0    5.67e+01
2006 12 09  1510    54078   54600      0    2.85e+02    0    5.49e+01
2006 12 09  1515    54078   54900      0    2.82e+02    0    5.39e+01
2006 12 09  1520    54078   55200      0    2.82e+02    0    5.49e+01
2006 12 09  1525    54078   55500      0    2.82e+02    0    5.59e+01
2006 12 09  1530    54078   55800      0    2.82e+02    0    5.53e+01
2006 12 09  1535    54078   56100      0    2.78e+02    0    5.49e+01
2006 12 09  1540    54078   56400      0    2.79e+02    0    5.43e+01
2006 12 09  1545    54078   56700      0    2.93e+02    0    5.77e+01
2006 12 09  1550    54078   57000      0    3.00e+02    0    5.94e+01
2006 12 09  1555    54078   57300      0    2.83e+02    0    4.55e+01
2006 12 09  1600    54078   57600      0    2.90e+02    0    5.59e+01
2006 12 09  1605    54078   57900      0    2.89e+02    0    5.67e+01
2006 12 09  1610    54078   58200      0    2.89e+02    0    5.68e+01
2006 12 09  1615    54078   58500      0    2.48e+02    0    4.57e+01
2006 12 09  1620    54078   58800      0    2.86e+02    0    5.45e+01
2006 12 09  1625    54078   59100      0    2.85e+02    0    5.42e+01
2006 12 09  1630    54078   59400      0    2.89e+02    0    5.49e+01
2006 12 09  1635    54078   59700      0    2.87e+02    0    5.69e+01
2006 12 09  1640    54078   60000      0    2.83e+02    0    5.17e+01
2006 12 09  1645    54078   60300      0    2.83e+02    0    5.48e+01
2006 12 09  1650    54078   60600      0    2.80e+02    0    5.37e+01
2006 12 09  1655    54078   60900      0    2.79e+02    0    5.17e+01
2006 12 09  1700    54078   61200      0    2.80e+02    0    5.35e+01
2006 12 09  1705    54078   61500      0    2.81e+02    0    5.53e+01
2006 12 09  1710    54078   61800      0    2.76e+02    0    5.36e+01
2006 12 09  1715    54078   62100      0    2.77e+02    0    5.48e+01
2006 12 09  1720    54078   62400      0    2.72e+02    0    5.30e+01
2006 12 09  1725    54078   62700      0    2.72e+02    0    5.19e+01
2006 12 09  1730    54078   63000      0    2.71e+02    0    5.31e+01
2006 12 09  1735    54078   63300      0    2.76e+02    0    5.26e+01
2006 12 09  1740    54078   63600      0    2.70e+02    0    5.17e+01
2006 12 09  1745    54078   63900      0    2.73e+02    0    5.23e+01
2006 12 09  1750    54078   64200      0    2.68e+02    0    5.12e+01
2006 12 09  1755    54078   64500      9   -1.00e+05    9   -1.00e+05
2006 12 09  1800    54078   64800      9   -1.00e+05    9   -1.00e+05
2006 12 09  1805    54078   65100      9   -1.00e+05    9   -1.00e+05
2006 12 09  1810    54078   65400      9   -1.00e+05    9   -1.00e+05
2006 12 09  1815    54078   65700      9   -1.00e+05    9   -1.00e+05
2006 12 09  1820    54078   66000      9   -1.00e+05    9   -1.00e+05
2006 12 09  1825    54078   66300      9   -1.00e+05    9   -1.00e+05
2006 12 09  1830    54078   66600      9   -1.00e+05    9   -1.00e+05
2006 12 09  1835    54078   66900      0    2.48e+02    0    4.76e+01
2006 12 09  1840    54078   67200      0    2.51e+02    0    4.84e+01
2006 12 09  1845    54078   67500      0    2.51e+02    0    4.85e+01
2006 12 09  1850    54078   67800      0    2.44e+02    0    4.79e+01
2006 12 09  1855    54078   68100      0    2.39e+02    0    4.62e+01
2006 12 09  1900    54078   68400      0    2.39e+02    0    4.66e+01
2006 12 09  1905    54078   68700      0    2.37e+02    0    4.67e+01
2006 12 09  1910    54078   69000      0    2.34e+02    0    4.44e+01
2006 12 09  1915    54078   69300      0    2.34e+02    0    4.47e+01
2006 12 09  1920    54078   69600      0    2.34e+02    0    4.47e+01
2006 12 09  1925    54078   69900      0    2.36e+02    0    4.55e+01
2006 12 09  1930    54078   70200      0    2.33e+02    0    4.37e+01
2006 12 09  1935    54078   70500      0    2.34e+02    0    4.49e+01
2006 12 09  1940    54078   70800      0    2.33e+02    0    4.31e+01
2006 12 09  1945    54078   71100      0    2.31e+02    0    4.31e+01
2006 12 09  1950    54078   71400      0    2.26e+02    0    4.37e+01
2006 12 09  1955    54078   71700      0    2.26e+02    0    4.18e+01
2006 12 09  2000    54078   72000      0    2.25e+02    0    4.24e+01
2006 12 09  2005    54078   72300      0    2.26e+02    0    4.39e+01
2006 12 09  2010    54078   72600      0    2.22e+02    0    4.38e+01
2006 12 09  2015    54078   72900      0    2.20e+02    0    4.26e+01
2006 12 09  2020    54078   73200      0    2.21e+02    0    4.25e+01
2006 12 09  2025    54078   73500      0    2.25e+02    0    4.28e+01
2006 12 09  2030    54078   73800      0    2.25e+02    0    4.26e+01
2006 12 09  2035    54078   74100      0    2.24e+02    0    4.12e+01
2006 12 09  2040    54078   74400      0    2.21e+02    0    4.06e+01
2006 12 09  2045    54078   74700      9   -1.00e+05    9   -1.00e+05
2006 12 09  2050    54078   75000      9   -1.00e+05    9   -1.00e+05
2006 12 09  2055    54078   75300      9   -1.00e+05    9   -1.00e+05
2006 12 09  2100    54078   75600      9   -1.00e+05    9   -1.00e+05
2006 12 09  2105    54078   75900      9   -1.00e+05    9   -1.00e+05
2006 12 09  2110    54078   76200      0    2.08e+02    0    4.01e+01
2006 12 09  2115    54078   76500      0    2.06e+02    0    3.73e+01
2006 12 09  2120    54078   76800      0    2.15e+02    0    4.14e+01
2006 12 09  2125    54078   77100      0    2.12e+02    0    4.02e+01
2006 12 09  2130    54078   77400      0    2.12e+02    0    4.03e+01
2006 12 09  2135    54078   77700      0    2.11e+02    0    3.93e+01
2006 12 09  2140    54078   78000      0    2.10e+02    0    3.92e+01
2006 12 09  2145    54078   78300      0    2.11e+02    0    3.94e+01
2006 12 09  2150    54078   78600      0    2.10e+02    0    3.90e+01
2006 12 09  2155    54078   78900      0    2.10e+02    0    3.85e+01
2006 12 09  2200    54078   79200      0    2.09e+02    0    4.10e+01
2006 12 09  2205    54078   79500      0    2.05e+02    0    3.82e+01
2006 12 09  2210    54078   79800      0    2.04e+02    0    3.71e+01
2006 12 09  2215    54078   80100      0    1.98e+02    0    3.64e+01
2006 12 09  2220    54078   80400      0    1.94e+02    0    3.63e+01
2006 12 09  2225    54078   80700      0    1.94e+02    0    3.63e+01
2006 12 09  2230    54078   81000      0    1.95e+02    0    3.66e+01
2006 12 09  2235    54078   81300      0    1.99e+02    0    3.80e+01
2006 12 09  2240    54078   81600      0    1.94e+02    0    3.65e+01
2006 12 09  2245    54078   81900      0    1.97e+02    0    3.71e+01
2006 12 09  2250    54078   82200      0    1.92e+02    0    3.59e+01
2006 12 09  2255    54078   82500      0    1.92e+02    0    3.55e+01
2006 12 09  2300    54078   82800      0    1.88e+02    0    3.51e+01
2006 12 09  2305    54078   83100      0    1.96e+02    0    3.60e+01
2006 12 09  2310    54078   83400      0    1.97e+02    0    3.72e+01
2006 12 09  2315    54078   83700      0    2.03e+02    0    3.91e+01
2006 12 09  2320    54078   84000      0    2.01e+02    0    3.77e+01
2006 12 09  2325    54078   84300      0    1.95e+02    0    3.59e+01
2006 12 09  2330    54078   84600      0    1.94e+02    0    3.74e+01
2006 12 09  2335    54078   84900      0    1.94e+02    0    3.52e+01
2006 12 09  2340    54078   85200      0    1.93e+02    0    3.60e+01
2006 12 09  2345    54078   85500      0    1.95e+02    0    3.64e+01
2006 12 09  2350    54078   85800      0    1.93e+02    0    3.45e+01
2006 12 09  2355    54078   86100      0    1.94e+02    0    3.66e+01
