:Data_list: 20060306_ace_sis_5m.txt
:Created: 2006 Mar 07 0011 UT
# Prepared by the U.S. Dept. of Commerce, NOAA, Space Environment Center.
# Please send comments and suggestions to SEC.Webmaster@noaa.gov 
# 
# Units: proton flux p/cs2-sec-ster
# Status(S): 0 = nominal data, 1 to 8 = bad data record, 9 = no data
# Missing data values: -1.00e+05
# Source: ACE Satellite - Solar Isotope Spectrometer
#
# 5-minute averaged Real-time Integral Flux of High-energy Solar Protons
# 
#                 Modified Seconds
# UT Date   Time   Julian  of the      ---- Integral Proton Flux ----
# YR MO DA  HHMM     Day     Day       S    > 10 MeV    S    > 30 MeV
#--------------------------------------------------------------------
2006 03 06  0000    53800       0      9   -1.00e+05    9   -1.00e+05
2006 03 06  0005    53800     300      0    1.57e+00    0    1.07e+00
2006 03 06  0010    53800     600      0    1.58e+00    0    1.12e+00
2006 03 06  0015    53800     900      0    1.57e+00    0    1.11e+00
2006 03 06  0020    53800    1200      0    1.54e+00    0    1.09e+00
2006 03 06  0025    53800    1500      0    1.59e+00    0    1.10e+00
2006 03 06  0030    53800    1800      0    1.56e+00    0    1.09e+00
2006 03 06  0035    53800    2100      0    1.58e+00    0    1.11e+00
2006 03 06  0040    53800    2400      0    1.59e+00    0    1.12e+00
2006 03 06  0045    53800    2700      0    1.56e+00    0    1.10e+00
2006 03 06  0050    53800    3000      0    1.57e+00    0    1.10e+00
2006 03 06  0055    53800    3300      0    1.58e+00    0    1.11e+00
2006 03 06  0100    53800    3600      0    1.58e+00    0    1.09e+00
2006 03 06  0105    53800    3900      0    1.60e+00    0    1.12e+00
2006 03 06  0110    53800    4200      0    1.58e+00    0    1.11e+00
2006 03 06  0115    53800    4500      0    1.56e+00    0    1.10e+00
2006 03 06  0120    53800    4800      0    1.53e+00    0    1.07e+00
2006 03 06  0125    53800    5100      0    1.56e+00    0    1.10e+00
2006 03 06  0130    53800    5400      0    1.54e+00    0    1.08e+00
2006 03 06  0135    53800    5700      0    1.60e+00    0    1.12e+00
2006 03 06  0140    53800    6000      0    1.56e+00    0    1.09e+00
2006 03 06  0145    53800    6300      0    1.53e+00    0    1.08e+00
2006 03 06  0150    53800    6600      0    1.55e+00    0    1.09e+00
2006 03 06  0155    53800    6900      0    1.56e+00    0    1.09e+00
2006 03 06  0200    53800    7200      0    1.55e+00    0    1.08e+00
2006 03 06  0205    53800    7500      0    1.58e+00    0    1.12e+00
2006 03 06  0210    53800    7800      0    1.56e+00    0    1.09e+00
2006 03 06  0215    53800    8100      0    1.57e+00    0    1.10e+00
2006 03 06  0220    53800    8400      0    1.54e+00    0    1.08e+00
2006 03 06  0225    53800    8700      0    1.55e+00    0    1.09e+00
2006 03 06  0230    53800    9000      0    1.56e+00    0    1.09e+00
2006 03 06  0235    53800    9300      0    1.55e+00    0    1.09e+00
2006 03 06  0240    53800    9600      0    1.59e+00    0    1.11e+00
2006 03 06  0245    53800    9900      0    1.52e+00    0    1.07e+00
2006 03 06  0250    53800   10200      0    1.56e+00    0    1.10e+00
2006 03 06  0255    53800   10500      0    1.57e+00    0    1.10e+00
2006 03 06  0300    53800   10800      0    1.52e+00    0    1.07e+00
2006 03 06  0305    53800   11100      0    1.57e+00    0    1.09e+00
2006 03 06  0310    53800   11400      0    1.56e+00    0    1.09e+00
2006 03 06  0315    53800   11700      0    1.54e+00    0    1.08e+00
2006 03 06  0320    53800   12000      0    1.54e+00    0    1.09e+00
2006 03 06  0325    53800   12300      0    1.55e+00    0    1.08e+00
2006 03 06  0330    53800   12600      0    1.54e+00    0    1.08e+00
2006 03 06  0335    53800   12900      0    1.55e+00    0    1.10e+00
2006 03 06  0340    53800   13200      0    1.56e+00    0    1.09e+00
2006 03 06  0345    53800   13500      0    1.52e+00    0    1.07e+00
2006 03 06  0350    53800   13800      0    1.58e+00    0    1.10e+00
2006 03 06  0355    53800   14100      0    1.55e+00    0    1.10e+00
2006 03 06  0400    53800   14400      0    1.58e+00    0    1.11e+00
2006 03 06  0405    53800   14700      0    1.54e+00    0    1.08e+00
2006 03 06  0410    53800   15000      0    1.57e+00    0    1.11e+00
2006 03 06  0415    53800   15300      0    1.55e+00    0    1.08e+00
2006 03 06  0420    53800   15600      0    1.55e+00    0    1.09e+00
2006 03 06  0425    53800   15900      0    1.54e+00    0    1.07e+00
2006 03 06  0430    53800   16200      0    1.56e+00    0    1.09e+00
2006 03 06  0435    53800   16500      0    1.52e+00    0    1.07e+00
2006 03 06  0440    53800   16800      0    1.58e+00    0    1.12e+00
2006 03 06  0445    53800   17100      0    1.57e+00    0    1.10e+00
2006 03 06  0450    53800   17400      0    1.54e+00    0    1.08e+00
2006 03 06  0455    53800   17700      0    1.56e+00    0    1.09e+00
2006 03 06  0500    53800   18000      0    1.55e+00    0    1.08e+00
2006 03 06  0505    53800   18300      0    1.52e+00    0    1.07e+00
2006 03 06  0510    53800   18600      0    1.56e+00    0    1.09e+00
2006 03 06  0515    53800   18900      0    1.57e+00    0    1.09e+00
2006 03 06  0520    53800   19200      0    1.55e+00    0    1.09e+00
2006 03 06  0525    53800   19500      0    1.57e+00    0    1.10e+00
2006 03 06  0530    53800   19800      0    1.60e+00    0    1.13e+00
2006 03 06  0535    53800   20100      0    1.54e+00    0    1.07e+00
2006 03 06  0540    53800   20400      0    1.56e+00    0    1.09e+00
2006 03 06  0545    53800   20700      0    1.57e+00    0    1.10e+00
2006 03 06  0550    53800   21000      0    1.56e+00    0    1.09e+00
2006 03 06  0555    53800   21300      0    1.56e+00    0    1.10e+00
2006 03 06  0600    53800   21600      0    1.55e+00    0    1.09e+00
2006 03 06  0605    53800   21900      0    1.56e+00    0    1.09e+00
2006 03 06  0610    53800   22200      0    1.56e+00    0    1.09e+00
2006 03 06  0615    53800   22500      0    1.52e+00    0    1.06e+00
2006 03 06  0620    53800   22800      0    1.53e+00    0    1.08e+00
2006 03 06  0625    53800   23100      0    1.50e+00    0    1.05e+00
2006 03 06  0630    53800   23400      0    1.56e+00    0    1.09e+00
2006 03 06  0635    53800   23700      0    1.59e+00    0    1.12e+00
2006 03 06  0640    53800   24000      0    1.55e+00    0    1.10e+00
2006 03 06  0645    53800   24300      0    1.50e+00    0    1.04e+00
2006 03 06  0650    53800   24600      0    1.54e+00    0    1.09e+00
2006 03 06  0655    53800   24900      0    1.53e+00    0    1.07e+00
2006 03 06  0700    53800   25200      0    1.58e+00    0    1.11e+00
2006 03 06  0705    53800   25500      0    1.57e+00    0    1.11e+00
2006 03 06  0710    53800   25800      0    1.57e+00    0    1.09e+00
2006 03 06  0715    53800   26100      0    1.54e+00    0    1.07e+00
2006 03 06  0720    53800   26400      0    1.54e+00    0    1.08e+00
2006 03 06  0725    53800   26700      0    1.55e+00    0    1.10e+00
2006 03 06  0730    53800   27000      0    1.53e+00    0    1.08e+00
2006 03 06  0735    53800   27300      0    1.57e+00    0    1.10e+00
2006 03 06  0740    53800   27600      0    1.54e+00    0    1.08e+00
2006 03 06  0745    53800   27900      0    1.56e+00    0    1.10e+00
2006 03 06  0750    53800   28200      0    1.52e+00    0    1.06e+00
2006 03 06  0755    53800   28500      0    1.54e+00    0    1.08e+00
2006 03 06  0800    53800   28800      0    1.50e+00    0    1.05e+00
2006 03 06  0805    53800   29100      0    1.51e+00    0    1.06e+00
2006 03 06  0810    53800   29400      0    1.53e+00    0    1.07e+00
2006 03 06  0815    53800   29700      0    1.53e+00    0    1.07e+00
2006 03 06  0820    53800   30000      0    1.53e+00    0    1.06e+00
2006 03 06  0825    53800   30300      0    1.57e+00    0    1.10e+00
2006 03 06  0830    53800   30600      0    1.56e+00    0    1.08e+00
2006 03 06  0835    53800   30900      0    1.56e+00    0    1.10e+00
2006 03 06  0840    53800   31200      0    1.53e+00    0    1.08e+00
2006 03 06  0845    53800   31500      0    1.54e+00    0    1.08e+00
2006 03 06  0850    53800   31800      0    1.58e+00    0    1.11e+00
2006 03 06  0855    53800   32100      0    1.53e+00    0    1.08e+00
2006 03 06  0900    53800   32400      0    1.53e+00    0    1.07e+00
2006 03 06  0905    53800   32700      0    1.53e+00    0    1.08e+00
2006 03 06  0910    53800   33000      0    1.56e+00    0    1.08e+00
2006 03 06  0915    53800   33300      0    1.53e+00    0    1.08e+00
2006 03 06  0920    53800   33600      0    1.54e+00    0    1.07e+00
2006 03 06  0925    53800   33900      0    1.52e+00    0    1.06e+00
2006 03 06  0930    53800   34200      0    1.55e+00    0    1.09e+00
2006 03 06  0935    53800   34500      0    1.55e+00    0    1.09e+00
2006 03 06  0940    53800   34800      0    1.56e+00    0    1.09e+00
2006 03 06  0945    53800   35100      0    1.54e+00    0    1.08e+00
2006 03 06  0950    53800   35400      0    1.53e+00    0    1.08e+00
2006 03 06  0955    53800   35700      0    1.51e+00    0    1.07e+00
2006 03 06  1000    53800   36000      0    1.54e+00    0    1.08e+00
2006 03 06  1005    53800   36300      0    1.55e+00    0    1.08e+00
2006 03 06  1010    53800   36600      0    1.59e+00    0    1.11e+00
2006 03 06  1015    53800   36900      0    1.56e+00    0    1.09e+00
2006 03 06  1020    53800   37200      0    1.57e+00    0    1.11e+00
2006 03 06  1025    53800   37500      0    1.55e+00    0    1.09e+00
2006 03 06  1030    53800   37800      0    1.54e+00    0    1.08e+00
2006 03 06  1035    53800   38100      0    1.59e+00    0    1.11e+00
2006 03 06  1040    53800   38400      0    1.56e+00    0    1.10e+00
2006 03 06  1045    53800   38700      0    1.54e+00    0    1.09e+00
2006 03 06  1050    53800   39000      0    1.52e+00    0    1.06e+00
2006 03 06  1055    53800   39300      0    1.57e+00    0    1.12e+00
2006 03 06  1100    53800   39600      0    1.55e+00    0    1.09e+00
2006 03 06  1105    53800   39900      0    1.54e+00    0    1.08e+00
2006 03 06  1110    53800   40200      0    1.54e+00    0    1.08e+00
2006 03 06  1115    53800   40500      0    1.52e+00    0    1.06e+00
2006 03 06  1120    53800   40800      0    1.50e+00    0    1.05e+00
2006 03 06  1125    53800   41100      0    1.52e+00    0    1.06e+00
2006 03 06  1130    53800   41400      0    1.54e+00    0    1.09e+00
2006 03 06  1135    53800   41700      0    1.54e+00    0    1.08e+00
2006 03 06  1140    53800   42000      0    1.54e+00    0    1.07e+00
2006 03 06  1145    53800   42300      0    1.56e+00    0    1.09e+00
2006 03 06  1150    53800   42600      0    1.53e+00    0    1.09e+00
2006 03 06  1155    53800   42900      0    1.56e+00    0    1.11e+00
2006 03 06  1200    53800   43200      0    1.51e+00    0    1.05e+00
2006 03 06  1205    53800   43500      0    1.55e+00    0    1.09e+00
2006 03 06  1210    53800   43800      0    1.52e+00    0    1.06e+00
2006 03 06  1215    53800   44100      0    1.54e+00    0    1.08e+00
2006 03 06  1220    53800   44400      0    1.53e+00    0    1.07e+00
2006 03 06  1225    53800   44700      0    1.52e+00    0    1.06e+00
2006 03 06  1230    53800   45000      0    1.53e+00    0    1.07e+00
2006 03 06  1235    53800   45300      0    1.53e+00    0    1.08e+00
2006 03 06  1240    53800   45600      0    1.56e+00    0    1.11e+00
2006 03 06  1245    53800   45900      0    1.56e+00    0    1.10e+00
2006 03 06  1250    53800   46200      0    1.55e+00    0    1.09e+00
2006 03 06  1255    53800   46500      0    1.55e+00    0    1.10e+00
2006 03 06  1300    53800   46800      0    1.55e+00    0    1.08e+00
2006 03 06  1305    53800   47100      0    1.52e+00    0    1.07e+00
2006 03 06  1310    53800   47400      0    1.55e+00    0    1.10e+00
2006 03 06  1315    53800   47700      0    1.56e+00    0    1.11e+00
2006 03 06  1320    53800   48000      0    1.55e+00    0    1.09e+00
2006 03 06  1325    53800   48300      0    1.55e+00    0    1.10e+00
2006 03 06  1330    53800   48600      0    1.54e+00    0    1.09e+00
2006 03 06  1335    53800   48900      0    1.57e+00    0    1.10e+00
2006 03 06  1340    53800   49200      0    1.57e+00    0    1.11e+00
2006 03 06  1345    53800   49500      0    1.52e+00    0    1.07e+00
2006 03 06  1350    53800   49800      0    1.51e+00    0    1.06e+00
2006 03 06  1355    53800   50100      0    1.54e+00    0    1.07e+00
2006 03 06  1400    53800   50400      0    1.57e+00    0    1.11e+00
2006 03 06  1405    53800   50700      0    1.57e+00    0    1.11e+00
2006 03 06  1410    53800   51000      0    1.56e+00    0    1.09e+00
2006 03 06  1415    53800   51300      0    1.53e+00    0    1.08e+00
2006 03 06  1420    53800   51600      0    1.57e+00    0    1.10e+00
2006 03 06  1425    53800   51900      0    1.54e+00    0    1.09e+00
2006 03 06  1430    53800   52200      0    1.53e+00    0    1.08e+00
2006 03 06  1435    53800   52500      0    1.60e+00    0    1.11e+00
2006 03 06  1440    53800   52800      0    1.52e+00    0    1.07e+00
2006 03 06  1445    53800   53100      0    1.55e+00    0    1.09e+00
2006 03 06  1450    53800   53400      0    1.55e+00    0    1.08e+00
2006 03 06  1455    53800   53700      0    1.56e+00    0    1.10e+00
2006 03 06  1500    53800   54000      0    1.53e+00    0    1.08e+00
2006 03 06  1505    53800   54300      0    1.55e+00    0    1.08e+00
2006 03 06  1510    53800   54600      0    1.56e+00    0    1.10e+00
2006 03 06  1515    53800   54900      0    1.54e+00    0    1.07e+00
2006 03 06  1520    53800   55200      0    1.55e+00    0    1.08e+00
2006 03 06  1525    53800   55500      0    1.57e+00    0    1.10e+00
2006 03 06  1530    53800   55800      0    1.55e+00    0    1.10e+00
2006 03 06  1535    53800   56100      0    1.56e+00    0    1.10e+00
2006 03 06  1540    53800   56400      0    1.54e+00    0    1.08e+00
2006 03 06  1545    53800   56700      0    1.56e+00    0    1.10e+00
2006 03 06  1550    53800   57000      0    1.56e+00    0    1.10e+00
2006 03 06  1555    53800   57300      0    1.57e+00    0    1.11e+00
2006 03 06  1600    53800   57600      0    1.55e+00    0    1.10e+00
2006 03 06  1605    53800   57900      0    1.54e+00    0    1.09e+00
2006 03 06  1610    53800   58200      0    1.54e+00    0    1.08e+00
2006 03 06  1615    53800   58500      0    1.58e+00    0    1.11e+00
2006 03 06  1620    53800   58800      0    1.56e+00    0    1.09e+00
2006 03 06  1625    53800   59100      0    1.54e+00    0    1.08e+00
2006 03 06  1630    53800   59400      0    1.55e+00    0    1.09e+00
2006 03 06  1635    53800   59700      0    1.55e+00    0    1.08e+00
2006 03 06  1640    53800   60000      0    1.55e+00    0    1.09e+00
2006 03 06  1645    53800   60300      0    1.52e+00    0    1.07e+00
2006 03 06  1650    53800   60600      0    1.52e+00    0    1.06e+00
2006 03 06  1655    53800   60900      0    1.54e+00    0    1.09e+00
2006 03 06  1700    53800   61200      0    1.56e+00    0    1.10e+00
2006 03 06  1705    53800   61500      0    1.57e+00    0    1.10e+00
2006 03 06  1710    53800   61800      0    1.53e+00    0    1.07e+00
2006 03 06  1715    53800   62100      0    1.57e+00    0    1.11e+00
2006 03 06  1720    53800   62400      0    1.52e+00    0    1.07e+00
2006 03 06  1725    53800   62700      0    1.52e+00    0    1.06e+00
2006 03 06  1730    53800   63000      0    1.57e+00    0    1.11e+00
2006 03 06  1735    53800   63300      0    1.56e+00    0    1.09e+00
2006 03 06  1740    53800   63600      0    1.54e+00    0    1.08e+00
2006 03 06  1745    53800   63900      0    1.53e+00    0    1.08e+00
2006 03 06  1750    53800   64200      0    1.53e+00    0    1.08e+00
2006 03 06  1755    53800   64500      0    1.55e+00    0    1.09e+00
2006 03 06  1800    53800   64800      0    1.54e+00    0    1.08e+00
2006 03 06  1805    53800   65100      0    1.53e+00    0    1.08e+00
2006 03 06  1810    53800   65400      0    1.53e+00    0    1.08e+00
2006 03 06  1815    53800   65700      0    1.52e+00    0    1.07e+00
2006 03 06  1820    53800   66000      0    1.53e+00    0    1.08e+00
2006 03 06  1825    53800   66300      0    1.54e+00    0    1.09e+00
2006 03 06  1830    53800   66600      0    1.54e+00    0    1.08e+00
2006 03 06  1835    53800   66900      0    1.55e+00    0    1.10e+00
2006 03 06  1840    53800   67200      0    1.54e+00    0    1.08e+00
2006 03 06  1845    53800   67500      0    1.57e+00    0    1.10e+00
2006 03 06  1850    53800   67800      0    1.54e+00    0    1.07e+00
2006 03 06  1855    53800   68100      0    1.51e+00    0    1.06e+00
2006 03 06  1900    53800   68400      0    1.54e+00    0    1.08e+00
2006 03 06  1905    53800   68700      0    1.49e+00    0    1.04e+00
2006 03 06  1910    53800   69000      0    1.53e+00    0    1.08e+00
2006 03 06  1915    53800   69300      0    1.53e+00    0    1.07e+00
2006 03 06  1920    53800   69600      0    1.56e+00    0    1.09e+00
2006 03 06  1925    53800   69900      0    1.53e+00    0    1.07e+00
2006 03 06  1930    53800   70200      0    1.53e+00    0    1.08e+00
2006 03 06  1935    53800   70500      0    1.53e+00    0    1.08e+00
2006 03 06  1940    53800   70800      0    1.53e+00    0    1.08e+00
2006 03 06  1945    53800   71100      0    1.57e+00    0    1.11e+00
2006 03 06  1950    53800   71400      0    1.54e+00    0    1.08e+00
2006 03 06  1955    53800   71700      0    1.50e+00    0    1.06e+00
2006 03 06  2000    53800   72000      0    1.54e+00    0    1.08e+00
2006 03 06  2005    53800   72300      0    1.53e+00    0    1.07e+00
2006 03 06  2010    53800   72600      0    1.45e+00    0    1.01e+00
2006 03 06  2015    53800   72900      0    1.51e+00    0    1.05e+00
2006 03 06  2020    53800   73200      0    1.51e+00    0    1.04e+00
2006 03 06  2025    53800   73500      0    1.53e+00    0    1.07e+00
2006 03 06  2030    53800   73800      0    1.50e+00    0    1.05e+00
2006 03 06  2035    53800   74100      0    1.51e+00    0    1.05e+00
2006 03 06  2040    53800   74400      0    1.52e+00    0    1.07e+00
2006 03 06  2045    53800   74700      0    1.50e+00    0    1.05e+00
2006 03 06  2050    53800   75000      0    1.51e+00    0    1.05e+00
2006 03 06  2055    53800   75300      0    1.51e+00    0    1.07e+00
2006 03 06  2100    53800   75600      0    1.50e+00    0    1.05e+00
2006 03 06  2105    53800   75900      0    1.52e+00    0    1.06e+00
2006 03 06  2110    53800   76200      0    1.49e+00    0    1.05e+00
2006 03 06  2115    53800   76500      0    1.49e+00    0    1.04e+00
2006 03 06  2120    53800   76800      0    1.50e+00    0    1.06e+00
2006 03 06  2125    53800   77100      0    1.48e+00    0    1.02e+00
2006 03 06  2130    53800   77400      0    1.53e+00    0    1.08e+00
2006 03 06  2135    53800   77700      0    1.49e+00    0    1.04e+00
2006 03 06  2140    53800   78000      0    1.55e+00    0    1.10e+00
2006 03 06  2145    53800   78300      0    1.54e+00    0    1.09e+00
2006 03 06  2150    53800   78600      0    1.53e+00    0    1.07e+00
2006 03 06  2155    53800   78900      0    1.49e+00    0    1.04e+00
2006 03 06  2200    53800   79200      0    1.50e+00    0    1.06e+00
2006 03 06  2205    53800   79500      0    1.51e+00    0    1.06e+00
2006 03 06  2210    53800   79800      0    1.53e+00    0    1.09e+00
2006 03 06  2215    53800   80100      0    1.55e+00    0    1.08e+00
2006 03 06  2220    53800   80400      0    1.55e+00    0    1.10e+00
2006 03 06  2225    53800   80700      0    1.53e+00    0    1.08e+00
2006 03 06  2230    53800   81000      0    1.52e+00    0    1.06e+00
2006 03 06  2235    53800   81300      0    1.54e+00    0    1.08e+00
2006 03 06  2240    53800   81600      0    1.52e+00    0    1.07e+00
2006 03 06  2245    53800   81900      0    1.54e+00    0    1.07e+00
2006 03 06  2250    53800   82200      0    1.52e+00    0    1.07e+00
2006 03 06  2255    53800   82500      0    1.50e+00    0    1.06e+00
2006 03 06  2300    53800   82800      0    1.51e+00    0    1.06e+00
2006 03 06  2305    53800   83100      0    1.52e+00    0    1.06e+00
2006 03 06  2310    53800   83400      0    1.55e+00    0    1.08e+00
2006 03 06  2315    53800   83700      0    1.52e+00    0    1.06e+00
2006 03 06  2320    53800   84000      0    1.50e+00    0    1.05e+00
2006 03 06  2325    53800   84300      0    1.57e+00    0    1.11e+00
2006 03 06  2330    53800   84600      0    1.50e+00    0    1.04e+00
2006 03 06  2335    53800   84900      0    1.54e+00    0    1.09e+00
2006 03 06  2340    53800   85200      0    1.55e+00    0    1.09e+00
2006 03 06  2345    53800   85500      0    1.50e+00    0    1.07e+00
2006 03 06  2350    53800   85800      0    1.54e+00    0    1.08e+00
2006 03 06  2355    53800   86100      0    1.49e+00    0    1.04e+00
