:Data_list: 20060505_ace_sis_5m.txt
:Created: 2006 May 06 0011 UT
# Prepared by the U.S. Dept. of Commerce, NOAA, Space Environment Center.
# Please send comments and suggestions to SEC.Webmaster@noaa.gov 
# 
# Units: proton flux p/cs2-sec-ster
# Status(S): 0 = nominal data, 1 to 8 = bad data record, 9 = no data
# Missing data values: -1.00e+05
# Source: ACE Satellite - Solar Isotope Spectrometer
#
# 5-minute averaged Real-time Integral Flux of High-energy Solar Protons
# 
#                 Modified Seconds
# UT Date   Time   Julian  of the      ---- Integral Proton Flux ----
# YR MO DA  HHMM     Day     Day       S    > 10 MeV    S    > 30 MeV
#--------------------------------------------------------------------
2006 05 05  0000    53860       0      0    1.61e+00    0    1.12e+00
2006 05 05  0005    53860     300      0    1.64e+00    0    1.15e+00
2006 05 05  0010    53860     600      0    1.68e+00    0    1.19e+00
2006 05 05  0015    53860     900      0    1.59e+00    0    1.11e+00
2006 05 05  0020    53860    1200      0    1.61e+00    0    1.13e+00
2006 05 05  0025    53860    1500      0    1.64e+00    0    1.15e+00
2006 05 05  0030    53860    1800      0    1.60e+00    0    1.12e+00
2006 05 05  0035    53860    2100      0    1.61e+00    0    1.13e+00
2006 05 05  0040    53860    2400      0    1.59e+00    0    1.11e+00
2006 05 05  0045    53860    2700      0    1.62e+00    0    1.13e+00
2006 05 05  0050    53860    3000      0    1.62e+00    0    1.15e+00
2006 05 05  0055    53860    3300      0    1.59e+00    0    1.12e+00
2006 05 05  0100    53860    3600      0    1.60e+00    0    1.14e+00
2006 05 05  0105    53860    3900      0    1.60e+00    0    1.13e+00
2006 05 05  0110    53860    4200      0    1.58e+00    0    1.09e+00
2006 05 05  0115    53860    4500      0    1.65e+00    0    1.16e+00
2006 05 05  0120    53860    4800      0    1.62e+00    0    1.13e+00
2006 05 05  0125    53860    5100      0    1.61e+00    0    1.13e+00
2006 05 05  0130    53860    5400      0    1.60e+00    0    1.12e+00
2006 05 05  0135    53860    5700      0    1.64e+00    0    1.15e+00
2006 05 05  0140    53860    6000      0    1.60e+00    0    1.12e+00
2006 05 05  0145    53860    6300      0    1.65e+00    0    1.16e+00
2006 05 05  0150    53860    6600      0    1.61e+00    0    1.13e+00
2006 05 05  0155    53860    6900      0    1.62e+00    0    1.13e+00
2006 05 05  0200    53860    7200      0    1.62e+00    0    1.15e+00
2006 05 05  0205    53860    7500      0    1.59e+00    0    1.10e+00
2006 05 05  0210    53860    7800      0    1.64e+00    0    1.15e+00
2006 05 05  0215    53860    8100      0    1.62e+00    0    1.13e+00
2006 05 05  0220    53860    8400      0    1.59e+00    0    1.12e+00
2006 05 05  0225    53860    8700      0    1.61e+00    0    1.14e+00
2006 05 05  0230    53860    9000      0    1.59e+00    0    1.11e+00
2006 05 05  0235    53860    9300      0    1.59e+00    0    1.12e+00
2006 05 05  0240    53860    9600      0    1.63e+00    0    1.14e+00
2006 05 05  0245    53860    9900      0    1.58e+00    0    1.11e+00
2006 05 05  0250    53860   10200      0    1.60e+00    0    1.12e+00
2006 05 05  0255    53860   10500      0    1.62e+00    0    1.14e+00
2006 05 05  0300    53860   10800      0    1.58e+00    0    1.11e+00
2006 05 05  0305    53860   11100      0    1.62e+00    0    1.14e+00
2006 05 05  0310    53860   11400      0    1.62e+00    0    1.14e+00
2006 05 05  0315    53860   11700      0    1.58e+00    0    1.10e+00
2006 05 05  0320    53860   12000      0    1.61e+00    0    1.14e+00
2006 05 05  0325    53860   12300      0    1.62e+00    0    1.14e+00
2006 05 05  0330    53860   12600      0    1.59e+00    0    1.12e+00
2006 05 05  0335    53860   12900      0    1.62e+00    0    1.15e+00
2006 05 05  0340    53860   13200      0    1.64e+00    0    1.16e+00
2006 05 05  0345    53860   13500      0    1.63e+00    0    1.14e+00
2006 05 05  0350    53860   13800      0    1.64e+00    0    1.15e+00
2006 05 05  0355    53860   14100      0    1.61e+00    0    1.13e+00
2006 05 05  0400    53860   14400      0    1.58e+00    0    1.10e+00
2006 05 05  0405    53860   14700      0    1.61e+00    0    1.13e+00
2006 05 05  0410    53860   15000      0    1.60e+00    0    1.13e+00
2006 05 05  0415    53860   15300      0    1.58e+00    0    1.11e+00
2006 05 05  0420    53860   15600      0    1.60e+00    0    1.11e+00
2006 05 05  0425    53860   15900      0    1.65e+00    0    1.15e+00
2006 05 05  0430    53860   16200      0    1.62e+00    0    1.15e+00
2006 05 05  0435    53860   16500      0    1.61e+00    0    1.13e+00
2006 05 05  0440    53860   16800      0    1.62e+00    0    1.12e+00
2006 05 05  0445    53860   17100      0    1.62e+00    0    1.14e+00
2006 05 05  0450    53860   17400      0    1.61e+00    0    1.13e+00
2006 05 05  0455    53860   17700      0    1.63e+00    0    1.15e+00
2006 05 05  0500    53860   18000      0    1.63e+00    0    1.14e+00
2006 05 05  0505    53860   18300      0    1.63e+00    0    1.15e+00
2006 05 05  0510    53860   18600      0    1.61e+00    0    1.12e+00
2006 05 05  0515    53860   18900      0    1.59e+00    0    1.11e+00
2006 05 05  0520    53860   19200      0    1.64e+00    0    1.15e+00
2006 05 05  0525    53860   19500      0    1.63e+00    0    1.15e+00
2006 05 05  0530    53860   19800      0    1.61e+00    0    1.14e+00
2006 05 05  0535    53860   20100      0    1.60e+00    0    1.12e+00
2006 05 05  0540    53860   20400      0    1.60e+00    0    1.11e+00
2006 05 05  0545    53860   20700      0    1.66e+00    0    1.17e+00
2006 05 05  0550    53860   21000      0    1.62e+00    0    1.13e+00
2006 05 05  0555    53860   21300      0    1.63e+00    0    1.14e+00
2006 05 05  0600    53860   21600      0    1.59e+00    0    1.12e+00
2006 05 05  0605    53860   21900      0    1.66e+00    0    1.16e+00
2006 05 05  0610    53860   22200      0    1.62e+00    0    1.13e+00
2006 05 05  0615    53860   22500      0    1.63e+00    0    1.14e+00
2006 05 05  0620    53860   22800      0    1.65e+00    0    1.16e+00
2006 05 05  0625    53860   23100      0    1.60e+00    0    1.12e+00
2006 05 05  0630    53860   23400      0    1.60e+00    0    1.13e+00
2006 05 05  0635    53860   23700      0    1.63e+00    0    1.14e+00
2006 05 05  0640    53860   24000      0    1.61e+00    0    1.15e+00
2006 05 05  0645    53860   24300      0    1.62e+00    0    1.14e+00
2006 05 05  0650    53860   24600      0    1.61e+00    0    1.12e+00
2006 05 05  0655    53860   24900      0    1.60e+00    0    1.13e+00
2006 05 05  0700    53860   25200      0    1.63e+00    0    1.13e+00
2006 05 05  0705    53860   25500      0    1.62e+00    0    1.13e+00
2006 05 05  0710    53860   25800      0    1.59e+00    0    1.12e+00
2006 05 05  0715    53860   26100      0    1.63e+00    0    1.14e+00
2006 05 05  0720    53860   26400      0    1.66e+00    0    1.17e+00
2006 05 05  0725    53860   26700      0    1.59e+00    0    1.13e+00
2006 05 05  0730    53860   27000      0    1.61e+00    0    1.13e+00
2006 05 05  0735    53860   27300      0    1.63e+00    0    1.14e+00
2006 05 05  0740    53860   27600      0    1.61e+00    0    1.13e+00
2006 05 05  0745    53860   27900      0    1.58e+00    0    1.11e+00
2006 05 05  0750    53860   28200      0    1.64e+00    0    1.15e+00
2006 05 05  0755    53860   28500      0    1.60e+00    0    1.13e+00
2006 05 05  0800    53860   28800      0    1.60e+00    0    1.12e+00
2006 05 05  0805    53860   29100      0    1.62e+00    0    1.14e+00
2006 05 05  0810    53860   29400      0    1.64e+00    0    1.16e+00
2006 05 05  0815    53860   29700      0    1.65e+00    0    1.17e+00
2006 05 05  0820    53860   30000      0    1.63e+00    0    1.15e+00
2006 05 05  0825    53860   30300      0    1.59e+00    0    1.11e+00
2006 05 05  0830    53860   30600      0    1.59e+00    0    1.12e+00
2006 05 05  0835    53860   30900      0    1.64e+00    0    1.15e+00
2006 05 05  0840    53860   31200      0    1.60e+00    0    1.12e+00
2006 05 05  0845    53860   31500      0    1.62e+00    0    1.15e+00
2006 05 05  0850    53860   31800      0    1.61e+00    0    1.14e+00
2006 05 05  0855    53860   32100      0    1.61e+00    0    1.12e+00
2006 05 05  0900    53860   32400      0    1.59e+00    0    1.12e+00
2006 05 05  0905    53860   32700      0    1.61e+00    0    1.13e+00
2006 05 05  0910    53860   33000      0    1.60e+00    0    1.12e+00
2006 05 05  0915    53860   33300      0    1.61e+00    0    1.13e+00
2006 05 05  0920    53860   33600      0    1.62e+00    0    1.14e+00
2006 05 05  0925    53860   33900      0    1.59e+00    0    1.11e+00
2006 05 05  0930    53860   34200      0    1.60e+00    0    1.12e+00
2006 05 05  0935    53860   34500      0    1.61e+00    0    1.12e+00
2006 05 05  0940    53860   34800      0    1.63e+00    0    1.15e+00
2006 05 05  0945    53860   35100      0    1.60e+00    0    1.11e+00
2006 05 05  0950    53860   35400      0    1.60e+00    0    1.12e+00
2006 05 05  0955    53860   35700      0    1.55e+00    0    1.08e+00
2006 05 05  1000    53860   36000      0    1.61e+00    0    1.13e+00
2006 05 05  1005    53860   36300      0    1.60e+00    0    1.12e+00
2006 05 05  1010    53860   36600      0    1.61e+00    0    1.13e+00
2006 05 05  1015    53860   36900      0    1.61e+00    0    1.13e+00
2006 05 05  1020    53860   37200      0    1.62e+00    0    1.14e+00
2006 05 05  1025    53860   37500      0    1.56e+00    0    1.10e+00
2006 05 05  1030    53860   37800      0    1.61e+00    0    1.14e+00
2006 05 05  1035    53860   38100      0    1.61e+00    0    1.12e+00
2006 05 05  1040    53860   38400      0    1.60e+00    0    1.14e+00
2006 05 05  1045    53860   38700      0    1.56e+00    0    1.09e+00
2006 05 05  1050    53860   39000      0    1.63e+00    0    1.15e+00
2006 05 05  1055    53860   39300      0    1.56e+00    0    1.10e+00
2006 05 05  1100    53860   39600      0    1.62e+00    0    1.13e+00
2006 05 05  1105    53860   39900      0    1.60e+00    0    1.11e+00
2006 05 05  1110    53860   40200      0    1.61e+00    0    1.12e+00
2006 05 05  1115    53860   40500      0    1.60e+00    0    1.11e+00
2006 05 05  1120    53860   40800      0    1.59e+00    0    1.12e+00
2006 05 05  1125    53860   41100      0    1.56e+00    0    1.08e+00
2006 05 05  1130    53860   41400      0    1.54e+00    0    1.07e+00
2006 05 05  1135    53860   41700      0    1.59e+00    0    1.11e+00
2006 05 05  1140    53860   42000      0    1.61e+00    0    1.13e+00
2006 05 05  1145    53860   42300      0    1.67e+00    0    1.18e+00
2006 05 05  1150    53860   42600      0    1.57e+00    0    1.10e+00
2006 05 05  1155    53860   42900      0    1.62e+00    0    1.14e+00
2006 05 05  1200    53860   43200      0    1.60e+00    0    1.12e+00
2006 05 05  1205    53860   43500      0    1.59e+00    0    1.11e+00
2006 05 05  1210    53860   43800      0    1.55e+00    0    1.09e+00
2006 05 05  1215    53860   44100      0    1.56e+00    0    1.09e+00
2006 05 05  1220    53860   44400      0    1.58e+00    0    1.10e+00
2006 05 05  1225    53860   44700      0    1.58e+00    0    1.11e+00
2006 05 05  1230    53860   45000      0    1.63e+00    0    1.14e+00
2006 05 05  1235    53860   45300      0    1.60e+00    0    1.13e+00
2006 05 05  1240    53860   45600      0    1.61e+00    0    1.12e+00
2006 05 05  1245    53860   45900      0    1.61e+00    0    1.13e+00
2006 05 05  1250    53860   46200      0    1.62e+00    0    1.13e+00
2006 05 05  1255    53860   46500      0    1.61e+00    0    1.13e+00
2006 05 05  1300    53860   46800      0    1.61e+00    0    1.12e+00
2006 05 05  1305    53860   47100      0    1.60e+00    0    1.12e+00
2006 05 05  1310    53860   47400      0    1.61e+00    0    1.14e+00
2006 05 05  1315    53860   47700      0    1.60e+00    0    1.12e+00
2006 05 05  1320    53860   48000      0    1.58e+00    0    1.11e+00
2006 05 05  1325    53860   48300      0    1.61e+00    0    1.14e+00
2006 05 05  1330    53860   48600      0    1.57e+00    0    1.11e+00
2006 05 05  1335    53860   48900      0    1.60e+00    0    1.12e+00
2006 05 05  1340    53860   49200      0    1.63e+00    0    1.13e+00
2006 05 05  1345    53860   49500      0    1.57e+00    0    1.10e+00
2006 05 05  1350    53860   49800      0    1.60e+00    0    1.11e+00
2006 05 05  1355    53860   50100      0    1.59e+00    0    1.12e+00
2006 05 05  1400    53860   50400      0    1.58e+00    0    1.10e+00
2006 05 05  1405    53860   50700      0    1.61e+00    0    1.12e+00
2006 05 05  1410    53860   51000      0    1.58e+00    0    1.10e+00
2006 05 05  1415    53860   51300      0    1.60e+00    0    1.11e+00
2006 05 05  1420    53860   51600      0    1.61e+00    0    1.14e+00
2006 05 05  1425    53860   51900      0    1.61e+00    0    1.12e+00
2006 05 05  1430    53860   52200      0    1.58e+00    0    1.10e+00
2006 05 05  1435    53860   52500      0    1.61e+00    0    1.14e+00
2006 05 05  1440    53860   52800      0    1.60e+00    0    1.12e+00
2006 05 05  1445    53860   53100      0    1.62e+00    0    1.12e+00
2006 05 05  1450    53860   53400      0    1.57e+00    0    1.10e+00
2006 05 05  1455    53860   53700      0    1.61e+00    0    1.11e+00
2006 05 05  1500    53860   54000      0    1.64e+00    0    1.13e+00
2006 05 05  1505    53860   54300      0    1.64e+00    0    1.15e+00
2006 05 05  1510    53860   54600      0    1.59e+00    0    1.12e+00
2006 05 05  1515    53860   54900      0    1.60e+00    0    1.11e+00
2006 05 05  1520    53860   55200      0    1.62e+00    0    1.15e+00
2006 05 05  1525    53860   55500      0    1.62e+00    0    1.13e+00
2006 05 05  1530    53860   55800      0    1.61e+00    0    1.13e+00
2006 05 05  1535    53860   56100      0    1.62e+00    0    1.14e+00
2006 05 05  1540    53860   56400      0    1.60e+00    0    1.13e+00
2006 05 05  1545    53860   56700      0    1.61e+00    0    1.12e+00
2006 05 05  1550    53860   57000      0    1.61e+00    0    1.14e+00
2006 05 05  1555    53860   57300      0    1.63e+00    0    1.15e+00
2006 05 05  1600    53860   57600      0    1.56e+00    0    1.09e+00
2006 05 05  1605    53860   57900      0    1.56e+00    0    1.10e+00
2006 05 05  1610    53860   58200      0    1.62e+00    0    1.13e+00
2006 05 05  1615    53860   58500      0    1.61e+00    0    1.12e+00
2006 05 05  1620    53860   58800      0    1.64e+00    0    1.15e+00
2006 05 05  1625    53860   59100      0    1.61e+00    0    1.13e+00
2006 05 05  1630    53860   59400      0    1.61e+00    0    1.13e+00
2006 05 05  1635    53860   59700      0    1.57e+00    0    1.10e+00
2006 05 05  1640    53860   60000      0    1.61e+00    0    1.14e+00
2006 05 05  1645    53860   60300      0    1.60e+00    0    1.12e+00
2006 05 05  1650    53860   60600      0    1.62e+00    0    1.13e+00
2006 05 05  1655    53860   60900      0    1.58e+00    0    1.11e+00
2006 05 05  1700    53860   61200      0    1.60e+00    0    1.14e+00
2006 05 05  1705    53860   61500      0    1.62e+00    0    1.15e+00
2006 05 05  1710    53860   61800      0    1.58e+00    0    1.11e+00
2006 05 05  1715    53860   62100      0    1.56e+00    0    1.08e+00
2006 05 05  1720    53860   62400      0    1.62e+00    0    1.14e+00
2006 05 05  1725    53860   62700      0    1.61e+00    0    1.13e+00
2006 05 05  1730    53860   63000      0    1.61e+00    0    1.12e+00
2006 05 05  1735    53860   63300      0    1.58e+00    0    1.11e+00
2006 05 05  1740    53860   63600      0    1.60e+00    0    1.14e+00
2006 05 05  1745    53860   63900      0    1.60e+00    0    1.12e+00
2006 05 05  1750    53860   64200      0    1.59e+00    0    1.12e+00
2006 05 05  1755    53860   64500      0    1.59e+00    0    1.12e+00
2006 05 05  1800    53860   64800      0    1.61e+00    0    1.11e+00
2006 05 05  1805    53860   65100      0    1.57e+00    0    1.10e+00
2006 05 05  1810    53860   65400      0    1.63e+00    0    1.14e+00
2006 05 05  1815    53860   65700      0    1.63e+00    0    1.14e+00
2006 05 05  1820    53860   66000      0    1.66e+00    0    1.17e+00
2006 05 05  1825    53860   66300      0    1.60e+00    0    1.12e+00
2006 05 05  1830    53860   66600      0    1.59e+00    0    1.11e+00
2006 05 05  1835    53860   66900      0    1.59e+00    0    1.11e+00
2006 05 05  1840    53860   67200      0    1.60e+00    0    1.12e+00
2006 05 05  1845    53860   67500      0    1.60e+00    0    1.12e+00
2006 05 05  1850    53860   67800      0    1.59e+00    0    1.13e+00
2006 05 05  1855    53860   68100      0    1.58e+00    0    1.10e+00
2006 05 05  1900    53860   68400      0    1.59e+00    0    1.12e+00
2006 05 05  1905    53860   68700      0    1.61e+00    0    1.13e+00
2006 05 05  1910    53860   69000      0    1.57e+00    0    1.11e+00
2006 05 05  1915    53860   69300      0    1.65e+00    0    1.16e+00
2006 05 05  1920    53860   69600      0    1.62e+00    0    1.13e+00
2006 05 05  1925    53860   69900      0    1.59e+00    0    1.12e+00
2006 05 05  1930    53860   70200      0    1.58e+00    0    1.11e+00
2006 05 05  1935    53860   70500      0    1.63e+00    0    1.14e+00
2006 05 05  1940    53860   70800      0    1.63e+00    0    1.14e+00
2006 05 05  1945    53860   71100      0    1.57e+00    0    1.11e+00
2006 05 05  1950    53860   71400      0    1.58e+00    0    1.12e+00
2006 05 05  1955    53860   71700      0    1.62e+00    0    1.14e+00
2006 05 05  2000    53860   72000      0    1.61e+00    0    1.11e+00
2006 05 05  2005    53860   72300      0    1.61e+00    0    1.13e+00
2006 05 05  2010    53860   72600      0    1.58e+00    0    1.09e+00
2006 05 05  2015    53860   72900      0    1.60e+00    0    1.13e+00
2006 05 05  2020    53860   73200      0    1.58e+00    0    1.11e+00
2006 05 05  2025    53860   73500      0    1.60e+00    0    1.13e+00
2006 05 05  2030    53860   73800      0    1.63e+00    0    1.15e+00
2006 05 05  2035    53860   74100      0    1.59e+00    0    1.12e+00
2006 05 05  2040    53860   74400      0    1.62e+00    0    1.14e+00
2006 05 05  2045    53860   74700      0    1.58e+00    0    1.11e+00
2006 05 05  2050    53860   75000      0    1.59e+00    0    1.11e+00
2006 05 05  2055    53860   75300      0    1.57e+00    0    1.11e+00
2006 05 05  2100    53860   75600      0    1.61e+00    0    1.15e+00
2006 05 05  2105    53860   75900      0    1.59e+00    0    1.11e+00
2006 05 05  2110    53860   76200      0    1.64e+00    0    1.15e+00
2006 05 05  2115    53860   76500      0    1.63e+00    0    1.16e+00
2006 05 05  2120    53860   76800      0    1.62e+00    0    1.13e+00
2006 05 05  2125    53860   77100      0    1.60e+00    0    1.11e+00
2006 05 05  2130    53860   77400      0    1.63e+00    0    1.14e+00
2006 05 05  2135    53860   77700      0    1.62e+00    0    1.14e+00
2006 05 05  2140    53860   78000      0    1.61e+00    0    1.12e+00
2006 05 05  2145    53860   78300      0    1.67e+00    0    1.18e+00
2006 05 05  2150    53860   78600      0    1.63e+00    0    1.15e+00
2006 05 05  2155    53860   78900      0    1.62e+00    0    1.14e+00
2006 05 05  2200    53860   79200      0    1.66e+00    0    1.18e+00
2006 05 05  2205    53860   79500      0    1.61e+00    0    1.14e+00
2006 05 05  2210    53860   79800      0    1.62e+00    0    1.14e+00
2006 05 05  2215    53860   80100      0    1.61e+00    0    1.14e+00
2006 05 05  2220    53860   80400      0    1.61e+00    0    1.13e+00
2006 05 05  2225    53860   80700      0    1.65e+00    0    1.15e+00
2006 05 05  2230    53860   81000      0    1.59e+00    0    1.12e+00
2006 05 05  2235    53860   81300      0    1.62e+00    0    1.12e+00
2006 05 05  2240    53860   81600      0    1.62e+00    0    1.14e+00
2006 05 05  2245    53860   81900      0    1.58e+00    0    1.11e+00
2006 05 05  2250    53860   82200      0    1.59e+00    0    1.12e+00
2006 05 05  2255    53860   82500      0    1.62e+00    0    1.13e+00
2006 05 05  2300    53860   82800      0    1.62e+00    0    1.14e+00
2006 05 05  2305    53860   83100      0    1.52e+00    0    1.06e+00
2006 05 05  2310    53860   83400      0    1.63e+00    0    1.15e+00
2006 05 05  2315    53860   83700      0    1.61e+00    0    1.13e+00
2006 05 05  2320    53860   84000      0    1.64e+00    0    1.15e+00
2006 05 05  2325    53860   84300      0    1.60e+00    0    1.13e+00
2006 05 05  2330    53860   84600      0    1.60e+00    0    1.13e+00
2006 05 05  2335    53860   84900      0    1.58e+00    0    1.11e+00
2006 05 05  2340    53860   85200      0    1.64e+00    0    1.14e+00
2006 05 05  2345    53860   85500      0    1.61e+00    0    1.14e+00
2006 05 05  2350    53860   85800      0    1.63e+00    0    1.15e+00
2006 05 05  2355    53860   86100      0    1.63e+00    0    1.15e+00
