:Data_list: 20060825_ace_sis_5m.txt
:Created: 2006 Aug 26 0011 UT
# Prepared by the U.S. Dept. of Commerce, NOAA, Space Environment Center.
# Please send comments and suggestions to SEC.Webmaster@noaa.gov 
# 
# Units: proton flux p/cs2-sec-ster
# Status(S): 0 = nominal data, 1 to 8 = bad data record, 9 = no data
# Missing data values: -1.00e+05
# Source: ACE Satellite - Solar Isotope Spectrometer
#
# 5-minute averaged Real-time Integral Flux of High-energy Solar Protons
# 
#                 Modified Seconds
# UT Date   Time   Julian  of the      ---- Integral Proton Flux ----
# YR MO DA  HHMM     Day     Day       S    > 10 MeV    S    > 30 MeV
#--------------------------------------------------------------------
2006 08 25  0000    53972       0      0    1.57e+00    0    1.10e+00
2006 08 25  0005    53972     300      0    1.62e+00    0    1.14e+00
2006 08 25  0010    53972     600      0    1.65e+00    0    1.16e+00
2006 08 25  0015    53972     900      0    1.61e+00    0    1.13e+00
2006 08 25  0020    53972    1200      0    1.59e+00    0    1.13e+00
2006 08 25  0025    53972    1500      0    1.63e+00    0    1.14e+00
2006 08 25  0030    53972    1800      0    1.65e+00    0    1.16e+00
2006 08 25  0035    53972    2100      0    1.63e+00    0    1.15e+00
2006 08 25  0040    53972    2400      0    1.62e+00    0    1.13e+00
2006 08 25  0045    53972    2700      0    1.60e+00    0    1.12e+00
2006 08 25  0050    53972    3000      0    1.62e+00    0    1.14e+00
2006 08 25  0055    53972    3300      0    1.62e+00    0    1.15e+00
2006 08 25  0100    53972    3600      0    1.59e+00    0    1.11e+00
2006 08 25  0105    53972    3900      0    1.60e+00    0    1.12e+00
2006 08 25  0110    53972    4200      0    1.63e+00    0    1.15e+00
2006 08 25  0115    53972    4500      0    1.60e+00    0    1.11e+00
2006 08 25  0120    53972    4800      0    1.65e+00    0    1.16e+00
2006 08 25  0125    53972    5100      0    1.59e+00    0    1.11e+00
2006 08 25  0130    53972    5400      0    1.60e+00    0    1.13e+00
2006 08 25  0135    53972    5700      0    1.62e+00    0    1.13e+00
2006 08 25  0140    53972    6000      0    1.60e+00    0    1.12e+00
2006 08 25  0145    53972    6300      0    1.65e+00    0    1.16e+00
2006 08 25  0150    53972    6600      0    1.60e+00    0    1.13e+00
2006 08 25  0155    53972    6900      0    1.58e+00    0    1.11e+00
2006 08 25  0200    53972    7200      0    1.62e+00    0    1.14e+00
2006 08 25  0205    53972    7500      0    1.62e+00    0    1.13e+00
2006 08 25  0210    53972    7800      0    1.63e+00    0    1.14e+00
2006 08 25  0215    53972    8100      0    1.66e+00    0    1.16e+00
2006 08 25  0220    53972    8400      0    1.63e+00    0    1.14e+00
2006 08 25  0225    53972    8700      0    1.66e+00    0    1.17e+00
2006 08 25  0230    53972    9000      0    1.59e+00    0    1.11e+00
2006 08 25  0235    53972    9300      0    1.60e+00    0    1.12e+00
2006 08 25  0240    53972    9600      0    1.64e+00    0    1.16e+00
2006 08 25  0245    53972    9900      0    1.62e+00    0    1.13e+00
2006 08 25  0250    53972   10200      0    1.62e+00    0    1.14e+00
2006 08 25  0255    53972   10500      0    1.63e+00    0    1.15e+00
2006 08 25  0300    53972   10800      0    1.60e+00    0    1.12e+00
2006 08 25  0305    53972   11100      0    1.66e+00    0    1.16e+00
2006 08 25  0310    53972   11400      0    1.61e+00    0    1.12e+00
2006 08 25  0315    53972   11700      0    1.59e+00    0    1.10e+00
2006 08 25  0320    53972   12000      0    1.63e+00    0    1.14e+00
2006 08 25  0325    53972   12300      0    1.60e+00    0    1.12e+00
2006 08 25  0330    53972   12600      0    1.61e+00    0    1.13e+00
2006 08 25  0335    53972   12900      0    1.63e+00    0    1.14e+00
2006 08 25  0340    53972   13200      0    1.59e+00    0    1.12e+00
2006 08 25  0345    53972   13500      0    1.63e+00    0    1.15e+00
2006 08 25  0350    53972   13800      0    1.60e+00    0    1.11e+00
2006 08 25  0355    53972   14100      0    1.60e+00    0    1.12e+00
2006 08 25  0400    53972   14400      0    1.65e+00    0    1.16e+00
2006 08 25  0405    53972   14700      0    1.62e+00    0    1.14e+00
2006 08 25  0410    53972   15000      0    1.60e+00    0    1.13e+00
2006 08 25  0415    53972   15300      0    1.63e+00    0    1.14e+00
2006 08 25  0420    53972   15600      0    1.64e+00    0    1.14e+00
2006 08 25  0425    53972   15900      0    1.60e+00    0    1.12e+00
2006 08 25  0430    53972   16200      0    1.61e+00    0    1.14e+00
2006 08 25  0435    53972   16500      0    1.63e+00    0    1.14e+00
2006 08 25  0440    53972   16800      0    1.60e+00    0    1.11e+00
2006 08 25  0445    53972   17100      0    1.60e+00    0    1.11e+00
2006 08 25  0450    53972   17400      0    1.60e+00    0    1.13e+00
2006 08 25  0455    53972   17700      0    1.59e+00    0    1.12e+00
2006 08 25  0500    53972   18000      0    1.59e+00    0    1.10e+00
2006 08 25  0505    53972   18300      0    1.61e+00    0    1.13e+00
2006 08 25  0510    53972   18600      0    1.65e+00    0    1.15e+00
2006 08 25  0515    53972   18900      0    1.60e+00    0    1.12e+00
2006 08 25  0520    53972   19200      0    1.62e+00    0    1.14e+00
2006 08 25  0525    53972   19500      0    1.61e+00    0    1.13e+00
2006 08 25  0530    53972   19800      0    1.57e+00    0    1.10e+00
2006 08 25  0535    53972   20100      0    1.60e+00    0    1.11e+00
2006 08 25  0540    53972   20400      0    1.61e+00    0    1.12e+00
2006 08 25  0545    53972   20700      0    1.60e+00    0    1.13e+00
2006 08 25  0550    53972   21000      0    1.61e+00    0    1.14e+00
2006 08 25  0555    53972   21300      0    1.60e+00    0    1.14e+00
2006 08 25  0600    53972   21600      0    1.62e+00    0    1.13e+00
2006 08 25  0605    53972   21900      0    1.62e+00    0    1.12e+00
2006 08 25  0610    53972   22200      0    1.61e+00    0    1.13e+00
2006 08 25  0615    53972   22500      0    1.60e+00    0    1.12e+00
2006 08 25  0620    53972   22800      0    1.62e+00    0    1.14e+00
2006 08 25  0625    53972   23100      0    1.63e+00    0    1.15e+00
2006 08 25  0630    53972   23400      0    1.62e+00    0    1.12e+00
2006 08 25  0635    53972   23700      0    1.63e+00    0    1.15e+00
2006 08 25  0640    53972   24000      0    1.63e+00    0    1.14e+00
2006 08 25  0645    53972   24300      0    1.60e+00    0    1.11e+00
2006 08 25  0650    53972   24600      0    1.59e+00    0    1.11e+00
2006 08 25  0655    53972   24900      0    1.59e+00    0    1.11e+00
2006 08 25  0700    53972   25200      0    1.61e+00    0    1.14e+00
2006 08 25  0705    53972   25500      0    1.61e+00    0    1.14e+00
2006 08 25  0710    53972   25800      0    1.60e+00    0    1.13e+00
2006 08 25  0715    53972   26100      0    1.61e+00    0    1.13e+00
2006 08 25  0720    53972   26400      0    1.62e+00    0    1.14e+00
2006 08 25  0725    53972   26700      0    1.65e+00    0    1.16e+00
2006 08 25  0730    53972   27000      0    1.60e+00    0    1.12e+00
2006 08 25  0735    53972   27300      0    1.59e+00    0    1.12e+00
2006 08 25  0740    53972   27600      0    1.64e+00    0    1.15e+00
2006 08 25  0745    53972   27900      0    1.60e+00    0    1.12e+00
2006 08 25  0750    53972   28200      0    1.63e+00    0    1.15e+00
2006 08 25  0755    53972   28500      0    1.63e+00    0    1.14e+00
2006 08 25  0800    53972   28800      0    1.68e+00    0    1.19e+00
2006 08 25  0805    53972   29100      0    1.62e+00    0    1.13e+00
2006 08 25  0810    53972   29400      0    1.63e+00    0    1.14e+00
2006 08 25  0815    53972   29700      0    1.63e+00    0    1.15e+00
2006 08 25  0820    53972   30000      0    1.64e+00    0    1.15e+00
2006 08 25  0825    53972   30300      0    1.60e+00    0    1.11e+00
2006 08 25  0830    53972   30600      0    1.62e+00    0    1.14e+00
2006 08 25  0835    53972   30900      0    1.60e+00    0    1.11e+00
2006 08 25  0840    53972   31200      0    1.59e+00    0    1.12e+00
2006 08 25  0845    53972   31500      0    1.59e+00    0    1.13e+00
2006 08 25  0850    53972   31800      0    1.64e+00    0    1.16e+00
2006 08 25  0855    53972   32100      0    1.62e+00    0    1.14e+00
2006 08 25  0900    53972   32400      0    1.65e+00    0    1.15e+00
2006 08 25  0905    53972   32700      0    1.65e+00    0    1.17e+00
2006 08 25  0910    53972   33000      0    1.55e+00    0    1.08e+00
2006 08 25  0915    53972   33300      0    1.62e+00    0    1.14e+00
2006 08 25  0920    53972   33600      0    1.63e+00    0    1.14e+00
2006 08 25  0925    53972   33900      0    1.60e+00    0    1.13e+00
2006 08 25  0930    53972   34200      0    1.62e+00    0    1.13e+00
2006 08 25  0935    53972   34500      0    1.59e+00    0    1.11e+00
2006 08 25  0940    53972   34800      0    1.59e+00    0    1.12e+00
2006 08 25  0945    53972   35100      0    1.64e+00    0    1.15e+00
2006 08 25  0950    53972   35400      0    1.61e+00    0    1.12e+00
2006 08 25  0955    53972   35700      0    1.59e+00    0    1.11e+00
2006 08 25  1000    53972   36000      0    1.61e+00    0    1.13e+00
2006 08 25  1005    53972   36300      0    1.61e+00    0    1.13e+00
2006 08 25  1010    53972   36600      0    1.59e+00    0    1.11e+00
2006 08 25  1015    53972   36900      0    1.58e+00    0    1.11e+00
2006 08 25  1020    53972   37200      0    1.66e+00    0    1.16e+00
2006 08 25  1025    53972   37500      0    1.61e+00    0    1.13e+00
2006 08 25  1030    53972   37800      0    1.62e+00    0    1.14e+00
2006 08 25  1035    53972   38100      0    1.61e+00    0    1.13e+00
2006 08 25  1040    53972   38400      0    1.63e+00    0    1.15e+00
2006 08 25  1045    53972   38700      0    1.63e+00    0    1.15e+00
2006 08 25  1050    53972   39000      0    1.58e+00    0    1.11e+00
2006 08 25  1055    53972   39300      0    1.64e+00    0    1.15e+00
2006 08 25  1100    53972   39600      0    1.62e+00    0    1.13e+00
2006 08 25  1105    53972   39900      0    1.66e+00    0    1.17e+00
2006 08 25  1110    53972   40200      0    1.65e+00    0    1.15e+00
2006 08 25  1115    53972   40500      0    1.59e+00    0    1.12e+00
2006 08 25  1120    53972   40800      0    1.63e+00    0    1.14e+00
2006 08 25  1125    53972   41100      0    1.60e+00    0    1.12e+00
2006 08 25  1130    53972   41400      0    1.57e+00    0    1.10e+00
2006 08 25  1135    53972   41700      0    1.61e+00    0    1.12e+00
2006 08 25  1140    53972   42000      0    1.60e+00    0    1.13e+00
2006 08 25  1145    53972   42300      0    1.58e+00    0    1.10e+00
2006 08 25  1150    53972   42600      0    1.62e+00    0    1.13e+00
2006 08 25  1155    53972   42900      0    1.62e+00    0    1.13e+00
2006 08 25  1200    53972   43200      0    1.59e+00    0    1.10e+00
2006 08 25  1205    53972   43500      0    1.64e+00    0    1.15e+00
2006 08 25  1210    53972   43800      0    1.62e+00    0    1.14e+00
2006 08 25  1215    53972   44100      0    1.64e+00    0    1.14e+00
2006 08 25  1220    53972   44400      0    1.60e+00    0    1.14e+00
2006 08 25  1225    53972   44700      0    1.64e+00    0    1.15e+00
2006 08 25  1230    53972   45000      0    1.65e+00    0    1.14e+00
2006 08 25  1235    53972   45300      0    1.62e+00    0    1.14e+00
2006 08 25  1240    53972   45600      0    1.64e+00    0    1.15e+00
2006 08 25  1245    53972   45900      0    1.61e+00    0    1.14e+00
2006 08 25  1250    53972   46200      0    1.64e+00    0    1.14e+00
2006 08 25  1255    53972   46500      0    1.60e+00    0    1.13e+00
2006 08 25  1300    53972   46800      0    1.64e+00    0    1.15e+00
2006 08 25  1305    53972   47100      0    1.60e+00    0    1.12e+00
2006 08 25  1310    53972   47400      0    1.62e+00    0    1.13e+00
2006 08 25  1315    53972   47700      0    1.64e+00    0    1.15e+00
2006 08 25  1320    53972   48000      0    1.62e+00    0    1.13e+00
2006 08 25  1325    53972   48300      0    1.61e+00    0    1.12e+00
2006 08 25  1330    53972   48600      0    1.66e+00    0    1.16e+00
2006 08 25  1335    53972   48900      0    1.62e+00    0    1.14e+00
2006 08 25  1340    53972   49200      0    1.63e+00    0    1.16e+00
2006 08 25  1345    53972   49500      0    1.64e+00    0    1.15e+00
2006 08 25  1350    53972   49800      0    1.58e+00    0    1.11e+00
2006 08 25  1355    53972   50100      0    1.61e+00    0    1.14e+00
2006 08 25  1400    53972   50400      0    1.60e+00    0    1.12e+00
2006 08 25  1405    53972   50700      0    1.65e+00    0    1.14e+00
2006 08 25  1410    53972   51000      0    1.62e+00    0    1.13e+00
2006 08 25  1415    53972   51300      0    1.67e+00    0    1.17e+00
2006 08 25  1420    53972   51600      0    1.62e+00    0    1.15e+00
2006 08 25  1425    53972   51900      0    1.65e+00    0    1.15e+00
2006 08 25  1430    53972   52200      0    1.62e+00    0    1.13e+00
2006 08 25  1435    53972   52500      0    1.62e+00    0    1.13e+00
2006 08 25  1440    53972   52800      0    1.66e+00    0    1.16e+00
2006 08 25  1445    53972   53100      0    1.66e+00    0    1.16e+00
2006 08 25  1450    53972   53400      0    1.62e+00    0    1.13e+00
2006 08 25  1455    53972   53700      0    1.62e+00    0    1.13e+00
2006 08 25  1500    53972   54000      0    1.62e+00    0    1.14e+00
2006 08 25  1505    53972   54300      0    1.60e+00    0    1.11e+00
2006 08 25  1510    53972   54600      0    1.67e+00    0    1.18e+00
2006 08 25  1515    53972   54900      0    1.63e+00    0    1.14e+00
2006 08 25  1520    53972   55200      0    1.62e+00    0    1.14e+00
2006 08 25  1525    53972   55500      0    1.63e+00    0    1.14e+00
2006 08 25  1530    53972   55800      0    1.63e+00    0    1.14e+00
2006 08 25  1535    53972   56100      0    1.61e+00    0    1.13e+00
2006 08 25  1540    53972   56400      0    1.60e+00    0    1.13e+00
2006 08 25  1545    53972   56700      0    1.62e+00    0    1.13e+00
2006 08 25  1550    53972   57000      0    1.65e+00    0    1.13e+00
2006 08 25  1555    53972   57300      0    1.68e+00    0    1.19e+00
2006 08 25  1600    53972   57600      0    1.66e+00    0    1.16e+00
2006 08 25  1605    53972   57900      0    1.61e+00    0    1.14e+00
2006 08 25  1610    53972   58200      0    1.65e+00    0    1.16e+00
2006 08 25  1615    53972   58500      0    1.64e+00    0    1.15e+00
2006 08 25  1620    53972   58800      0    1.63e+00    0    1.14e+00
2006 08 25  1625    53972   59100      0    1.62e+00    0    1.14e+00
2006 08 25  1630    53972   59400      0    1.65e+00    0    1.15e+00
2006 08 25  1635    53972   59700      0    1.68e+00    0    1.19e+00
2006 08 25  1640    53972   60000      0    1.62e+00    0    1.14e+00
2006 08 25  1645    53972   60300      0    1.64e+00    0    1.15e+00
2006 08 25  1650    53972   60600      0    1.64e+00    0    1.15e+00
2006 08 25  1655    53972   60900      0    1.67e+00    0    1.17e+00
2006 08 25  1700    53972   61200      0    1.67e+00    0    1.18e+00
2006 08 25  1705    53972   61500      0    1.62e+00    0    1.14e+00
2006 08 25  1710    53972   61800      0    1.66e+00    0    1.17e+00
2006 08 25  1715    53972   62100      0    1.63e+00    0    1.16e+00
2006 08 25  1720    53972   62400      0    1.63e+00    0    1.14e+00
2006 08 25  1725    53972   62700      0    1.59e+00    0    1.11e+00
2006 08 25  1730    53972   63000      0    1.65e+00    0    1.15e+00
2006 08 25  1735    53972   63300      0    1.67e+00    0    1.18e+00
2006 08 25  1740    53972   63600      0    1.60e+00    0    1.12e+00
2006 08 25  1745    53972   63900      0    1.64e+00    0    1.15e+00
2006 08 25  1750    53972   64200      0    1.68e+00    0    1.17e+00
2006 08 25  1755    53972   64500      0    1.65e+00    0    1.16e+00
2006 08 25  1800    53972   64800      0    1.65e+00    0    1.16e+00
2006 08 25  1805    53972   65100      0    1.65e+00    0    1.15e+00
2006 08 25  1810    53972   65400      0    1.66e+00    0    1.17e+00
2006 08 25  1815    53972   65700      0    1.61e+00    0    1.12e+00
2006 08 25  1820    53972   66000      0    1.65e+00    0    1.17e+00
2006 08 25  1825    53972   66300      0    1.65e+00    0    1.15e+00
2006 08 25  1830    53972   66600      0    1.62e+00    0    1.14e+00
2006 08 25  1835    53972   66900      0    1.64e+00    0    1.15e+00
2006 08 25  1840    53972   67200      0    1.62e+00    0    1.14e+00
2006 08 25  1845    53972   67500      0    1.67e+00    0    1.17e+00
2006 08 25  1850    53972   67800      0    1.64e+00    0    1.15e+00
2006 08 25  1855    53972   68100      0    1.63e+00    0    1.13e+00
2006 08 25  1900    53972   68400      0    1.60e+00    0    1.12e+00
2006 08 25  1905    53972   68700      0    1.61e+00    0    1.13e+00
2006 08 25  1910    53972   69000      0    1.65e+00    0    1.16e+00
2006 08 25  1915    53972   69300      0    1.64e+00    0    1.15e+00
2006 08 25  1920    53972   69600      0    1.65e+00    0    1.14e+00
2006 08 25  1925    53972   69900      0    1.63e+00    0    1.16e+00
2006 08 25  1930    53972   70200      0    1.64e+00    0    1.15e+00
2006 08 25  1935    53972   70500      0    1.66e+00    0    1.16e+00
2006 08 25  1940    53972   70800      0    1.65e+00    0    1.16e+00
2006 08 25  1945    53972   71100      0    1.65e+00    0    1.14e+00
2006 08 25  1950    53972   71400      0    1.62e+00    0    1.13e+00
2006 08 25  1955    53972   71700      0    1.62e+00    0    1.14e+00
2006 08 25  2000    53972   72000      0    1.66e+00    0    1.16e+00
2006 08 25  2005    53972   72300      0    1.64e+00    0    1.15e+00
2006 08 25  2010    53972   72600      0    1.66e+00    0    1.15e+00
2006 08 25  2015    53972   72900      0    1.61e+00    0    1.14e+00
2006 08 25  2020    53972   73200      0    1.66e+00    0    1.16e+00
2006 08 25  2025    53972   73500      0    1.65e+00    0    1.15e+00
2006 08 25  2030    53972   73800      0    1.64e+00    0    1.15e+00
2006 08 25  2035    53972   74100      0    1.60e+00    0    1.13e+00
2006 08 25  2040    53972   74400      0    1.60e+00    0    1.13e+00
2006 08 25  2045    53972   74700      0    1.59e+00    0    1.11e+00
2006 08 25  2050    53972   75000      0    1.62e+00    0    1.14e+00
2006 08 25  2055    53972   75300      0    1.60e+00    0    1.12e+00
2006 08 25  2100    53972   75600      0    1.66e+00    0    1.17e+00
2006 08 25  2105    53972   75900      0    1.65e+00    0    1.15e+00
2006 08 25  2110    53972   76200      0    1.63e+00    0    1.15e+00
2006 08 25  2115    53972   76500      0    1.61e+00    0    1.14e+00
2006 08 25  2120    53972   76800      0    1.59e+00    0    1.12e+00
2006 08 25  2125    53972   77100      0    1.62e+00    0    1.13e+00
2006 08 25  2130    53972   77400      0    1.61e+00    0    1.13e+00
2006 08 25  2135    53972   77700      0    1.60e+00    0    1.13e+00
2006 08 25  2140    53972   78000      0    1.54e+00    0    1.07e+00
2006 08 25  2145    53972   78300      0    1.63e+00    0    1.12e+00
2006 08 25  2150    53972   78600      0    1.63e+00    0    1.15e+00
2006 08 25  2155    53972   78900      0    1.62e+00    0    1.14e+00
2006 08 25  2200    53972   79200      0    1.61e+00    0    1.13e+00
2006 08 25  2205    53972   79500      0    1.64e+00    0    1.15e+00
2006 08 25  2210    53972   79800      0    1.61e+00    0    1.13e+00
2006 08 25  2215    53972   80100      0    1.63e+00    0    1.15e+00
2006 08 25  2220    53972   80400      0    1.66e+00    0    1.17e+00
2006 08 25  2225    53972   80700      0    1.63e+00    0    1.14e+00
2006 08 25  2230    53972   81000      0    1.65e+00    0    1.15e+00
2006 08 25  2235    53972   81300      0    1.64e+00    0    1.15e+00
2006 08 25  2240    53972   81600      0    1.61e+00    0    1.13e+00
2006 08 25  2245    53972   81900      0    1.64e+00    0    1.14e+00
2006 08 25  2250    53972   82200      0    1.65e+00    0    1.14e+00
2006 08 25  2255    53972   82500      0    1.61e+00    0    1.14e+00
2006 08 25  2300    53972   82800      0    1.63e+00    0    1.14e+00
2006 08 25  2305    53972   83100      0    1.61e+00    0    1.12e+00
2006 08 25  2310    53972   83400      0    1.59e+00    0    1.11e+00
2006 08 25  2315    53972   83700      0    1.64e+00    0    1.14e+00
2006 08 25  2320    53972   84000      0    1.68e+00    0    1.18e+00
2006 08 25  2325    53972   84300      0    1.60e+00    0    1.12e+00
2006 08 25  2330    53972   84600      0    1.62e+00    0    1.14e+00
2006 08 25  2335    53972   84900      0    1.66e+00    0    1.16e+00
2006 08 25  2340    53972   85200      0    1.64e+00    0    1.14e+00
2006 08 25  2345    53972   85500      0    1.61e+00    0    1.13e+00
2006 08 25  2350    53972   85800      0    1.64e+00    0    1.16e+00
2006 08 25  2355    53972   86100      0    1.63e+00    0    1.14e+00
