:Data_list: 20060404_ace_sis_5m.txt
:Created: 2006 Apr 05 0011 UT
# Prepared by the U.S. Dept. of Commerce, NOAA, Space Environment Center.
# Please send comments and suggestions to SEC.Webmaster@noaa.gov 
# 
# Units: proton flux p/cs2-sec-ster
# Status(S): 0 = nominal data, 1 to 8 = bad data record, 9 = no data
# Missing data values: -1.00e+05
# Source: ACE Satellite - Solar Isotope Spectrometer
#
# 5-minute averaged Real-time Integral Flux of High-energy Solar Protons
# 
#                 Modified Seconds
# UT Date   Time   Julian  of the      ---- Integral Proton Flux ----
# YR MO DA  HHMM     Day     Day       S    > 10 MeV    S    > 30 MeV
#--------------------------------------------------------------------
2006 04 04  0000    53829       0      0    1.64e+00    0    1.15e+00
2006 04 04  0005    53829     300      0    1.59e+00    0    1.12e+00
2006 04 04  0010    53829     600      0    1.60e+00    0    1.12e+00
2006 04 04  0015    53829     900      0    1.61e+00    0    1.13e+00
2006 04 04  0020    53829    1200      0    1.62e+00    0    1.14e+00
2006 04 04  0025    53829    1500      0    1.60e+00    0    1.12e+00
2006 04 04  0030    53829    1800      0    1.62e+00    0    1.13e+00
2006 04 04  0035    53829    2100      0    1.63e+00    0    1.15e+00
2006 04 04  0040    53829    2400      0    1.61e+00    0    1.12e+00
2006 04 04  0045    53829    2700      0    1.60e+00    0    1.12e+00
2006 04 04  0050    53829    3000      0    1.57e+00    0    1.09e+00
2006 04 04  0055    53829    3300      0    1.59e+00    0    1.11e+00
2006 04 04  0100    53829    3600      0    1.56e+00    0    1.10e+00
2006 04 04  0105    53829    3900      0    1.61e+00    0    1.13e+00
2006 04 04  0110    53829    4200      0    1.61e+00    0    1.14e+00
2006 04 04  0115    53829    4500      0    1.63e+00    0    1.14e+00
2006 04 04  0120    53829    4800      0    1.63e+00    0    1.13e+00
2006 04 04  0125    53829    5100      0    1.61e+00    0    1.14e+00
2006 04 04  0130    53829    5400      0    1.63e+00    0    1.15e+00
2006 04 04  0135    53829    5700      0    1.61e+00    0    1.12e+00
2006 04 04  0140    53829    6000      0    1.61e+00    0    1.12e+00
2006 04 04  0145    53829    6300      0    1.63e+00    0    1.15e+00
2006 04 04  0150    53829    6600      0    1.63e+00    0    1.14e+00
2006 04 04  0155    53829    6900      0    1.63e+00    0    1.15e+00
2006 04 04  0200    53829    7200      0    1.62e+00    0    1.14e+00
2006 04 04  0205    53829    7500      0    1.59e+00    0    1.13e+00
2006 04 04  0210    53829    7800      0    1.60e+00    0    1.12e+00
2006 04 04  0215    53829    8100      0    1.64e+00    0    1.16e+00
2006 04 04  0220    53829    8400      0    1.61e+00    0    1.13e+00
2006 04 04  0225    53829    8700      0    1.60e+00    0    1.13e+00
2006 04 04  0230    53829    9000      0    1.62e+00    0    1.15e+00
2006 04 04  0235    53829    9300      0    1.70e+00    0    1.21e+00
2006 04 04  0240    53829    9600      0    1.64e+00    0    1.16e+00
2006 04 04  0245    53829    9900      0    1.61e+00    0    1.14e+00
2006 04 04  0250    53829   10200      0    1.60e+00    0    1.12e+00
2006 04 04  0255    53829   10500      0    1.64e+00    0    1.17e+00
2006 04 04  0300    53829   10800      0    1.60e+00    0    1.13e+00
2006 04 04  0305    53829   11100      0    1.60e+00    0    1.12e+00
2006 04 04  0310    53829   11400      0    1.62e+00    0    1.14e+00
2006 04 04  0315    53829   11700      0    1.62e+00    0    1.14e+00
2006 04 04  0320    53829   12000      0    1.60e+00    0    1.11e+00
2006 04 04  0325    53829   12300      0    1.59e+00    0    1.12e+00
2006 04 04  0330    53829   12600      0    1.57e+00    0    1.10e+00
2006 04 04  0335    53829   12900      0    1.63e+00    0    1.15e+00
2006 04 04  0340    53829   13200      0    1.63e+00    0    1.15e+00
2006 04 04  0345    53829   13500      0    1.63e+00    0    1.16e+00
2006 04 04  0350    53829   13800      0    1.53e+00    0    1.07e+00
2006 04 04  0355    53829   14100      0    1.61e+00    0    1.12e+00
2006 04 04  0400    53829   14400      0    1.59e+00    0    1.12e+00
2006 04 04  0405    53829   14700      0    1.60e+00    0    1.12e+00
2006 04 04  0410    53829   15000      0    1.61e+00    0    1.12e+00
2006 04 04  0415    53829   15300      0    1.62e+00    0    1.13e+00
2006 04 04  0420    53829   15600      0    1.63e+00    0    1.14e+00
2006 04 04  0425    53829   15900      0    1.61e+00    0    1.13e+00
2006 04 04  0430    53829   16200      0    1.60e+00    0    1.13e+00
2006 04 04  0435    53829   16500      0    1.60e+00    0    1.13e+00
2006 04 04  0440    53829   16800      0    1.58e+00    0    1.09e+00
2006 04 04  0445    53829   17100      0    1.63e+00    0    1.14e+00
2006 04 04  0450    53829   17400      0    1.58e+00    0    1.12e+00
2006 04 04  0455    53829   17700      0    1.60e+00    0    1.12e+00
2006 04 04  0500    53829   18000      0    1.60e+00    0    1.12e+00
2006 04 04  0505    53829   18300      0    1.57e+00    0    1.10e+00
2006 04 04  0510    53829   18600      0    1.62e+00    0    1.14e+00
2006 04 04  0515    53829   18900      0    1.60e+00    0    1.13e+00
2006 04 04  0520    53829   19200      0    1.57e+00    0    1.10e+00
2006 04 04  0525    53829   19500      0    1.61e+00    0    1.13e+00
2006 04 04  0530    53829   19800      0    1.59e+00    0    1.11e+00
2006 04 04  0535    53829   20100      0    1.62e+00    0    1.14e+00
2006 04 04  0540    53829   20400      0    1.57e+00    0    1.10e+00
2006 04 04  0545    53829   20700      0    1.59e+00    0    1.12e+00
2006 04 04  0550    53829   21000      0    1.57e+00    0    1.10e+00
2006 04 04  0555    53829   21300      0    1.60e+00    0    1.13e+00
2006 04 04  0600    53829   21600      0    1.60e+00    0    1.11e+00
2006 04 04  0605    53829   21900      0    1.58e+00    0    1.12e+00
2006 04 04  0610    53829   22200      0    1.57e+00    0    1.10e+00
2006 04 04  0615    53829   22500      0    1.57e+00    0    1.09e+00
2006 04 04  0620    53829   22800      0    1.62e+00    0    1.13e+00
2006 04 04  0625    53829   23100      0    1.58e+00    0    1.10e+00
2006 04 04  0630    53829   23400      0    1.57e+00    0    1.11e+00
2006 04 04  0635    53829   23700      0    1.58e+00    0    1.11e+00
2006 04 04  0640    53829   24000      0    1.59e+00    0    1.12e+00
2006 04 04  0645    53829   24300      0    1.58e+00    0    1.10e+00
2006 04 04  0650    53829   24600      0    1.59e+00    0    1.10e+00
2006 04 04  0655    53829   24900      0    1.60e+00    0    1.13e+00
2006 04 04  0700    53829   25200      0    1.55e+00    0    1.09e+00
2006 04 04  0705    53829   25500      0    1.59e+00    0    1.12e+00
2006 04 04  0710    53829   25800      0    1.60e+00    0    1.12e+00
2006 04 04  0715    53829   26100      0    1.62e+00    0    1.13e+00
2006 04 04  0720    53829   26400      0    1.58e+00    0    1.11e+00
2006 04 04  0725    53829   26700      0    1.61e+00    0    1.13e+00
2006 04 04  0730    53829   27000      0    1.59e+00    0    1.12e+00
2006 04 04  0735    53829   27300      0    1.61e+00    0    1.14e+00
2006 04 04  0740    53829   27600      0    1.57e+00    0    1.10e+00
2006 04 04  0745    53829   27900      0    1.58e+00    0    1.11e+00
2006 04 04  0750    53829   28200      0    1.61e+00    0    1.13e+00
2006 04 04  0755    53829   28500      0    1.59e+00    0    1.11e+00
2006 04 04  0800    53829   28800      0    1.60e+00    0    1.13e+00
2006 04 04  0805    53829   29100      0    1.60e+00    0    1.12e+00
2006 04 04  0810    53829   29400      0    1.61e+00    0    1.13e+00
2006 04 04  0815    53829   29700      0    1.60e+00    0    1.13e+00
2006 04 04  0820    53829   30000      0    1.61e+00    0    1.11e+00
2006 04 04  0825    53829   30300      0    1.59e+00    0    1.11e+00
2006 04 04  0830    53829   30600      0    1.56e+00    0    1.09e+00
2006 04 04  0835    53829   30900      0    1.57e+00    0    1.09e+00
2006 04 04  0840    53829   31200      0    1.59e+00    0    1.09e+00
2006 04 04  0845    53829   31500      0    1.57e+00    0    1.10e+00
2006 04 04  0850    53829   31800      0    1.56e+00    0    1.08e+00
2006 04 04  0855    53829   32100      0    1.54e+00    0    1.09e+00
2006 04 04  0900    53829   32400      0    1.55e+00    0    1.08e+00
2006 04 04  0905    53829   32700      0    1.56e+00    0    1.10e+00
2006 04 04  0910    53829   33000      0    1.50e+00    0    1.05e+00
2006 04 04  0915    53829   33300      0    1.58e+00    0    1.10e+00
2006 04 04  0920    53829   33600      0    1.59e+00    0    1.12e+00
2006 04 04  0925    53829   33900      0    1.57e+00    0    1.10e+00
2006 04 04  0930    53829   34200      0    1.53e+00    0    1.07e+00
2006 04 04  0935    53829   34500      0    1.59e+00    0    1.11e+00
2006 04 04  0940    53829   34800      0    1.62e+00    0    1.13e+00
2006 04 04  0945    53829   35100      0    1.58e+00    0    1.10e+00
2006 04 04  0950    53829   35400      0    1.59e+00    0    1.12e+00
2006 04 04  0955    53829   35700      0    1.56e+00    0    1.11e+00
2006 04 04  1000    53829   36000      0    1.60e+00    0    1.13e+00
2006 04 04  1005    53829   36300      0    1.55e+00    0    1.09e+00
2006 04 04  1010    53829   36600      0    1.57e+00    0    1.10e+00
2006 04 04  1015    53829   36900      0    1.55e+00    0    1.08e+00
2006 04 04  1020    53829   37200      0    1.56e+00    0    1.09e+00
2006 04 04  1025    53829   37500      0    1.58e+00    0    1.10e+00
2006 04 04  1030    53829   37800      0    1.56e+00    0    1.09e+00
2006 04 04  1035    53829   38100      0    1.57e+00    0    1.09e+00
2006 04 04  1040    53829   38400      0    1.55e+00    0    1.09e+00
2006 04 04  1045    53829   38700      0    1.58e+00    0    1.13e+00
2006 04 04  1050    53829   39000      0    1.57e+00    0    1.10e+00
2006 04 04  1055    53829   39300      0    1.55e+00    0    1.09e+00
2006 04 04  1100    53829   39600      0    1.54e+00    0    1.07e+00
2006 04 04  1105    53829   39900      0    1.54e+00    0    1.07e+00
2006 04 04  1110    53829   40200      0    1.59e+00    0    1.12e+00
2006 04 04  1115    53829   40500      0    1.58e+00    0    1.12e+00
2006 04 04  1120    53829   40800      0    1.62e+00    0    1.14e+00
2006 04 04  1125    53829   41100      0    1.55e+00    0    1.09e+00
2006 04 04  1130    53829   41400      0    1.58e+00    0    1.11e+00
2006 04 04  1135    53829   41700      0    1.60e+00    0    1.12e+00
2006 04 04  1140    53829   42000      0    1.54e+00    0    1.07e+00
2006 04 04  1145    53829   42300      0    1.58e+00    0    1.11e+00
2006 04 04  1150    53829   42600      0    1.60e+00    0    1.12e+00
2006 04 04  1155    53829   42900      0    1.56e+00    0    1.09e+00
2006 04 04  1200    53829   43200      0    1.58e+00    0    1.11e+00
2006 04 04  1205    53829   43500      0    1.54e+00    0    1.07e+00
2006 04 04  1210    53829   43800      0    1.62e+00    0    1.14e+00
2006 04 04  1215    53829   44100      0    1.56e+00    0    1.09e+00
2006 04 04  1220    53829   44400      0    1.63e+00    0    1.14e+00
2006 04 04  1225    53829   44700      0    1.60e+00    0    1.12e+00
2006 04 04  1230    53829   45000      0    1.56e+00    0    1.10e+00
2006 04 04  1235    53829   45300      0    1.61e+00    0    1.13e+00
2006 04 04  1240    53829   45600      0    1.58e+00    0    1.12e+00
2006 04 04  1245    53829   45900      0    1.60e+00    0    1.11e+00
2006 04 04  1250    53829   46200      0    1.57e+00    0    1.10e+00
2006 04 04  1255    53829   46500      0    1.57e+00    0    1.11e+00
2006 04 04  1300    53829   46800      0    1.55e+00    0    1.10e+00
2006 04 04  1305    53829   47100      0    1.57e+00    0    1.10e+00
2006 04 04  1310    53829   47400      0    1.60e+00    0    1.12e+00
2006 04 04  1315    53829   47700      0    1.59e+00    0    1.12e+00
2006 04 04  1320    53829   48000      0    1.54e+00    0    1.08e+00
2006 04 04  1325    53829   48300      0    1.56e+00    0    1.10e+00
2006 04 04  1330    53829   48600      0    1.57e+00    0    1.10e+00
2006 04 04  1335    53829   48900      0    1.56e+00    0    1.08e+00
2006 04 04  1340    53829   49200      0    1.55e+00    0    1.09e+00
2006 04 04  1345    53829   49500      0    1.60e+00    0    1.12e+00
2006 04 04  1350    53829   49800      0    1.57e+00    0    1.10e+00
2006 04 04  1355    53829   50100      0    1.57e+00    0    1.11e+00
2006 04 04  1400    53829   50400      0    1.59e+00    0    1.11e+00
2006 04 04  1405    53829   50700      0    1.61e+00    0    1.12e+00
2006 04 04  1410    53829   51000      0    1.58e+00    0    1.10e+00
2006 04 04  1415    53829   51300      0    1.57e+00    0    1.11e+00
2006 04 04  1420    53829   51600      0    1.55e+00    0    1.09e+00
2006 04 04  1425    53829   51900      0    1.59e+00    0    1.11e+00
2006 04 04  1430    53829   52200      0    1.54e+00    0    1.08e+00
2006 04 04  1435    53829   52500      0    1.53e+00    0    1.07e+00
2006 04 04  1440    53829   52800      0    1.60e+00    0    1.11e+00
2006 04 04  1445    53829   53100      0    1.55e+00    0    1.10e+00
2006 04 04  1450    53829   53400      0    1.58e+00    0    1.11e+00
2006 04 04  1455    53829   53700      0    1.57e+00    0    1.11e+00
2006 04 04  1500    53829   54000      0    1.60e+00    0    1.12e+00
2006 04 04  1505    53829   54300      0    1.56e+00    0    1.10e+00
2006 04 04  1510    53829   54600      0    1.59e+00    0    1.11e+00
2006 04 04  1515    53829   54900      0    1.59e+00    0    1.11e+00
2006 04 04  1520    53829   55200      0    1.57e+00    0    1.10e+00
2006 04 04  1525    53829   55500      0    1.57e+00    0    1.10e+00
2006 04 04  1530    53829   55800      0    1.61e+00    0    1.13e+00
2006 04 04  1535    53829   56100      0    1.58e+00    0    1.10e+00
2006 04 04  1540    53829   56400      0    1.57e+00    0    1.09e+00
2006 04 04  1545    53829   56700      0    1.59e+00    0    1.11e+00
2006 04 04  1550    53829   57000      0    1.56e+00    0    1.10e+00
2006 04 04  1555    53829   57300      0    1.56e+00    0    1.10e+00
2006 04 04  1600    53829   57600      0    1.57e+00    0    1.11e+00
2006 04 04  1605    53829   57900      0    1.59e+00    0    1.11e+00
2006 04 04  1610    53829   58200      0    1.57e+00    0    1.11e+00
2006 04 04  1615    53829   58500      0    1.56e+00    0    1.10e+00
2006 04 04  1620    53829   58800      0    1.58e+00    0    1.10e+00
2006 04 04  1625    53829   59100      0    1.58e+00    0    1.10e+00
2006 04 04  1630    53829   59400      0    1.57e+00    0    1.10e+00
2006 04 04  1635    53829   59700      0    1.61e+00    0    1.15e+00
2006 04 04  1640    53829   60000      0    1.56e+00    0    1.09e+00
2006 04 04  1645    53829   60300      0    1.56e+00    0    1.10e+00
2006 04 04  1650    53829   60600      0    1.58e+00    0    1.10e+00
2006 04 04  1655    53829   60900      0    1.55e+00    0    1.09e+00
2006 04 04  1700    53829   61200      0    1.61e+00    0    1.12e+00
2006 04 04  1705    53829   61500      0    1.59e+00    0    1.11e+00
2006 04 04  1710    53829   61800      0    1.57e+00    0    1.11e+00
2006 04 04  1715    53829   62100      0    1.54e+00    0    1.08e+00
2006 04 04  1720    53829   62400      0    1.61e+00    0    1.13e+00
2006 04 04  1725    53829   62700      0    1.58e+00    0    1.10e+00
2006 04 04  1730    53829   63000      0    1.55e+00    0    1.09e+00
2006 04 04  1735    53829   63300      0    1.57e+00    0    1.11e+00
2006 04 04  1740    53829   63600      0    1.57e+00    0    1.11e+00
2006 04 04  1745    53829   63900      0    1.56e+00    0    1.09e+00
2006 04 04  1750    53829   64200      0    1.57e+00    0    1.09e+00
2006 04 04  1755    53829   64500      0    1.55e+00    0    1.08e+00
2006 04 04  1800    53829   64800      0    1.55e+00    0    1.09e+00
2006 04 04  1805    53829   65100      0    1.59e+00    0    1.11e+00
2006 04 04  1810    53829   65400      0    1.58e+00    0    1.11e+00
2006 04 04  1815    53829   65700      0    1.60e+00    0    1.14e+00
2006 04 04  1820    53829   66000      0    1.56e+00    0    1.09e+00
2006 04 04  1825    53829   66300      0    1.60e+00    0    1.12e+00
2006 04 04  1830    53829   66600      0    1.52e+00    0    1.06e+00
2006 04 04  1835    53829   66900      0    1.57e+00    0    1.09e+00
2006 04 04  1840    53829   67200      0    1.58e+00    0    1.09e+00
2006 04 04  1845    53829   67500      0    1.60e+00    0    1.14e+00
2006 04 04  1850    53829   67800      0    1.55e+00    0    1.08e+00
2006 04 04  1855    53829   68100      0    1.59e+00    0    1.11e+00
2006 04 04  1900    53829   68400      0    1.59e+00    0    1.12e+00
2006 04 04  1905    53829   68700      0    1.59e+00    0    1.11e+00
2006 04 04  1910    53829   69000      0    1.58e+00    0    1.11e+00
2006 04 04  1915    53829   69300      0    1.56e+00    0    1.11e+00
2006 04 04  1920    53829   69600      0    1.57e+00    0    1.10e+00
2006 04 04  1925    53829   69900      0    1.53e+00    0    1.07e+00
2006 04 04  1930    53829   70200      0    1.59e+00    0    1.12e+00
2006 04 04  1935    53829   70500      0    1.53e+00    0    1.08e+00
2006 04 04  1940    53829   70800      0    1.56e+00    0    1.09e+00
2006 04 04  1945    53829   71100      0    1.58e+00    0    1.11e+00
2006 04 04  1950    53829   71400      0    1.56e+00    0    1.09e+00
2006 04 04  1955    53829   71700      0    1.55e+00    0    1.10e+00
2006 04 04  2000    53829   72000      0    1.60e+00    0    1.12e+00
2006 04 04  2005    53829   72300      0    1.60e+00    0    1.13e+00
2006 04 04  2010    53829   72600      0    1.60e+00    0    1.11e+00
2006 04 04  2015    53829   72900      0    1.58e+00    0    1.11e+00
2006 04 04  2020    53829   73200      0    1.53e+00    0    1.08e+00
2006 04 04  2025    53829   73500      0    1.55e+00    0    1.08e+00
2006 04 04  2030    53829   73800      0    1.53e+00    0    1.07e+00
2006 04 04  2035    53829   74100      0    1.58e+00    0    1.11e+00
2006 04 04  2040    53829   74400      0    1.56e+00    0    1.08e+00
2006 04 04  2045    53829   74700      0    1.59e+00    0    1.11e+00
2006 04 04  2050    53829   75000      0    1.61e+00    0    1.12e+00
2006 04 04  2055    53829   75300      0    1.57e+00    0    1.11e+00
2006 04 04  2100    53829   75600      0    1.54e+00    0    1.08e+00
2006 04 04  2105    53829   75900      0    1.56e+00    0    1.10e+00
2006 04 04  2110    53829   76200      0    1.58e+00    0    1.11e+00
2006 04 04  2115    53829   76500      0    1.58e+00    0    1.11e+00
2006 04 04  2120    53829   76800      0    1.57e+00    0    1.11e+00
2006 04 04  2125    53829   77100      0    1.58e+00    0    1.11e+00
2006 04 04  2130    53829   77400      0    1.59e+00    0    1.11e+00
2006 04 04  2135    53829   77700      0    1.57e+00    0    1.09e+00
2006 04 04  2140    53829   78000      0    1.58e+00    0    1.10e+00
2006 04 04  2145    53829   78300      0    1.56e+00    0    1.09e+00
2006 04 04  2150    53829   78600      0    1.57e+00    0    1.10e+00
2006 04 04  2155    53829   78900      0    1.52e+00    0    1.07e+00
2006 04 04  2200    53829   79200      0    1.56e+00    0    1.11e+00
2006 04 04  2205    53829   79500      0    1.56e+00    0    1.10e+00
2006 04 04  2210    53829   79800      0    1.58e+00    0    1.11e+00
2006 04 04  2215    53829   80100      0    1.57e+00    0    1.10e+00
2006 04 04  2220    53829   80400      0    1.55e+00    0    1.10e+00
2006 04 04  2225    53829   80700      0    1.59e+00    0    1.12e+00
2006 04 04  2230    53829   81000      0    1.57e+00    0    1.11e+00
2006 04 04  2235    53829   81300      0    1.57e+00    0    1.11e+00
2006 04 04  2240    53829   81600      0    1.61e+00    0    1.13e+00
2006 04 04  2245    53829   81900      0    1.55e+00    0    1.08e+00
2006 04 04  2250    53829   82200      0    1.54e+00    0    1.09e+00
2006 04 04  2255    53829   82500      0    1.55e+00    0    1.09e+00
2006 04 04  2300    53829   82800      0    1.57e+00    0    1.10e+00
2006 04 04  2305    53829   83100      0    1.59e+00    0    1.11e+00
2006 04 04  2310    53829   83400      0    1.57e+00    0    1.10e+00
2006 04 04  2315    53829   83700      0    1.57e+00    0    1.10e+00
2006 04 04  2320    53829   84000      0    1.56e+00    0    1.09e+00
2006 04 04  2325    53829   84300      0    1.56e+00    0    1.10e+00
2006 04 04  2330    53829   84600      0    1.59e+00    0    1.12e+00
2006 04 04  2335    53829   84900      0    1.55e+00    0    1.08e+00
2006 04 04  2340    53829   85200      0    1.52e+00    0    1.06e+00
2006 04 04  2345    53829   85500      0    1.57e+00    0    1.10e+00
2006 04 04  2350    53829   85800      0    1.55e+00    0    1.08e+00
2006 04 04  2355    53829   86100      0    1.55e+00    0    1.09e+00
