:Data_list: 20060808_ace_sis_5m.txt
:Created: 2006 Aug 09 0011 UT
# Prepared by the U.S. Dept. of Commerce, NOAA, Space Environment Center.
# Please send comments and suggestions to SEC.Webmaster@noaa.gov 
# 
# Units: proton flux p/cs2-sec-ster
# Status(S): 0 = nominal data, 1 to 8 = bad data record, 9 = no data
# Missing data values: -1.00e+05
# Source: ACE Satellite - Solar Isotope Spectrometer
#
# 5-minute averaged Real-time Integral Flux of High-energy Solar Protons
# 
#                 Modified Seconds
# UT Date   Time   Julian  of the      ---- Integral Proton Flux ----
# YR MO DA  HHMM     Day     Day       S    > 10 MeV    S    > 30 MeV
#--------------------------------------------------------------------
2006 08 08  0000    53955       0      0    1.62e+00    0    1.13e+00
2006 08 08  0005    53955     300      0    1.61e+00    0    1.12e+00
2006 08 08  0010    53955     600      0    1.63e+00    0    1.14e+00
2006 08 08  0015    53955     900      0    1.57e+00    0    1.09e+00
2006 08 08  0020    53955    1200      0    1.61e+00    0    1.12e+00
2006 08 08  0025    53955    1500      0    1.60e+00    0    1.11e+00
2006 08 08  0030    53955    1800      0    1.63e+00    0    1.15e+00
2006 08 08  0035    53955    2100      0    1.62e+00    0    1.14e+00
2006 08 08  0040    53955    2400      0    1.62e+00    0    1.13e+00
2006 08 08  0045    53955    2700      0    1.64e+00    0    1.14e+00
2006 08 08  0050    53955    3000      0    1.53e+00    0    1.08e+00
2006 08 08  0055    53955    3300      0    1.62e+00    0    1.15e+00
2006 08 08  0100    53955    3600      0    1.61e+00    0    1.13e+00
2006 08 08  0105    53955    3900      0    1.64e+00    0    1.15e+00
2006 08 08  0110    53955    4200      0    1.61e+00    0    1.14e+00
2006 08 08  0115    53955    4500      0    1.64e+00    0    1.15e+00
2006 08 08  0120    53955    4800      0    1.62e+00    0    1.15e+00
2006 08 08  0125    53955    5100      0    1.63e+00    0    1.15e+00
2006 08 08  0130    53955    5400      0    1.59e+00    0    1.12e+00
2006 08 08  0135    53955    5700      0    1.60e+00    0    1.12e+00
2006 08 08  0140    53955    6000      0    1.63e+00    0    1.13e+00
2006 08 08  0145    53955    6300      0    1.64e+00    0    1.14e+00
2006 08 08  0150    53955    6600      0    1.61e+00    0    1.12e+00
2006 08 08  0155    53955    6900      0    1.62e+00    0    1.12e+00
2006 08 08  0200    53955    7200      0    1.62e+00    0    1.15e+00
2006 08 08  0205    53955    7500      0    1.64e+00    0    1.15e+00
2006 08 08  0210    53955    7800      0    1.64e+00    0    1.14e+00
2006 08 08  0215    53955    8100      0    1.62e+00    0    1.14e+00
2006 08 08  0220    53955    8400      0    1.62e+00    0    1.14e+00
2006 08 08  0225    53955    8700      0    1.61e+00    0    1.12e+00
2006 08 08  0230    53955    9000      0    1.62e+00    0    1.14e+00
2006 08 08  0235    53955    9300      0    1.64e+00    0    1.16e+00
2006 08 08  0240    53955    9600      0    1.61e+00    0    1.13e+00
2006 08 08  0245    53955    9900      0    1.61e+00    0    1.12e+00
2006 08 08  0250    53955   10200      0    1.61e+00    0    1.12e+00
2006 08 08  0255    53955   10500      0    1.61e+00    0    1.13e+00
2006 08 08  0300    53955   10800      0    1.66e+00    0    1.17e+00
2006 08 08  0305    53955   11100      0    1.60e+00    0    1.12e+00
2006 08 08  0310    53955   11400      0    1.62e+00    0    1.14e+00
2006 08 08  0315    53955   11700      0    1.65e+00    0    1.16e+00
2006 08 08  0320    53955   12000      0    1.62e+00    0    1.14e+00
2006 08 08  0325    53955   12300      0    1.61e+00    0    1.12e+00
2006 08 08  0330    53955   12600      0    1.60e+00    0    1.13e+00
2006 08 08  0335    53955   12900      0    1.59e+00    0    1.12e+00
2006 08 08  0340    53955   13200      0    1.65e+00    0    1.14e+00
2006 08 08  0345    53955   13500      0    1.62e+00    0    1.13e+00
2006 08 08  0350    53955   13800      0    1.63e+00    0    1.14e+00
2006 08 08  0355    53955   14100      0    1.62e+00    0    1.14e+00
2006 08 08  0400    53955   14400      0    1.59e+00    0    1.11e+00
2006 08 08  0405    53955   14700      0    1.59e+00    0    1.11e+00
2006 08 08  0410    53955   15000      0    1.61e+00    0    1.14e+00
2006 08 08  0415    53955   15300      0    1.62e+00    0    1.12e+00
2006 08 08  0420    53955   15600      0    1.62e+00    0    1.13e+00
2006 08 08  0425    53955   15900      0    1.63e+00    0    1.14e+00
2006 08 08  0430    53955   16200      0    1.63e+00    0    1.16e+00
2006 08 08  0435    53955   16500      0    1.59e+00    0    1.13e+00
2006 08 08  0440    53955   16800      0    1.61e+00    0    1.14e+00
2006 08 08  0445    53955   17100      0    1.64e+00    0    1.16e+00
2006 08 08  0450    53955   17400      0    1.60e+00    0    1.12e+00
2006 08 08  0455    53955   17700      0    1.60e+00    0    1.12e+00
2006 08 08  0500    53955   18000      0    1.63e+00    0    1.15e+00
2006 08 08  0505    53955   18300      0    1.60e+00    0    1.11e+00
2006 08 08  0510    53955   18600      0    1.58e+00    0    1.11e+00
2006 08 08  0515    53955   18900      0    1.60e+00    0    1.11e+00
2006 08 08  0520    53955   19200      0    1.64e+00    0    1.16e+00
2006 08 08  0525    53955   19500      0    1.64e+00    0    1.16e+00
2006 08 08  0530    53955   19800      0    1.61e+00    0    1.14e+00
2006 08 08  0535    53955   20100      0    1.68e+00    0    1.17e+00
2006 08 08  0540    53955   20400      0    1.64e+00    0    1.16e+00
2006 08 08  0545    53955   20700      0    1.60e+00    0    1.13e+00
2006 08 08  0550    53955   21000      0    1.63e+00    0    1.14e+00
2006 08 08  0555    53955   21300      0    1.63e+00    0    1.14e+00
2006 08 08  0600    53955   21600      0    1.65e+00    0    1.15e+00
2006 08 08  0605    53955   21900      0    1.64e+00    0    1.13e+00
2006 08 08  0610    53955   22200      0    1.62e+00    0    1.13e+00
2006 08 08  0615    53955   22500      0    1.63e+00    0    1.14e+00
2006 08 08  0620    53955   22800      0    1.62e+00    0    1.14e+00
2006 08 08  0625    53955   23100      0    1.61e+00    0    1.12e+00
2006 08 08  0630    53955   23400      0    1.59e+00    0    1.11e+00
2006 08 08  0635    53955   23700      0    1.60e+00    0    1.12e+00
2006 08 08  0640    53955   24000      0    1.62e+00    0    1.13e+00
2006 08 08  0645    53955   24300      0    1.64e+00    0    1.15e+00
2006 08 08  0650    53955   24600      0    1.61e+00    0    1.13e+00
2006 08 08  0655    53955   24900      0    1.64e+00    0    1.15e+00
2006 08 08  0700    53955   25200      0    1.56e+00    0    1.09e+00
2006 08 08  0705    53955   25500      0    1.65e+00    0    1.17e+00
2006 08 08  0710    53955   25800      0    1.61e+00    0    1.14e+00
2006 08 08  0715    53955   26100      0    1.61e+00    0    1.12e+00
2006 08 08  0720    53955   26400      0    1.61e+00    0    1.12e+00
2006 08 08  0725    53955   26700      0    1.60e+00    0    1.13e+00
2006 08 08  0730    53955   27000      0    1.59e+00    0    1.10e+00
2006 08 08  0735    53955   27300      0    1.61e+00    0    1.14e+00
2006 08 08  0740    53955   27600      0    1.62e+00    0    1.14e+00
2006 08 08  0745    53955   27900      0    1.62e+00    0    1.14e+00
2006 08 08  0750    53955   28200      0    1.60e+00    0    1.12e+00
2006 08 08  0755    53955   28500      0    1.63e+00    0    1.15e+00
2006 08 08  0800    53955   28800      0    1.63e+00    0    1.16e+00
2006 08 08  0805    53955   29100      0    1.63e+00    0    1.14e+00
2006 08 08  0810    53955   29400      0    1.60e+00    0    1.12e+00
2006 08 08  0815    53955   29700      0    1.64e+00    0    1.14e+00
2006 08 08  0820    53955   30000      0    1.60e+00    0    1.12e+00
2006 08 08  0825    53955   30300      0    1.63e+00    0    1.14e+00
2006 08 08  0830    53955   30600      0    1.62e+00    0    1.16e+00
2006 08 08  0835    53955   30900      0    1.60e+00    0    1.12e+00
2006 08 08  0840    53955   31200      0    1.61e+00    0    1.13e+00
2006 08 08  0845    53955   31500      0    1.63e+00    0    1.14e+00
2006 08 08  0850    53955   31800      0    1.63e+00    0    1.15e+00
2006 08 08  0855    53955   32100      0    1.64e+00    0    1.15e+00
2006 08 08  0900    53955   32400      0    1.60e+00    0    1.12e+00
2006 08 08  0905    53955   32700      0    1.76e+00    0    1.26e+00
2006 08 08  0910    53955   33000      0    1.60e+00    0    1.12e+00
2006 08 08  0915    53955   33300      0    1.64e+00    0    1.15e+00
2006 08 08  0920    53955   33600      0    1.63e+00    0    1.14e+00
2006 08 08  0925    53955   33900      0    1.62e+00    0    1.14e+00
2006 08 08  0930    53955   34200      0    1.57e+00    0    1.09e+00
2006 08 08  0935    53955   34500      0    1.63e+00    0    1.14e+00
2006 08 08  0940    53955   34800      0    1.60e+00    0    1.11e+00
2006 08 08  0945    53955   35100      0    1.62e+00    0    1.14e+00
2006 08 08  0950    53955   35400      0    1.63e+00    0    1.14e+00
2006 08 08  0955    53955   35700      0    1.62e+00    0    1.13e+00
2006 08 08  1000    53955   36000      0    1.62e+00    0    1.13e+00
2006 08 08  1005    53955   36300      0    1.62e+00    0    1.12e+00
2006 08 08  1010    53955   36600      0    1.62e+00    0    1.14e+00
2006 08 08  1015    53955   36900      0    1.60e+00    0    1.12e+00
2006 08 08  1020    53955   37200      0    1.64e+00    0    1.15e+00
2006 08 08  1025    53955   37500      0    1.59e+00    0    1.11e+00
2006 08 08  1030    53955   37800      0    1.60e+00    0    1.12e+00
2006 08 08  1035    53955   38100      0    1.59e+00    0    1.11e+00
2006 08 08  1040    53955   38400      0    1.66e+00    0    1.16e+00
2006 08 08  1045    53955   38700      0    1.62e+00    0    1.14e+00
2006 08 08  1050    53955   39000      0    1.58e+00    0    1.10e+00
2006 08 08  1055    53955   39300      0    1.61e+00    0    1.13e+00
2006 08 08  1100    53955   39600      0    1.63e+00    0    1.14e+00
2006 08 08  1105    53955   39900      0    1.63e+00    0    1.15e+00
2006 08 08  1110    53955   40200      0    1.64e+00    0    1.16e+00
2006 08 08  1115    53955   40500      0    1.64e+00    0    1.15e+00
2006 08 08  1120    53955   40800      0    1.65e+00    0    1.17e+00
2006 08 08  1125    53955   41100      0    1.61e+00    0    1.12e+00
2006 08 08  1130    53955   41400      0    1.65e+00    0    1.18e+00
2006 08 08  1135    53955   41700      0    1.63e+00    0    1.16e+00
2006 08 08  1140    53955   42000      0    1.60e+00    0    1.10e+00
2006 08 08  1145    53955   42300      0    1.59e+00    0    1.12e+00
2006 08 08  1150    53955   42600      0    1.65e+00    0    1.17e+00
2006 08 08  1155    53955   42900      0    1.62e+00    0    1.13e+00
2006 08 08  1200    53955   43200      0    1.60e+00    0    1.12e+00
2006 08 08  1205    53955   43500      0    1.63e+00    0    1.14e+00
2006 08 08  1210    53955   43800      0    1.61e+00    0    1.12e+00
2006 08 08  1215    53955   44100      0    1.63e+00    0    1.15e+00
2006 08 08  1220    53955   44400      0    1.62e+00    0    1.15e+00
2006 08 08  1225    53955   44700      0    1.61e+00    0    1.13e+00
2006 08 08  1230    53955   45000      0    1.62e+00    0    1.14e+00
2006 08 08  1235    53955   45300      0    1.57e+00    0    1.10e+00
2006 08 08  1240    53955   45600      0    1.63e+00    0    1.14e+00
2006 08 08  1245    53955   45900      0    1.59e+00    0    1.12e+00
2006 08 08  1250    53955   46200      0    1.61e+00    0    1.13e+00
2006 08 08  1255    53955   46500      0    1.62e+00    0    1.13e+00
2006 08 08  1300    53955   46800      0    1.60e+00    0    1.12e+00
2006 08 08  1305    53955   47100      0    1.61e+00    0    1.14e+00
2006 08 08  1310    53955   47400      0    1.62e+00    0    1.12e+00
2006 08 08  1315    53955   47700      0    1.63e+00    0    1.14e+00
2006 08 08  1320    53955   48000      0    1.62e+00    0    1.15e+00
2006 08 08  1325    53955   48300      0    1.61e+00    0    1.12e+00
2006 08 08  1330    53955   48600      0    1.58e+00    0    1.11e+00
2006 08 08  1335    53955   48900      0    1.62e+00    0    1.13e+00
2006 08 08  1340    53955   49200      0    1.65e+00    0    1.15e+00
2006 08 08  1345    53955   49500      0    1.61e+00    0    1.13e+00
2006 08 08  1350    53955   49800      0    1.60e+00    0    1.13e+00
2006 08 08  1355    53955   50100      0    1.60e+00    0    1.12e+00
2006 08 08  1400    53955   50400      0    1.62e+00    0    1.15e+00
2006 08 08  1405    53955   50700      0    1.60e+00    0    1.12e+00
2006 08 08  1410    53955   51000      0    1.63e+00    0    1.15e+00
2006 08 08  1415    53955   51300      0    1.65e+00    0    1.16e+00
2006 08 08  1420    53955   51600      0    1.63e+00    0    1.14e+00
2006 08 08  1425    53955   51900      0    1.62e+00    0    1.14e+00
2006 08 08  1430    53955   52200      0    1.62e+00    0    1.12e+00
2006 08 08  1435    53955   52500      0    1.61e+00    0    1.13e+00
2006 08 08  1440    53955   52800      0    1.61e+00    0    1.13e+00
2006 08 08  1445    53955   53100      0    1.60e+00    0    1.12e+00
2006 08 08  1450    53955   53400      0    1.61e+00    0    1.13e+00
2006 08 08  1455    53955   53700      0    1.62e+00    0    1.14e+00
2006 08 08  1500    53955   54000      0    1.66e+00    0    1.17e+00
2006 08 08  1505    53955   54300      0    1.60e+00    0    1.12e+00
2006 08 08  1510    53955   54600      0    1.64e+00    0    1.13e+00
2006 08 08  1515    53955   54900      0    1.60e+00    0    1.13e+00
2006 08 08  1520    53955   55200      0    1.63e+00    0    1.15e+00
2006 08 08  1525    53955   55500      0    1.63e+00    0    1.13e+00
2006 08 08  1530    53955   55800      0    1.53e+00    0    1.06e+00
2006 08 08  1535    53955   56100      0    1.62e+00    0    1.13e+00
2006 08 08  1540    53955   56400      0    1.63e+00    0    1.15e+00
2006 08 08  1545    53955   56700      0    1.63e+00    0    1.14e+00
2006 08 08  1550    53955   57000      0    1.62e+00    0    1.13e+00
2006 08 08  1555    53955   57300      0    1.60e+00    0    1.12e+00
2006 08 08  1600    53955   57600      0    1.60e+00    0    1.13e+00
2006 08 08  1605    53955   57900      0    1.61e+00    0    1.12e+00
2006 08 08  1610    53955   58200      0    1.62e+00    0    1.13e+00
2006 08 08  1615    53955   58500      0    1.62e+00    0    1.15e+00
2006 08 08  1620    53955   58800      0    1.62e+00    0    1.13e+00
2006 08 08  1625    53955   59100      0    1.58e+00    0    1.11e+00
2006 08 08  1630    53955   59400      0    1.61e+00    0    1.13e+00
2006 08 08  1635    53955   59700      0    1.59e+00    0    1.12e+00
2006 08 08  1640    53955   60000      0    1.59e+00    0    1.11e+00
2006 08 08  1645    53955   60300      0    1.60e+00    0    1.13e+00
2006 08 08  1650    53955   60600      0    1.64e+00    0    1.15e+00
2006 08 08  1655    53955   60900      0    1.65e+00    0    1.16e+00
2006 08 08  1700    53955   61200      0    1.64e+00    0    1.15e+00
2006 08 08  1705    53955   61500      0    1.61e+00    0    1.13e+00
2006 08 08  1710    53955   61800      0    1.63e+00    0    1.14e+00
2006 08 08  1715    53955   62100      0    1.62e+00    0    1.14e+00
2006 08 08  1720    53955   62400      0    1.61e+00    0    1.13e+00
2006 08 08  1725    53955   62700      0    1.61e+00    0    1.12e+00
2006 08 08  1730    53955   63000      0    1.57e+00    0    1.10e+00
2006 08 08  1735    53955   63300      0    1.63e+00    0    1.16e+00
2006 08 08  1740    53955   63600      0    1.61e+00    0    1.12e+00
2006 08 08  1745    53955   63900      0    1.61e+00    0    1.14e+00
2006 08 08  1750    53955   64200      0    1.65e+00    0    1.16e+00
2006 08 08  1755    53955   64500      0    1.63e+00    0    1.14e+00
2006 08 08  1800    53955   64800      0    1.64e+00    0    1.15e+00
2006 08 08  1805    53955   65100      0    1.63e+00    0    1.15e+00
2006 08 08  1810    53955   65400      0    1.62e+00    0    1.15e+00
2006 08 08  1815    53955   65700      0    1.58e+00    0    1.10e+00
2006 08 08  1820    53955   66000      0    1.62e+00    0    1.13e+00
2006 08 08  1825    53955   66300      0    1.67e+00    0    1.16e+00
2006 08 08  1830    53955   66600      0    1.63e+00    0    1.15e+00
2006 08 08  1835    53955   66900      0    1.60e+00    0    1.12e+00
2006 08 08  1840    53955   67200      0    1.62e+00    0    1.12e+00
2006 08 08  1845    53955   67500      0    1.59e+00    0    1.11e+00
2006 08 08  1850    53955   67800      0    1.61e+00    0    1.13e+00
2006 08 08  1855    53955   68100      0    1.60e+00    0    1.11e+00
2006 08 08  1900    53955   68400      0    1.58e+00    0    1.11e+00
2006 08 08  1905    53955   68700      0    1.61e+00    0    1.13e+00
2006 08 08  1910    53955   69000      0    1.66e+00    0    1.17e+00
2006 08 08  1915    53955   69300      0    1.59e+00    0    1.12e+00
2006 08 08  1920    53955   69600      0    1.59e+00    0    1.12e+00
2006 08 08  1925    53955   69900      0    1.61e+00    0    1.13e+00
2006 08 08  1930    53955   70200      0    1.62e+00    0    1.13e+00
2006 08 08  1935    53955   70500      0    1.61e+00    0    1.12e+00
2006 08 08  1940    53955   70800      0    1.67e+00    0    1.18e+00
2006 08 08  1945    53955   71100      0    1.71e+00    0    1.23e+00
2006 08 08  1950    53955   71400      0    1.63e+00    0    1.14e+00
2006 08 08  1955    53955   71700      0    1.61e+00    0    1.13e+00
2006 08 08  2000    53955   72000      0    1.61e+00    0    1.13e+00
2006 08 08  2005    53955   72300      0    1.63e+00    0    1.14e+00
2006 08 08  2010    53955   72600      0    1.66e+00    0    1.16e+00
2006 08 08  2015    53955   72900      0    1.62e+00    0    1.14e+00
2006 08 08  2020    53955   73200      0    1.60e+00    0    1.11e+00
2006 08 08  2025    53955   73500      0    1.63e+00    0    1.15e+00
2006 08 08  2030    53955   73800      0    1.62e+00    0    1.13e+00
2006 08 08  2035    53955   74100      0    1.61e+00    0    1.13e+00
2006 08 08  2040    53955   74400      0    1.60e+00    0    1.11e+00
2006 08 08  2045    53955   74700      0    1.61e+00    0    1.14e+00
2006 08 08  2050    53955   75000      0    1.60e+00    0    1.12e+00
2006 08 08  2055    53955   75300      0    1.61e+00    0    1.12e+00
2006 08 08  2100    53955   75600      0    1.64e+00    0    1.15e+00
2006 08 08  2105    53955   75900      0    1.63e+00    0    1.15e+00
2006 08 08  2110    53955   76200      0    1.63e+00    0    1.15e+00
2006 08 08  2115    53955   76500      0    1.63e+00    0    1.14e+00
2006 08 08  2120    53955   76800      0    1.61e+00    0    1.13e+00
2006 08 08  2125    53955   77100      0    1.60e+00    0    1.12e+00
2006 08 08  2130    53955   77400      0    1.59e+00    0    1.12e+00
2006 08 08  2135    53955   77700      0    1.60e+00    0    1.12e+00
2006 08 08  2140    53955   78000      0    1.63e+00    0    1.16e+00
2006 08 08  2145    53955   78300      0    1.61e+00    0    1.13e+00
2006 08 08  2150    53955   78600      0    1.61e+00    0    1.13e+00
2006 08 08  2155    53955   78900      0    1.62e+00    0    1.14e+00
2006 08 08  2200    53955   79200      0    1.58e+00    0    1.12e+00
2006 08 08  2205    53955   79500      0    1.60e+00    0    1.13e+00
2006 08 08  2210    53955   79800      0    1.64e+00    0    1.14e+00
2006 08 08  2215    53955   80100      0    1.60e+00    0    1.11e+00
2006 08 08  2220    53955   80400      0    1.64e+00    0    1.16e+00
2006 08 08  2225    53955   80700      0    1.68e+00    0    1.19e+00
2006 08 08  2230    53955   81000      0    1.64e+00    0    1.15e+00
2006 08 08  2235    53955   81300      0    1.63e+00    0    1.14e+00
2006 08 08  2240    53955   81600      0    1.64e+00    0    1.16e+00
2006 08 08  2245    53955   81900      0    1.63e+00    0    1.15e+00
2006 08 08  2250    53955   82200      0    1.49e+00    0    9.20e-01
2006 08 08  2255    53955   82500      0    1.62e+00    0    1.15e+00
2006 08 08  2300    53955   82800      0    1.65e+00    0    1.16e+00
2006 08 08  2305    53955   83100      0    1.59e+00    0    1.12e+00
2006 08 08  2310    53955   83400      0    1.66e+00    0    1.17e+00
2006 08 08  2315    53955   83700      0    1.62e+00    0    1.13e+00
2006 08 08  2320    53955   84000      0    1.63e+00    0    1.15e+00
2006 08 08  2325    53955   84300      0    1.61e+00    0    1.15e+00
2006 08 08  2330    53955   84600      0    1.60e+00    0    1.11e+00
2006 08 08  2335    53955   84900      0    1.63e+00    0    1.14e+00
2006 08 08  2340    53955   85200      0    1.60e+00    0    1.11e+00
2006 08 08  2345    53955   85500      0    1.60e+00    0    1.13e+00
2006 08 08  2350    53955   85800      0    1.62e+00    0    1.14e+00
2006 08 08  2355    53955   86100      0    1.64e+00    0    1.14e+00
