:Data_list: 20060518_ace_sis_5m.txt
:Created: 2006 May 19 0011 UT
# Prepared by the U.S. Dept. of Commerce, NOAA, Space Environment Center.
# Please send comments and suggestions to SEC.Webmaster@noaa.gov 
# 
# Units: proton flux p/cs2-sec-ster
# Status(S): 0 = nominal data, 1 to 8 = bad data record, 9 = no data
# Missing data values: -1.00e+05
# Source: ACE Satellite - Solar Isotope Spectrometer
#
# 5-minute averaged Real-time Integral Flux of High-energy Solar Protons
# 
#                 Modified Seconds
# UT Date   Time   Julian  of the      ---- Integral Proton Flux ----
# YR MO DA  HHMM     Day     Day       S    > 10 MeV    S    > 30 MeV
#--------------------------------------------------------------------
2006 05 18  0000    53873       0      0    1.59e+00    0    1.12e+00
2006 05 18  0005    53873     300      0    1.58e+00    0    1.11e+00
2006 05 18  0010    53873     600      0    1.60e+00    0    1.12e+00
2006 05 18  0015    53873     900      0    1.59e+00    0    1.12e+00
2006 05 18  0020    53873    1200      0    1.61e+00    0    1.14e+00
2006 05 18  0025    53873    1500      0    1.60e+00    0    1.12e+00
2006 05 18  0030    53873    1800      0    1.60e+00    0    1.13e+00
2006 05 18  0035    53873    2100      0    1.64e+00    0    1.16e+00
2006 05 18  0040    53873    2400      0    1.61e+00    0    1.13e+00
2006 05 18  0045    53873    2700      0    1.63e+00    0    1.14e+00
2006 05 18  0050    53873    3000      0    1.60e+00    0    1.11e+00
2006 05 18  0055    53873    3300      0    1.62e+00    0    1.15e+00
2006 05 18  0100    53873    3600      0    1.62e+00    0    1.12e+00
2006 05 18  0105    53873    3900      0    1.63e+00    0    1.14e+00
2006 05 18  0110    53873    4200      0    1.62e+00    0    1.14e+00
2006 05 18  0115    53873    4500      0    1.62e+00    0    1.14e+00
2006 05 18  0120    53873    4800      0    1.63e+00    0    1.15e+00
2006 05 18  0125    53873    5100      0    1.59e+00    0    1.11e+00
2006 05 18  0130    53873    5400      0    1.60e+00    0    1.12e+00
2006 05 18  0135    53873    5700      0    1.61e+00    0    1.13e+00
2006 05 18  0140    53873    6000      0    1.57e+00    0    1.10e+00
2006 05 18  0145    53873    6300      0    1.62e+00    0    1.12e+00
2006 05 18  0150    53873    6600      0    1.63e+00    0    1.14e+00
2006 05 18  0155    53873    6900      0    1.58e+00    0    1.11e+00
2006 05 18  0200    53873    7200      0    1.60e+00    0    1.11e+00
2006 05 18  0205    53873    7500      0    1.61e+00    0    1.13e+00
2006 05 18  0210    53873    7800      0    1.60e+00    0    1.11e+00
2006 05 18  0215    53873    8100      0    1.61e+00    0    1.14e+00
2006 05 18  0220    53873    8400      0    1.60e+00    0    1.13e+00
2006 05 18  0225    53873    8700      0    1.65e+00    0    1.16e+00
2006 05 18  0230    53873    9000      0    1.63e+00    0    1.15e+00
2006 05 18  0235    53873    9300      0    1.65e+00    0    1.16e+00
2006 05 18  0240    53873    9600      0    1.60e+00    0    1.12e+00
2006 05 18  0245    53873    9900      0    1.61e+00    0    1.13e+00
2006 05 18  0250    53873   10200      0    1.63e+00    0    1.15e+00
2006 05 18  0255    53873   10500      0    1.63e+00    0    1.14e+00
2006 05 18  0300    53873   10800      0    1.58e+00    0    1.10e+00
2006 05 18  0305    53873   11100      0    1.59e+00    0    1.12e+00
2006 05 18  0310    53873   11400      0    1.61e+00    0    1.12e+00
2006 05 18  0315    53873   11700      0    1.59e+00    0    1.11e+00
2006 05 18  0320    53873   12000      0    1.59e+00    0    1.12e+00
2006 05 18  0325    53873   12300      0    1.62e+00    0    1.14e+00
2006 05 18  0330    53873   12600      0    1.55e+00    0    1.09e+00
2006 05 18  0335    53873   12900      0    1.58e+00    0    1.10e+00
2006 05 18  0340    53873   13200      0    1.61e+00    0    1.12e+00
2006 05 18  0345    53873   13500      0    1.61e+00    0    1.12e+00
2006 05 18  0350    53873   13800      0    1.59e+00    0    1.12e+00
2006 05 18  0355    53873   14100      0    1.61e+00    0    1.13e+00
2006 05 18  0400    53873   14400      0    1.58e+00    0    1.10e+00
2006 05 18  0405    53873   14700      0    1.60e+00    0    1.11e+00
2006 05 18  0410    53873   15000      0    1.59e+00    0    1.11e+00
2006 05 18  0415    53873   15300      0    1.58e+00    0    1.11e+00
2006 05 18  0420    53873   15600      0    1.58e+00    0    1.12e+00
2006 05 18  0425    53873   15900      0    1.59e+00    0    1.11e+00
2006 05 18  0430    53873   16200      0    1.60e+00    0    1.12e+00
2006 05 18  0435    53873   16500      0    1.59e+00    0    1.12e+00
2006 05 18  0440    53873   16800      0    1.63e+00    0    1.14e+00
2006 05 18  0445    53873   17100      0    1.63e+00    0    1.15e+00
2006 05 18  0450    53873   17400      0    1.59e+00    0    1.12e+00
2006 05 18  0455    53873   17700      0    1.60e+00    0    1.12e+00
2006 05 18  0500    53873   18000      0    1.57e+00    0    1.09e+00
2006 05 18  0505    53873   18300      0    1.61e+00    0    1.12e+00
2006 05 18  0510    53873   18600      0    1.59e+00    0    1.11e+00
2006 05 18  0515    53873   18900      0    1.59e+00    0    1.13e+00
2006 05 18  0520    53873   19200      0    1.61e+00    0    1.13e+00
2006 05 18  0525    53873   19500      0    1.62e+00    0    1.14e+00
2006 05 18  0530    53873   19800      0    1.61e+00    0    1.13e+00
2006 05 18  0535    53873   20100      0    1.59e+00    0    1.10e+00
2006 05 18  0540    53873   20400      0    1.61e+00    0    1.12e+00
2006 05 18  0545    53873   20700      0    1.58e+00    0    1.12e+00
2006 05 18  0550    53873   21000      0    1.59e+00    0    1.12e+00
2006 05 18  0555    53873   21300      0    1.55e+00    0    1.07e+00
2006 05 18  0600    53873   21600      0    1.56e+00    0    1.10e+00
2006 05 18  0605    53873   21900      0    1.57e+00    0    1.10e+00
2006 05 18  0610    53873   22200      0    1.54e+00    0    1.09e+00
2006 05 18  0615    53873   22500      0    1.60e+00    0    1.12e+00
2006 05 18  0620    53873   22800      0    1.59e+00    0    1.12e+00
2006 05 18  0625    53873   23100      0    1.60e+00    0    1.10e+00
2006 05 18  0630    53873   23400      0    1.55e+00    0    1.08e+00
2006 05 18  0635    53873   23700      0    1.61e+00    0    1.14e+00
2006 05 18  0640    53873   24000      0    1.61e+00    0    1.13e+00
2006 05 18  0645    53873   24300      0    1.60e+00    0    1.11e+00
2006 05 18  0650    53873   24600      0    1.56e+00    0    1.11e+00
2006 05 18  0655    53873   24900      0    1.60e+00    0    1.14e+00
2006 05 18  0700    53873   25200      0    1.63e+00    0    1.14e+00
2006 05 18  0705    53873   25500      0    1.62e+00    0    1.13e+00
2006 05 18  0710    53873   25800      0    1.62e+00    0    1.14e+00
2006 05 18  0715    53873   26100      0    1.63e+00    0    1.15e+00
2006 05 18  0720    53873   26400      0    1.62e+00    0    1.13e+00
2006 05 18  0725    53873   26700      0    1.60e+00    0    1.12e+00
2006 05 18  0730    53873   27000      0    1.60e+00    0    1.13e+00
2006 05 18  0735    53873   27300      0    1.61e+00    0    1.13e+00
2006 05 18  0740    53873   27600      0    1.60e+00    0    1.11e+00
2006 05 18  0745    53873   27900      0    1.56e+00    0    1.09e+00
2006 05 18  0750    53873   28200      0    1.56e+00    0    1.09e+00
2006 05 18  0755    53873   28500      0    1.60e+00    0    1.12e+00
2006 05 18  0800    53873   28800      0    1.59e+00    0    1.12e+00
2006 05 18  0805    53873   29100      0    1.58e+00    0    1.10e+00
2006 05 18  0810    53873   29400      0    1.57e+00    0    1.09e+00
2006 05 18  0815    53873   29700      0    1.62e+00    0    1.14e+00
2006 05 18  0820    53873   30000      0    1.58e+00    0    1.11e+00
2006 05 18  0825    53873   30300      0    1.60e+00    0    1.11e+00
2006 05 18  0830    53873   30600      0    1.59e+00    0    1.11e+00
2006 05 18  0835    53873   30900      0    1.58e+00    0    1.10e+00
2006 05 18  0840    53873   31200      0    1.60e+00    0    1.12e+00
2006 05 18  0845    53873   31500      0    1.59e+00    0    1.11e+00
2006 05 18  0850    53873   31800      0    1.60e+00    0    1.12e+00
2006 05 18  0855    53873   32100      0    1.60e+00    0    1.12e+00
2006 05 18  0900    53873   32400      0    1.57e+00    0    1.11e+00
2006 05 18  0905    53873   32700      0    1.55e+00    0    1.07e+00
2006 05 18  0910    53873   33000      0    1.60e+00    0    1.12e+00
2006 05 18  0915    53873   33300      0    1.61e+00    0    1.14e+00
2006 05 18  0920    53873   33600      0    1.60e+00    0    1.13e+00
2006 05 18  0925    53873   33900      0    1.56e+00    0    1.10e+00
2006 05 18  0930    53873   34200      0    1.59e+00    0    1.11e+00
2006 05 18  0935    53873   34500      0    1.59e+00    0    1.12e+00
2006 05 18  0940    53873   34800      0    1.56e+00    0    1.10e+00
2006 05 18  0945    53873   35100      0    1.59e+00    0    1.12e+00
2006 05 18  0950    53873   35400      0    1.62e+00    0    1.15e+00
2006 05 18  0955    53873   35700      0    1.61e+00    0    1.14e+00
2006 05 18  1000    53873   36000      0    1.57e+00    0    1.10e+00
2006 05 18  1005    53873   36300      0    1.58e+00    0    1.11e+00
2006 05 18  1010    53873   36600      0    1.60e+00    0    1.11e+00
2006 05 18  1015    53873   36900      0    1.62e+00    0    1.14e+00
2006 05 18  1020    53873   37200      0    1.56e+00    0    1.08e+00
2006 05 18  1025    53873   37500      0    1.61e+00    0    1.13e+00
2006 05 18  1030    53873   37800      0    1.60e+00    0    1.12e+00
2006 05 18  1035    53873   38100      0    1.56e+00    0    1.10e+00
2006 05 18  1040    53873   38400      0    1.59e+00    0    1.11e+00
2006 05 18  1045    53873   38700      0    1.57e+00    0    1.09e+00
2006 05 18  1050    53873   39000      0    1.59e+00    0    1.12e+00
2006 05 18  1055    53873   39300      0    1.59e+00    0    1.12e+00
2006 05 18  1100    53873   39600      0    1.59e+00    0    1.12e+00
2006 05 18  1105    53873   39900      0    1.59e+00    0    1.12e+00
2006 05 18  1110    53873   40200      0    1.56e+00    0    1.08e+00
2006 05 18  1115    53873   40500      0    1.60e+00    0    1.11e+00
2006 05 18  1120    53873   40800      0    1.57e+00    0    1.11e+00
2006 05 18  1125    53873   41100      0    1.58e+00    0    1.12e+00
2006 05 18  1130    53873   41400      0    1.60e+00    0    1.12e+00
2006 05 18  1135    53873   41700      0    1.60e+00    0    1.12e+00
2006 05 18  1140    53873   42000      0    1.58e+00    0    1.11e+00
2006 05 18  1145    53873   42300      0    1.64e+00    0    1.14e+00
2006 05 18  1150    53873   42600      0    1.56e+00    0    1.09e+00
2006 05 18  1155    53873   42900      0    1.56e+00    0    1.08e+00
2006 05 18  1200    53873   43200      0    1.62e+00    0    1.13e+00
2006 05 18  1205    53873   43500      0    1.57e+00    0    1.08e+00
2006 05 18  1210    53873   43800      0    1.58e+00    0    1.12e+00
2006 05 18  1215    53873   44100      0    1.57e+00    0    1.10e+00
2006 05 18  1220    53873   44400      0    1.58e+00    0    1.10e+00
2006 05 18  1225    53873   44700      0    1.57e+00    0    1.09e+00
2006 05 18  1230    53873   45000      0    1.59e+00    0    1.12e+00
2006 05 18  1235    53873   45300      0    1.61e+00    0    1.15e+00
2006 05 18  1240    53873   45600      0    1.58e+00    0    1.10e+00
2006 05 18  1245    53873   45900      0    1.59e+00    0    1.12e+00
2006 05 18  1250    53873   46200      0    1.60e+00    0    1.13e+00
2006 05 18  1255    53873   46500      0    1.58e+00    0    1.11e+00
2006 05 18  1300    53873   46800      0    1.63e+00    0    1.14e+00
2006 05 18  1305    53873   47100      0    1.59e+00    0    1.10e+00
2006 05 18  1310    53873   47400      0    1.57e+00    0    1.09e+00
2006 05 18  1315    53873   47700      0    1.57e+00    0    1.09e+00
2006 05 18  1320    53873   48000      0    1.59e+00    0    1.11e+00
2006 05 18  1325    53873   48300      0    1.59e+00    0    1.11e+00
2006 05 18  1330    53873   48600      0    1.59e+00    0    1.11e+00
2006 05 18  1335    53873   48900      0    1.58e+00    0    1.10e+00
2006 05 18  1340    53873   49200      0    1.59e+00    0    1.12e+00
2006 05 18  1345    53873   49500      0    1.60e+00    0    1.13e+00
2006 05 18  1350    53873   49800      0    1.54e+00    0    1.08e+00
2006 05 18  1355    53873   50100      0    1.57e+00    0    1.10e+00
2006 05 18  1400    53873   50400      0    1.58e+00    0    1.10e+00
2006 05 18  1405    53873   50700      0    1.61e+00    0    1.14e+00
2006 05 18  1410    53873   51000      0    1.64e+00    0    1.16e+00
2006 05 18  1415    53873   51300      0    1.54e+00    0    1.08e+00
2006 05 18  1420    53873   51600      0    1.60e+00    0    1.13e+00
2006 05 18  1425    53873   51900      0    1.60e+00    0    1.12e+00
2006 05 18  1430    53873   52200      0    1.62e+00    0    1.14e+00
2006 05 18  1435    53873   52500      0    1.59e+00    0    1.11e+00
2006 05 18  1440    53873   52800      0    1.56e+00    0    1.10e+00
2006 05 18  1445    53873   53100      0    1.58e+00    0    1.10e+00
2006 05 18  1450    53873   53400      0    1.57e+00    0    1.10e+00
2006 05 18  1455    53873   53700      0    1.61e+00    0    1.12e+00
2006 05 18  1500    53873   54000      0    1.55e+00    0    1.08e+00
2006 05 18  1505    53873   54300      0    1.57e+00    0    1.10e+00
2006 05 18  1510    53873   54600      0    1.58e+00    0    1.11e+00
2006 05 18  1515    53873   54900      0    1.57e+00    0    1.10e+00
2006 05 18  1520    53873   55200      0    1.60e+00    0    1.13e+00
2006 05 18  1525    53873   55500      0    1.55e+00    0    1.08e+00
2006 05 18  1530    53873   55800      0    1.58e+00    0    1.10e+00
2006 05 18  1535    53873   56100      0    1.58e+00    0    1.11e+00
2006 05 18  1540    53873   56400      0    1.55e+00    0    1.08e+00
2006 05 18  1545    53873   56700      0    1.58e+00    0    1.11e+00
2006 05 18  1550    53873   57000      0    1.58e+00    0    1.11e+00
2006 05 18  1555    53873   57300      0    1.58e+00    0    1.10e+00
2006 05 18  1600    53873   57600      0    1.61e+00    0    1.13e+00
2006 05 18  1605    53873   57900      0    1.58e+00    0    1.10e+00
2006 05 18  1610    53873   58200      0    1.56e+00    0    1.10e+00
2006 05 18  1615    53873   58500      0    1.59e+00    0    1.12e+00
2006 05 18  1620    53873   58800      0    1.56e+00    0    1.10e+00
2006 05 18  1625    53873   59100      0    1.60e+00    0    1.13e+00
2006 05 18  1630    53873   59400      0    1.60e+00    0    1.12e+00
2006 05 18  1635    53873   59700      0    1.61e+00    0    1.13e+00
2006 05 18  1640    53873   60000      0    1.58e+00    0    1.10e+00
2006 05 18  1645    53873   60300      0    1.57e+00    0    1.10e+00
2006 05 18  1650    53873   60600      0    1.59e+00    0    1.12e+00
2006 05 18  1655    53873   60900      0    1.59e+00    0    1.13e+00
2006 05 18  1700    53873   61200      0    1.59e+00    0    1.12e+00
2006 05 18  1705    53873   61500      0    1.59e+00    0    1.11e+00
2006 05 18  1710    53873   61800      0    1.57e+00    0    1.11e+00
2006 05 18  1715    53873   62100      0    1.56e+00    0    1.09e+00
2006 05 18  1720    53873   62400      0    1.56e+00    0    1.08e+00
2006 05 18  1725    53873   62700      0    1.61e+00    0    1.13e+00
2006 05 18  1730    53873   63000      0    1.60e+00    0    1.12e+00
2006 05 18  1735    53873   63300      0    1.64e+00    0    1.16e+00
2006 05 18  1740    53873   63600      0    1.60e+00    0    1.13e+00
2006 05 18  1745    53873   63900      0    1.57e+00    0    1.09e+00
2006 05 18  1750    53873   64200      0    1.60e+00    0    1.12e+00
2006 05 18  1755    53873   64500      0    1.57e+00    0    1.09e+00
2006 05 18  1800    53873   64800      0    1.61e+00    0    1.13e+00
2006 05 18  1805    53873   65100      0    1.58e+00    0    1.10e+00
2006 05 18  1810    53873   65400      0    1.57e+00    0    1.11e+00
2006 05 18  1815    53873   65700      0    1.57e+00    0    1.11e+00
2006 05 18  1820    53873   66000      0    1.57e+00    0    1.10e+00
2006 05 18  1825    53873   66300      0    1.60e+00    0    1.12e+00
2006 05 18  1830    53873   66600      0    1.55e+00    0    1.09e+00
2006 05 18  1835    53873   66900      0    1.58e+00    0    1.09e+00
2006 05 18  1840    53873   67200      0    1.58e+00    0    1.13e+00
2006 05 18  1845    53873   67500      0    1.61e+00    0    1.12e+00
2006 05 18  1850    53873   67800      0    1.57e+00    0    1.10e+00
2006 05 18  1855    53873   68100      0    1.55e+00    0    1.09e+00
2006 05 18  1900    53873   68400      0    1.65e+00    0    1.16e+00
2006 05 18  1905    53873   68700      0    1.58e+00    0    1.10e+00
2006 05 18  1910    53873   69000      0    1.58e+00    0    1.11e+00
2006 05 18  1915    53873   69300      0    1.57e+00    0    1.09e+00
2006 05 18  1920    53873   69600      0    1.56e+00    0    1.09e+00
2006 05 18  1925    53873   69900      0    1.55e+00    0    1.09e+00
2006 05 18  1930    53873   70200      0    1.58e+00    0    1.11e+00
2006 05 18  1935    53873   70500      0    1.58e+00    0    1.10e+00
2006 05 18  1940    53873   70800      0    1.56e+00    0    1.10e+00
2006 05 18  1945    53873   71100      0    1.62e+00    0    1.14e+00
2006 05 18  1950    53873   71400      0    1.58e+00    0    1.11e+00
2006 05 18  1955    53873   71700      0    1.58e+00    0    1.12e+00
2006 05 18  2000    53873   72000      0    1.57e+00    0    1.10e+00
2006 05 18  2005    53873   72300      0    1.60e+00    0    1.12e+00
2006 05 18  2010    53873   72600      0    1.59e+00    0    1.11e+00
2006 05 18  2015    53873   72900      0    1.56e+00    0    1.09e+00
2006 05 18  2020    53873   73200      0    1.62e+00    0    1.13e+00
2006 05 18  2025    53873   73500      0    1.58e+00    0    1.11e+00
2006 05 18  2030    53873   73800      0    1.59e+00    0    1.12e+00
2006 05 18  2035    53873   74100      0    1.58e+00    0    1.11e+00
2006 05 18  2040    53873   74400      0    1.59e+00    0    1.12e+00
2006 05 18  2045    53873   74700      0    1.58e+00    0    1.09e+00
2006 05 18  2050    53873   75000      0    1.59e+00    0    1.12e+00
2006 05 18  2055    53873   75300      0    1.57e+00    0    1.09e+00
2006 05 18  2100    53873   75600      0    1.57e+00    0    1.09e+00
2006 05 18  2105    53873   75900      0    1.58e+00    0    1.11e+00
2006 05 18  2110    53873   76200      0    1.62e+00    0    1.14e+00
2006 05 18  2115    53873   76500      0    1.59e+00    0    1.12e+00
2006 05 18  2120    53873   76800      0    1.58e+00    0    1.10e+00
2006 05 18  2125    53873   77100      0    1.60e+00    0    1.14e+00
2006 05 18  2130    53873   77400      0    1.59e+00    0    1.11e+00
2006 05 18  2135    53873   77700      0    1.58e+00    0    1.11e+00
2006 05 18  2140    53873   78000      0    1.57e+00    0    1.09e+00
2006 05 18  2145    53873   78300      0    1.62e+00    0    1.14e+00
2006 05 18  2150    53873   78600      0    1.56e+00    0    1.09e+00
2006 05 18  2155    53873   78900      0    1.60e+00    0    1.13e+00
2006 05 18  2200    53873   79200      0    1.55e+00    0    1.08e+00
2006 05 18  2205    53873   79500      0    1.60e+00    0    1.12e+00
2006 05 18  2210    53873   79800      0    1.61e+00    0    1.13e+00
2006 05 18  2215    53873   80100      0    1.60e+00    0    1.13e+00
2006 05 18  2220    53873   80400      0    1.56e+00    0    1.09e+00
2006 05 18  2225    53873   80700      0    1.59e+00    0    1.12e+00
2006 05 18  2230    53873   81000      0    1.61e+00    0    1.13e+00
2006 05 18  2235    53873   81300      0    1.58e+00    0    1.11e+00
2006 05 18  2240    53873   81600      0    1.55e+00    0    1.08e+00
2006 05 18  2245    53873   81900      0    1.63e+00    0    1.14e+00
2006 05 18  2250    53873   82200      0    1.59e+00    0    1.11e+00
2006 05 18  2255    53873   82500      0    1.59e+00    0    1.11e+00
2006 05 18  2300    53873   82800      0    1.56e+00    0    1.11e+00
2006 05 18  2305    53873   83100      0    1.56e+00    0    1.10e+00
2006 05 18  2310    53873   83400      0    1.58e+00    0    1.10e+00
2006 05 18  2315    53873   83700      0    1.60e+00    0    1.13e+00
2006 05 18  2320    53873   84000      0    1.55e+00    0    1.08e+00
2006 05 18  2325    53873   84300      0    1.59e+00    0    1.11e+00
2006 05 18  2330    53873   84600      0    1.59e+00    0    1.11e+00
2006 05 18  2335    53873   84900      0    1.60e+00    0    1.13e+00
2006 05 18  2340    53873   85200      0    1.59e+00    0    1.13e+00
2006 05 18  2345    53873   85500      0    1.60e+00    0    1.14e+00
2006 05 18  2350    53873   85800      0    1.59e+00    0    1.12e+00
2006 05 18  2355    53873   86100      0    1.54e+00    0    1.08e+00
