:Data_list: 20060401_ace_sis_5m.txt
:Created: 2006 Apr 02 0011 UT
# Prepared by the U.S. Dept. of Commerce, NOAA, Space Environment Center.
# Please send comments and suggestions to SEC.Webmaster@noaa.gov 
# 
# Units: proton flux p/cs2-sec-ster
# Status(S): 0 = nominal data, 1 to 8 = bad data record, 9 = no data
# Missing data values: -1.00e+05
# Source: ACE Satellite - Solar Isotope Spectrometer
#
# 5-minute averaged Real-time Integral Flux of High-energy Solar Protons
# 
#                 Modified Seconds
# UT Date   Time   Julian  of the      ---- Integral Proton Flux ----
# YR MO DA  HHMM     Day     Day       S    > 10 MeV    S    > 30 MeV
#--------------------------------------------------------------------
2006 04 01  0000    53826       0      0    1.51e+00    0    1.05e+00
2006 04 01  0005    53826     300      0    1.60e+00    0    1.12e+00
2006 04 01  0010    53826     600      0    1.60e+00    0    1.12e+00
2006 04 01  0015    53826     900      0    1.60e+00    0    1.13e+00
2006 04 01  0020    53826    1200      0    1.57e+00    0    1.10e+00
2006 04 01  0025    53826    1500      0    1.58e+00    0    1.11e+00
2006 04 01  0030    53826    1800      0    1.53e+00    0    1.07e+00
2006 04 01  0035    53826    2100      0    1.58e+00    0    1.10e+00
2006 04 01  0040    53826    2400      0    1.55e+00    0    1.09e+00
2006 04 01  0045    53826    2700      0    1.58e+00    0    1.12e+00
2006 04 01  0050    53826    3000      0    1.58e+00    0    1.11e+00
2006 04 01  0055    53826    3300      0    1.60e+00    0    1.12e+00
2006 04 01  0100    53826    3600      0    1.58e+00    0    1.12e+00
2006 04 01  0105    53826    3900      0    1.59e+00    0    1.11e+00
2006 04 01  0110    53826    4200      0    1.56e+00    0    1.10e+00
2006 04 01  0115    53826    4500      0    1.58e+00    0    1.12e+00
2006 04 01  0120    53826    4800      0    1.60e+00    0    1.12e+00
2006 04 01  0125    53826    5100      0    1.58e+00    0    1.10e+00
2006 04 01  0130    53826    5400      0    1.59e+00    0    1.11e+00
2006 04 01  0135    53826    5700      0    1.60e+00    0    1.13e+00
2006 04 01  0140    53826    6000      0    1.62e+00    0    1.13e+00
2006 04 01  0145    53826    6300      0    1.58e+00    0    1.11e+00
2006 04 01  0150    53826    6600      0    1.56e+00    0    1.10e+00
2006 04 01  0155    53826    6900      0    1.58e+00    0    1.10e+00
2006 04 01  0200    53826    7200      0    1.60e+00    0    1.12e+00
2006 04 01  0205    53826    7500      0    1.58e+00    0    1.11e+00
2006 04 01  0210    53826    7800      0    1.61e+00    0    1.13e+00
2006 04 01  0215    53826    8100      0    1.60e+00    0    1.13e+00
2006 04 01  0220    53826    8400      0    1.58e+00    0    1.12e+00
2006 04 01  0225    53826    8700      0    1.59e+00    0    1.11e+00
2006 04 01  0230    53826    9000      0    1.61e+00    0    1.12e+00
2006 04 01  0235    53826    9300      0    1.61e+00    0    1.13e+00
2006 04 01  0240    53826    9600      0    1.59e+00    0    1.12e+00
2006 04 01  0245    53826    9900      0    1.57e+00    0    1.10e+00
2006 04 01  0250    53826   10200      0    1.57e+00    0    1.09e+00
2006 04 01  0255    53826   10500      0    1.62e+00    0    1.14e+00
2006 04 01  0300    53826   10800      0    1.55e+00    0    1.08e+00
2006 04 01  0305    53826   11100      0    1.60e+00    0    1.12e+00
2006 04 01  0310    53826   11400      0    1.58e+00    0    1.12e+00
2006 04 01  0315    53826   11700      0    1.56e+00    0    1.10e+00
2006 04 01  0320    53826   12000      0    1.58e+00    0    1.10e+00
2006 04 01  0325    53826   12300      0    1.61e+00    0    1.13e+00
2006 04 01  0330    53826   12600      0    1.62e+00    0    1.14e+00
2006 04 01  0335    53826   12900      0    1.59e+00    0    1.13e+00
2006 04 01  0340    53826   13200      0    1.63e+00    0    1.16e+00
2006 04 01  0345    53826   13500      0    1.61e+00    0    1.13e+00
2006 04 01  0350    53826   13800      0    1.57e+00    0    1.10e+00
2006 04 01  0355    53826   14100      0    1.60e+00    0    1.12e+00
2006 04 01  0400    53826   14400      0    1.61e+00    0    1.12e+00
2006 04 01  0405    53826   14700      0    1.60e+00    0    1.14e+00
2006 04 01  0410    53826   15000      0    1.59e+00    0    1.12e+00
2006 04 01  0415    53826   15300      0    1.59e+00    0    1.11e+00
2006 04 01  0420    53826   15600      0    1.60e+00    0    1.13e+00
2006 04 01  0425    53826   15900      0    1.61e+00    0    1.13e+00
2006 04 01  0430    53826   16200      0    1.59e+00    0    1.11e+00
2006 04 01  0435    53826   16500      0    1.56e+00    0    1.10e+00
2006 04 01  0440    53826   16800      0    1.59e+00    0    1.12e+00
2006 04 01  0445    53826   17100      0    1.58e+00    0    1.10e+00
2006 04 01  0450    53826   17400      0    1.60e+00    0    1.13e+00
2006 04 01  0455    53826   17700      0    1.58e+00    0    1.12e+00
2006 04 01  0500    53826   18000      0    1.59e+00    0    1.11e+00
2006 04 01  0505    53826   18300      0    1.61e+00    0    1.14e+00
2006 04 01  0510    53826   18600      0    1.58e+00    0    1.11e+00
2006 04 01  0515    53826   18900      0    1.63e+00    0    1.14e+00
2006 04 01  0520    53826   19200      0    1.62e+00    0    1.13e+00
2006 04 01  0525    53826   19500      0    1.59e+00    0    1.12e+00
2006 04 01  0530    53826   19800      0    1.59e+00    0    1.11e+00
2006 04 01  0535    53826   20100      0    1.58e+00    0    1.10e+00
2006 04 01  0540    53826   20400      0    1.61e+00    0    1.14e+00
2006 04 01  0545    53826   20700      0    1.58e+00    0    1.11e+00
2006 04 01  0550    53826   21000      0    1.57e+00    0    1.09e+00
2006 04 01  0555    53826   21300      0    1.56e+00    0    1.10e+00
2006 04 01  0600    53826   21600      0    1.56e+00    0    1.09e+00
2006 04 01  0605    53826   21900      0    1.59e+00    0    1.10e+00
2006 04 01  0610    53826   22200      0    1.60e+00    0    1.13e+00
2006 04 01  0615    53826   22500      0    1.59e+00    0    1.12e+00
2006 04 01  0620    53826   22800      0    1.59e+00    0    1.11e+00
2006 04 01  0625    53826   23100      0    1.60e+00    0    1.12e+00
2006 04 01  0630    53826   23400      0    1.60e+00    0    1.13e+00
2006 04 01  0635    53826   23700      0    1.61e+00    0    1.13e+00
2006 04 01  0640    53826   24000      0    1.59e+00    0    1.12e+00
2006 04 01  0645    53826   24300      0    1.59e+00    0    1.12e+00
2006 04 01  0650    53826   24600      0    1.59e+00    0    1.13e+00
2006 04 01  0655    53826   24900      0    1.58e+00    0    1.11e+00
2006 04 01  0700    53826   25200      0    1.61e+00    0    1.12e+00
2006 04 01  0705    53826   25500      0    1.61e+00    0    1.14e+00
2006 04 01  0710    53826   25800      0    1.59e+00    0    1.10e+00
2006 04 01  0715    53826   26100      0    1.57e+00    0    1.11e+00
2006 04 01  0720    53826   26400      0    1.57e+00    0    1.11e+00
2006 04 01  0725    53826   26700      0    1.62e+00    0    1.14e+00
2006 04 01  0730    53826   27000      0    1.60e+00    0    1.13e+00
2006 04 01  0735    53826   27300      0    1.58e+00    0    1.11e+00
2006 04 01  0740    53826   27600      0    1.59e+00    0    1.11e+00
2006 04 01  0745    53826   27900      0    1.57e+00    0    1.11e+00
2006 04 01  0750    53826   28200      0    1.61e+00    0    1.13e+00
2006 04 01  0755    53826   28500      0    1.59e+00    0    1.10e+00
2006 04 01  0800    53826   28800      0    1.57e+00    0    1.10e+00
2006 04 01  0805    53826   29100      0    1.60e+00    0    1.12e+00
2006 04 01  0810    53826   29400      0    1.58e+00    0    1.10e+00
2006 04 01  0815    53826   29700      0    1.63e+00    0    1.15e+00
2006 04 01  0820    53826   30000      0    1.57e+00    0    1.09e+00
2006 04 01  0825    53826   30300      0    1.55e+00    0    1.08e+00
2006 04 01  0830    53826   30600      0    1.59e+00    0    1.10e+00
2006 04 01  0835    53826   30900      0    1.58e+00    0    1.12e+00
2006 04 01  0840    53826   31200      0    1.61e+00    0    1.14e+00
2006 04 01  0845    53826   31500      0    1.58e+00    0    1.11e+00
2006 04 01  0850    53826   31800      0    1.62e+00    0    1.14e+00
2006 04 01  0855    53826   32100      0    1.58e+00    0    1.10e+00
2006 04 01  0900    53826   32400      0    1.58e+00    0    1.09e+00
2006 04 01  0905    53826   32700      0    1.61e+00    0    1.12e+00
2006 04 01  0910    53826   33000      0    1.56e+00    0    1.09e+00
2006 04 01  0915    53826   33300      0    1.59e+00    0    1.11e+00
2006 04 01  0920    53826   33600      0    1.57e+00    0    1.10e+00
2006 04 01  0925    53826   33900      0    1.57e+00    0    1.10e+00
2006 04 01  0930    53826   34200      0    1.58e+00    0    1.11e+00
2006 04 01  0935    53826   34500      0    1.58e+00    0    1.10e+00
2006 04 01  0940    53826   34800      0    1.57e+00    0    1.09e+00
2006 04 01  0945    53826   35100      0    1.57e+00    0    1.10e+00
2006 04 01  0950    53826   35400      0    1.60e+00    0    1.13e+00
2006 04 01  0955    53826   35700      0    1.55e+00    0    1.08e+00
2006 04 01  1000    53826   36000      0    1.58e+00    0    1.10e+00
2006 04 01  1005    53826   36300      0    1.56e+00    0    1.09e+00
2006 04 01  1010    53826   36600      0    1.59e+00    0    1.12e+00
2006 04 01  1015    53826   36900      0    1.57e+00    0    1.11e+00
2006 04 01  1020    53826   37200      0    1.58e+00    0    1.11e+00
2006 04 01  1025    53826   37500      0    1.58e+00    0    1.11e+00
2006 04 01  1030    53826   37800      0    1.58e+00    0    1.11e+00
2006 04 01  1035    53826   38100      0    1.59e+00    0    1.12e+00
2006 04 01  1040    53826   38400      0    1.58e+00    0    1.10e+00
2006 04 01  1045    53826   38700      0    1.58e+00    0    1.11e+00
2006 04 01  1050    53826   39000      0    1.56e+00    0    1.11e+00
2006 04 01  1055    53826   39300      0    1.57e+00    0    1.11e+00
2006 04 01  1100    53826   39600      0    1.60e+00    0    1.13e+00
2006 04 01  1105    53826   39900      0    1.59e+00    0    1.11e+00
2006 04 01  1110    53826   40200      0    1.62e+00    0    1.14e+00
2006 04 01  1115    53826   40500      0    1.63e+00    0    1.14e+00
2006 04 01  1120    53826   40800      0    1.59e+00    0    1.11e+00
2006 04 01  1125    53826   41100      0    1.55e+00    0    1.08e+00
2006 04 01  1130    53826   41400      0    1.59e+00    0    1.12e+00
2006 04 01  1135    53826   41700      0    1.56e+00    0    1.10e+00
2006 04 01  1140    53826   42000      0    1.56e+00    0    1.11e+00
2006 04 01  1145    53826   42300      0    1.58e+00    0    1.11e+00
2006 04 01  1150    53826   42600      0    1.55e+00    0    1.08e+00
2006 04 01  1155    53826   42900      0    1.60e+00    0    1.13e+00
2006 04 01  1200    53826   43200      0    1.57e+00    0    1.10e+00
2006 04 01  1205    53826   43500      0    1.59e+00    0    1.13e+00
2006 04 01  1210    53826   43800      0    1.55e+00    0    1.09e+00
2006 04 01  1215    53826   44100      0    1.58e+00    0    1.12e+00
2006 04 01  1220    53826   44400      0    1.63e+00    0    1.13e+00
2006 04 01  1225    53826   44700      0    1.62e+00    0    1.14e+00
2006 04 01  1230    53826   45000      0    1.61e+00    0    1.12e+00
2006 04 01  1235    53826   45300      0    1.59e+00    0    1.11e+00
2006 04 01  1240    53826   45600      0    1.61e+00    0    1.13e+00
2006 04 01  1245    53826   45900      0    1.57e+00    0    1.10e+00
2006 04 01  1250    53826   46200      0    1.60e+00    0    1.12e+00
2006 04 01  1255    53826   46500      0    1.58e+00    0    1.10e+00
2006 04 01  1300    53826   46800      0    1.61e+00    0    1.14e+00
2006 04 01  1305    53826   47100      0    1.61e+00    0    1.14e+00
2006 04 01  1310    53826   47400      0    1.58e+00    0    1.12e+00
2006 04 01  1315    53826   47700      0    1.60e+00    0    1.12e+00
2006 04 01  1320    53826   48000      0    1.58e+00    0    1.11e+00
2006 04 01  1325    53826   48300      0    1.61e+00    0    1.11e+00
2006 04 01  1330    53826   48600      0    1.61e+00    0    1.12e+00
2006 04 01  1335    53826   48900      0    1.62e+00    0    1.14e+00
2006 04 01  1340    53826   49200      0    1.57e+00    0    1.10e+00
2006 04 01  1345    53826   49500      0    1.60e+00    0    1.13e+00
2006 04 01  1350    53826   49800      0    1.62e+00    0    1.14e+00
2006 04 01  1355    53826   50100      0    1.57e+00    0    1.11e+00
2006 04 01  1400    53826   50400      0    1.60e+00    0    1.11e+00
2006 04 01  1405    53826   50700      0    1.64e+00    0    1.15e+00
2006 04 01  1410    53826   51000      0    1.60e+00    0    1.13e+00
2006 04 01  1415    53826   51300      0    1.53e+00    0    1.07e+00
2006 04 01  1420    53826   51600      0    1.62e+00    0    1.12e+00
2006 04 01  1425    53826   51900      0    1.61e+00    0    1.12e+00
2006 04 01  1430    53826   52200      0    1.62e+00    0    1.14e+00
2006 04 01  1435    53826   52500      0    1.58e+00    0    1.11e+00
2006 04 01  1440    53826   52800      0    1.64e+00    0    1.16e+00
2006 04 01  1445    53826   53100      0    1.58e+00    0    1.11e+00
2006 04 01  1450    53826   53400      0    1.58e+00    0    1.12e+00
2006 04 01  1455    53826   53700      0    1.58e+00    0    1.11e+00
2006 04 01  1500    53826   54000      0    1.59e+00    0    1.11e+00
2006 04 01  1505    53826   54300      0    1.60e+00    0    1.13e+00
2006 04 01  1510    53826   54600      0    1.54e+00    0    1.08e+00
2006 04 01  1515    53826   54900      0    1.62e+00    0    1.14e+00
2006 04 01  1520    53826   55200      0    1.60e+00    0    1.12e+00
2006 04 01  1525    53826   55500      0    1.58e+00    0    1.11e+00
2006 04 01  1530    53826   55800      0    1.60e+00    0    1.12e+00
2006 04 01  1535    53826   56100      0    1.54e+00    0    1.08e+00
2006 04 01  1540    53826   56400      0    1.57e+00    0    1.10e+00
2006 04 01  1545    53826   56700      0    1.60e+00    0    1.13e+00
2006 04 01  1550    53826   57000      0    1.60e+00    0    1.13e+00
2006 04 01  1555    53826   57300      0    1.57e+00    0    1.10e+00
2006 04 01  1600    53826   57600      0    1.57e+00    0    1.11e+00
2006 04 01  1605    53826   57900      0    1.52e+00    0    1.06e+00
2006 04 01  1610    53826   58200      0    1.60e+00    0    1.13e+00
2006 04 01  1615    53826   58500      0    1.58e+00    0    1.11e+00
2006 04 01  1620    53826   58800      0    1.60e+00    0    1.12e+00
2006 04 01  1625    53826   59100      0    1.62e+00    0    1.15e+00
2006 04 01  1630    53826   59400      0    1.62e+00    0    1.14e+00
2006 04 01  1635    53826   59700      0    1.58e+00    0    1.11e+00
2006 04 01  1640    53826   60000      0    1.58e+00    0    1.13e+00
2006 04 01  1645    53826   60300      0    1.60e+00    0    1.12e+00
2006 04 01  1650    53826   60600      0    1.55e+00    0    1.09e+00
2006 04 01  1655    53826   60900      0    1.59e+00    0    1.12e+00
2006 04 01  1700    53826   61200      0    1.58e+00    0    1.11e+00
2006 04 01  1705    53826   61500      0    1.59e+00    0    1.11e+00
2006 04 01  1710    53826   61800      0    1.56e+00    0    1.09e+00
2006 04 01  1715    53826   62100      0    1.58e+00    0    1.12e+00
2006 04 01  1720    53826   62400      0    1.59e+00    0    1.12e+00
2006 04 01  1725    53826   62700      0    1.56e+00    0    1.09e+00
2006 04 01  1730    53826   63000      0    1.59e+00    0    1.12e+00
2006 04 01  1735    53826   63300      0    1.60e+00    0    1.11e+00
2006 04 01  1740    53826   63600      0    1.56e+00    0    1.11e+00
2006 04 01  1745    53826   63900      0    1.55e+00    0    1.08e+00
2006 04 01  1750    53826   64200      0    1.58e+00    0    1.10e+00
2006 04 01  1755    53826   64500      0    1.60e+00    0    1.12e+00
2006 04 01  1800    53826   64800      0    1.53e+00    0    1.07e+00
2006 04 01  1805    53826   65100      0    1.58e+00    0    1.11e+00
2006 04 01  1810    53826   65400      0    1.58e+00    0    1.12e+00
2006 04 01  1815    53826   65700      0    1.58e+00    0    1.10e+00
2006 04 01  1820    53826   66000      0    1.59e+00    0    1.12e+00
2006 04 01  1825    53826   66300      0    1.59e+00    0    1.10e+00
2006 04 01  1830    53826   66600      0    1.59e+00    0    1.12e+00
2006 04 01  1835    53826   66900      0    1.59e+00    0    1.11e+00
2006 04 01  1840    53826   67200      0    1.56e+00    0    1.09e+00
2006 04 01  1845    53826   67500      0    1.57e+00    0    1.10e+00
2006 04 01  1850    53826   67800      0    1.54e+00    0    1.08e+00
2006 04 01  1855    53826   68100      0    1.58e+00    0    1.11e+00
2006 04 01  1900    53826   68400      0    1.58e+00    0    1.11e+00
2006 04 01  1905    53826   68700      0    1.59e+00    0    1.11e+00
2006 04 01  1910    53826   69000      0    1.57e+00    0    1.11e+00
2006 04 01  1915    53826   69300      0    1.55e+00    0    1.08e+00
2006 04 01  1920    53826   69600      0    1.49e+00    0    1.04e+00
2006 04 01  1925    53826   69900      0    1.57e+00    0    1.11e+00
2006 04 01  1930    53826   70200      0    1.58e+00    0    1.11e+00
2006 04 01  1935    53826   70500      0    1.55e+00    0    1.09e+00
2006 04 01  1940    53826   70800      0    1.57e+00    0    1.11e+00
2006 04 01  1945    53826   71100      0    1.57e+00    0    1.11e+00
2006 04 01  1950    53826   71400      0    1.57e+00    0    1.10e+00
2006 04 01  1955    53826   71700      0    1.56e+00    0    1.09e+00
2006 04 01  2000    53826   72000      0    1.56e+00    0    1.10e+00
2006 04 01  2005    53826   72300      0    1.58e+00    0    1.10e+00
2006 04 01  2010    53826   72600      0    1.61e+00    0    1.13e+00
2006 04 01  2015    53826   72900      0    1.48e+00    0    1.04e+00
2006 04 01  2020    53826   73200      0    1.56e+00    0    1.09e+00
2006 04 01  2025    53826   73500      0    1.57e+00    0    1.09e+00
2006 04 01  2030    53826   73800      0    1.57e+00    0    1.12e+00
2006 04 01  2035    53826   74100      0    1.59e+00    0    1.12e+00
2006 04 01  2040    53826   74400      0    1.57e+00    0    1.10e+00
2006 04 01  2045    53826   74700      0    1.60e+00    0    1.12e+00
2006 04 01  2050    53826   75000      0    1.61e+00    0    1.14e+00
2006 04 01  2055    53826   75300      0    1.55e+00    0    1.10e+00
2006 04 01  2100    53826   75600      0    1.56e+00    0    1.10e+00
2006 04 01  2105    53826   75900      0    1.57e+00    0    1.10e+00
2006 04 01  2110    53826   76200      0    1.58e+00    0    1.11e+00
2006 04 01  2115    53826   76500      0    1.59e+00    0    1.11e+00
2006 04 01  2120    53826   76800      0    1.58e+00    0    1.10e+00
2006 04 01  2125    53826   77100      0    1.59e+00    0    1.11e+00
2006 04 01  2130    53826   77400      0    1.57e+00    0    1.09e+00
2006 04 01  2135    53826   77700      0    1.57e+00    0    1.11e+00
2006 04 01  2140    53826   78000      0    1.57e+00    0    1.10e+00
2006 04 01  2145    53826   78300      0    1.58e+00    0    1.11e+00
2006 04 01  2150    53826   78600      0    1.55e+00    0    1.08e+00
2006 04 01  2155    53826   78900      0    1.58e+00    0    1.11e+00
2006 04 01  2200    53826   79200      0    1.59e+00    0    1.12e+00
2006 04 01  2205    53826   79500      0    1.60e+00    0    1.12e+00
2006 04 01  2210    53826   79800      0    1.62e+00    0    1.14e+00
2006 04 01  2215    53826   80100      0    1.56e+00    0    1.10e+00
2006 04 01  2220    53826   80400      0    1.57e+00    0    1.10e+00
2006 04 01  2225    53826   80700      0    1.59e+00    0    1.12e+00
2006 04 01  2230    53826   81000      0    1.59e+00    0    1.11e+00
2006 04 01  2235    53826   81300      0    1.60e+00    0    1.12e+00
2006 04 01  2240    53826   81600      0    1.59e+00    0    1.11e+00
2006 04 01  2245    53826   81900      0    1.53e+00    0    1.07e+00
2006 04 01  2250    53826   82200      0    1.55e+00    0    1.10e+00
2006 04 01  2255    53826   82500      0    1.56e+00    0    1.09e+00
2006 04 01  2300    53826   82800      0    1.56e+00    0    1.08e+00
2006 04 01  2305    53826   83100      0    1.58e+00    0    1.12e+00
2006 04 01  2310    53826   83400      0    1.58e+00    0    1.11e+00
2006 04 01  2315    53826   83700      0    1.58e+00    0    1.12e+00
2006 04 01  2320    53826   84000      0    1.57e+00    0    1.10e+00
2006 04 01  2325    53826   84300      0    1.57e+00    0    1.11e+00
2006 04 01  2330    53826   84600      0    1.58e+00    0    1.11e+00
2006 04 01  2335    53826   84900      0    1.57e+00    0    1.09e+00
2006 04 01  2340    53826   85200      0    1.55e+00    0    1.10e+00
2006 04 01  2345    53826   85500      0    1.56e+00    0    1.10e+00
2006 04 01  2350    53826   85800      0    1.58e+00    0    1.10e+00
2006 04 01  2355    53826   86100      0    1.58e+00    0    1.12e+00
