:Data_list: 20060905_ace_sis_5m.txt
:Created: 2006 Sep 06 0011 UT
# Prepared by the U.S. Dept. of Commerce, NOAA, Space Environment Center.
# Please send comments and suggestions to SEC.Webmaster@noaa.gov 
# 
# Units: proton flux p/cs2-sec-ster
# Status(S): 0 = nominal data, 1 to 8 = bad data record, 9 = no data
# Missing data values: -1.00e+05
# Source: ACE Satellite - Solar Isotope Spectrometer
#
# 5-minute averaged Real-time Integral Flux of High-energy Solar Protons
# 
#                 Modified Seconds
# UT Date   Time   Julian  of the      ---- Integral Proton Flux ----
# YR MO DA  HHMM     Day     Day       S    > 10 MeV    S    > 30 MeV
#--------------------------------------------------------------------
2006 09 05  0000    53983       0      0    1.58e+00    0    1.10e+00
2006 09 05  0005    53983     300      0    1.58e+00    0    1.10e+00
2006 09 05  0010    53983     600      0    1.59e+00    0    1.12e+00
2006 09 05  0015    53983     900      0    1.58e+00    0    1.11e+00
2006 09 05  0020    53983    1200      0    1.53e+00    0    1.06e+00
2006 09 05  0025    53983    1500      0    1.56e+00    0    1.09e+00
2006 09 05  0030    53983    1800      0    1.54e+00    0    1.08e+00
2006 09 05  0035    53983    2100      0    1.58e+00    0    1.11e+00
2006 09 05  0040    53983    2400      0    1.53e+00    0    1.08e+00
2006 09 05  0045    53983    2700      0    1.57e+00    0    1.10e+00
2006 09 05  0050    53983    3000      0    1.58e+00    0    1.12e+00
2006 09 05  0055    53983    3300      0    1.61e+00    0    1.13e+00
2006 09 05  0100    53983    3600      0    1.55e+00    0    1.07e+00
2006 09 05  0105    53983    3900      0    1.61e+00    0    1.11e+00
2006 09 05  0110    53983    4200      0    1.59e+00    0    1.12e+00
2006 09 05  0115    53983    4500      0    1.55e+00    0    1.09e+00
2006 09 05  0120    53983    4800      0    1.54e+00    0    1.08e+00
2006 09 05  0125    53983    5100      0    1.56e+00    0    1.09e+00
2006 09 05  0130    53983    5400      0    1.56e+00    0    1.09e+00
2006 09 05  0135    53983    5700      0    1.55e+00    0    1.10e+00
2006 09 05  0140    53983    6000      0    1.60e+00    0    1.12e+00
2006 09 05  0145    53983    6300      0    1.54e+00    0    1.08e+00
2006 09 05  0150    53983    6600      0    1.57e+00    0    1.10e+00
2006 09 05  0155    53983    6900      0    1.57e+00    0    1.09e+00
2006 09 05  0200    53983    7200      0    1.56e+00    0    1.09e+00
2006 09 05  0205    53983    7500      0    1.57e+00    0    1.12e+00
2006 09 05  0210    53983    7800      0    1.57e+00    0    1.10e+00
2006 09 05  0215    53983    8100      0    1.57e+00    0    1.09e+00
2006 09 05  0220    53983    8400      0    1.54e+00    0    1.08e+00
2006 09 05  0225    53983    8700      0    1.54e+00    0    1.07e+00
2006 09 05  0230    53983    9000      0    1.58e+00    0    1.11e+00
2006 09 05  0235    53983    9300      0    1.56e+00    0    1.10e+00
2006 09 05  0240    53983    9600      0    1.62e+00    0    1.14e+00
2006 09 05  0245    53983    9900      0    1.61e+00    0    1.13e+00
2006 09 05  0250    53983   10200      0    1.57e+00    0    1.09e+00
2006 09 05  0255    53983   10500      0    1.55e+00    0    1.09e+00
2006 09 05  0300    53983   10800      0    1.56e+00    0    1.09e+00
2006 09 05  0305    53983   11100      0    1.55e+00    0    1.09e+00
2006 09 05  0310    53983   11400      0    1.55e+00    0    1.10e+00
2006 09 05  0315    53983   11700      0    1.57e+00    0    1.10e+00
2006 09 05  0320    53983   12000      0    1.57e+00    0    1.10e+00
2006 09 05  0325    53983   12300      0    1.56e+00    0    1.09e+00
2006 09 05  0330    53983   12600      0    1.61e+00    0    1.13e+00
2006 09 05  0335    53983   12900      0    1.55e+00    0    1.08e+00
2006 09 05  0340    53983   13200      0    1.54e+00    0    1.08e+00
2006 09 05  0345    53983   13500      0    1.55e+00    0    1.10e+00
2006 09 05  0350    53983   13800      0    1.53e+00    0    1.08e+00
2006 09 05  0355    53983   14100      0    1.59e+00    0    1.12e+00
2006 09 05  0400    53983   14400      0    1.55e+00    0    1.10e+00
2006 09 05  0405    53983   14700      0    1.54e+00    0    1.07e+00
2006 09 05  0410    53983   15000      0    1.54e+00    0    1.09e+00
2006 09 05  0415    53983   15300      0    1.59e+00    0    1.12e+00
2006 09 05  0420    53983   15600      0    1.59e+00    0    1.11e+00
2006 09 05  0425    53983   15900      0    1.57e+00    0    1.09e+00
2006 09 05  0430    53983   16200      0    1.54e+00    0    1.08e+00
2006 09 05  0435    53983   16500      0    1.58e+00    0    1.11e+00
2006 09 05  0440    53983   16800      0    1.58e+00    0    1.11e+00
2006 09 05  0445    53983   17100      0    1.57e+00    0    1.11e+00
2006 09 05  0450    53983   17400      0    1.58e+00    0    1.11e+00
2006 09 05  0455    53983   17700      0    1.57e+00    0    1.10e+00
2006 09 05  0500    53983   18000      0    1.58e+00    0    1.10e+00
2006 09 05  0505    53983   18300      0    1.53e+00    0    1.07e+00
2006 09 05  0510    53983   18600      0    1.59e+00    0    1.10e+00
2006 09 05  0515    53983   18900      0    1.56e+00    0    1.10e+00
2006 09 05  0520    53983   19200      0    1.58e+00    0    1.10e+00
2006 09 05  0525    53983   19500      0    1.59e+00    0    1.10e+00
2006 09 05  0530    53983   19800      0    1.57e+00    0    1.10e+00
2006 09 05  0535    53983   20100      0    1.55e+00    0    1.08e+00
2006 09 05  0540    53983   20400      0    1.56e+00    0    1.09e+00
2006 09 05  0545    53983   20700      0    1.56e+00    0    1.09e+00
2006 09 05  0550    53983   21000      0    1.57e+00    0    1.10e+00
2006 09 05  0555    53983   21300      0    1.58e+00    0    1.10e+00
2006 09 05  0600    53983   21600      0    1.57e+00    0    1.10e+00
2006 09 05  0605    53983   21900      0    1.56e+00    0    1.10e+00
2006 09 05  0610    53983   22200      0    1.61e+00    0    1.14e+00
2006 09 05  0615    53983   22500      0    1.58e+00    0    1.11e+00
2006 09 05  0620    53983   22800      0    1.62e+00    0    1.14e+00
2006 09 05  0625    53983   23100      0    1.53e+00    0    1.08e+00
2006 09 05  0630    53983   23400      0    1.58e+00    0    1.09e+00
2006 09 05  0635    53983   23700      0    1.52e+00    0    1.06e+00
2006 09 05  0640    53983   24000      0    1.55e+00    0    1.09e+00
2006 09 05  0645    53983   24300      0    1.60e+00    0    1.12e+00
2006 09 05  0650    53983   24600      0    1.59e+00    0    1.11e+00
2006 09 05  0655    53983   24900      0    1.57e+00    0    1.10e+00
2006 09 05  0700    53983   25200      0    1.56e+00    0    1.10e+00
2006 09 05  0705    53983   25500      0    1.58e+00    0    1.11e+00
2006 09 05  0710    53983   25800      0    1.59e+00    0    1.12e+00
2006 09 05  0715    53983   26100      0    1.57e+00    0    1.10e+00
2006 09 05  0720    53983   26400      0    1.57e+00    0    1.09e+00
2006 09 05  0725    53983   26700      0    1.57e+00    0    1.10e+00
2006 09 05  0730    53983   27000      0    1.60e+00    0    1.13e+00
2006 09 05  0735    53983   27300      0    1.56e+00    0    1.09e+00
2006 09 05  0740    53983   27600      0    1.58e+00    0    1.12e+00
2006 09 05  0745    53983   27900      0    1.56e+00    0    1.10e+00
2006 09 05  0750    53983   28200      0    1.58e+00    0    1.11e+00
2006 09 05  0755    53983   28500      0    1.58e+00    0    1.11e+00
2006 09 05  0800    53983   28800      0    1.57e+00    0    1.10e+00
2006 09 05  0805    53983   29100      0    1.55e+00    0    1.09e+00
2006 09 05  0810    53983   29400      0    1.57e+00    0    1.11e+00
2006 09 05  0815    53983   29700      0    1.54e+00    0    1.08e+00
2006 09 05  0820    53983   30000      0    1.59e+00    0    1.13e+00
2006 09 05  0825    53983   30300      0    1.59e+00    0    1.10e+00
2006 09 05  0830    53983   30600      0    1.58e+00    0    1.10e+00
2006 09 05  0835    53983   30900      0    1.57e+00    0    1.10e+00
2006 09 05  0840    53983   31200      0    1.56e+00    0    1.10e+00
2006 09 05  0845    53983   31500      0    1.55e+00    0    1.08e+00
2006 09 05  0850    53983   31800      9   -1.00e+05    9   -1.00e+05
2006 09 05  0855    53983   32100      9   -1.00e+05    9   -1.00e+05
2006 09 05  0900    53983   32400      9   -1.00e+05    9   -1.00e+05
2006 09 05  0905    53983   32700      0    1.60e+00    0    1.13e+00
2006 09 05  0910    53983   33000      0    1.55e+00    0    1.07e+00
2006 09 05  0915    53983   33300      0    1.58e+00    0    1.10e+00
2006 09 05  0920    53983   33600      0    1.57e+00    0    1.12e+00
2006 09 05  0925    53983   33900      0    1.52e+00    0    1.07e+00
2006 09 05  0930    53983   34200      0    1.61e+00    0    1.13e+00
2006 09 05  0935    53983   34500      0    1.57e+00    0    1.10e+00
2006 09 05  0940    53983   34800      0    1.59e+00    0    1.11e+00
2006 09 05  0945    53983   35100      0    1.58e+00    0    1.11e+00
2006 09 05  0950    53983   35400      0    1.56e+00    0    1.10e+00
2006 09 05  0955    53983   35700      0    1.57e+00    0    1.11e+00
2006 09 05  1000    53983   36000      0    1.58e+00    0    1.11e+00
2006 09 05  1005    53983   36300      0    1.57e+00    0    1.10e+00
2006 09 05  1010    53983   36600      0    1.57e+00    0    1.10e+00
2006 09 05  1015    53983   36900      0    1.58e+00    0    1.10e+00
2006 09 05  1020    53983   37200      0    1.61e+00    0    1.13e+00
2006 09 05  1025    53983   37500      0    1.57e+00    0    1.10e+00
2006 09 05  1030    53983   37800      0    1.59e+00    0    1.11e+00
2006 09 05  1035    53983   38100      0    1.59e+00    0    1.12e+00
2006 09 05  1040    53983   38400      0    1.59e+00    0    1.12e+00
2006 09 05  1045    53983   38700      0    1.57e+00    0    1.11e+00
2006 09 05  1050    53983   39000      0    1.58e+00    0    1.12e+00
2006 09 05  1055    53983   39300      0    1.61e+00    0    1.14e+00
2006 09 05  1100    53983   39600      0    1.54e+00    0    1.08e+00
2006 09 05  1105    53983   39900      0    1.56e+00    0    1.10e+00
2006 09 05  1110    53983   40200      0    1.55e+00    0    1.09e+00
2006 09 05  1115    53983   40500      0    1.58e+00    0    1.11e+00
2006 09 05  1120    53983   40800      0    1.56e+00    0    1.09e+00
2006 09 05  1125    53983   41100      0    1.61e+00    0    1.12e+00
2006 09 05  1130    53983   41400      0    1.58e+00    0    1.11e+00
2006 09 05  1135    53983   41700      0    1.59e+00    0    1.13e+00
2006 09 05  1140    53983   42000      0    1.59e+00    0    1.10e+00
2006 09 05  1145    53983   42300      0    1.57e+00    0    1.11e+00
2006 09 05  1150    53983   42600      0    1.57e+00    0    1.10e+00
2006 09 05  1155    53983   42900      0    1.57e+00    0    1.11e+00
2006 09 05  1200    53983   43200      0    1.55e+00    0    1.08e+00
2006 09 05  1205    53983   43500      0    1.60e+00    0    1.11e+00
2006 09 05  1210    53983   43800      0    1.53e+00    0    1.07e+00
2006 09 05  1215    53983   44100      0    1.57e+00    0    1.10e+00
2006 09 05  1220    53983   44400      0    1.60e+00    0    1.12e+00
2006 09 05  1225    53983   44700      0    1.59e+00    0    1.11e+00
2006 09 05  1230    53983   45000      0    1.60e+00    0    1.11e+00
2006 09 05  1235    53983   45300      0    1.57e+00    0    1.11e+00
2006 09 05  1240    53983   45600      0    1.56e+00    0    1.09e+00
2006 09 05  1245    53983   45900      0    1.58e+00    0    1.11e+00
2006 09 05  1250    53983   46200      0    1.59e+00    0    1.11e+00
2006 09 05  1255    53983   46500      0    1.56e+00    0    1.08e+00
2006 09 05  1300    53983   46800      0    1.61e+00    0    1.12e+00
2006 09 05  1305    53983   47100      0    1.55e+00    0    1.09e+00
2006 09 05  1310    53983   47400      0    1.55e+00    0    1.09e+00
2006 09 05  1315    53983   47700      0    1.57e+00    0    1.10e+00
2006 09 05  1320    53983   48000      0    1.60e+00    0    1.12e+00
2006 09 05  1325    53983   48300      0    1.59e+00    0    1.11e+00
2006 09 05  1330    53983   48600      0    1.59e+00    0    1.12e+00
2006 09 05  1335    53983   48900      0    1.59e+00    0    1.12e+00
2006 09 05  1340    53983   49200      0    1.58e+00    0    1.11e+00
2006 09 05  1345    53983   49500      0    1.58e+00    0    1.10e+00
2006 09 05  1350    53983   49800      0    1.57e+00    0    1.09e+00
2006 09 05  1355    53983   50100      0    1.57e+00    0    1.10e+00
2006 09 05  1400    53983   50400      0    1.58e+00    0    1.11e+00
2006 09 05  1405    53983   50700      0    1.55e+00    0    1.08e+00
2006 09 05  1410    53983   51000      0    1.57e+00    0    1.10e+00
2006 09 05  1415    53983   51300      0    1.60e+00    0    1.12e+00
2006 09 05  1420    53983   51600      0    1.60e+00    0    1.12e+00
2006 09 05  1425    53983   51900      0    1.56e+00    0    1.08e+00
2006 09 05  1430    53983   52200      0    1.59e+00    0    1.12e+00
2006 09 05  1435    53983   52500      0    1.58e+00    0    1.10e+00
2006 09 05  1440    53983   52800      0    1.53e+00    0    1.08e+00
2006 09 05  1445    53983   53100      0    1.57e+00    0    1.10e+00
2006 09 05  1450    53983   53400      0    1.59e+00    0    1.11e+00
2006 09 05  1455    53983   53700      0    1.65e+00    0    1.15e+00
2006 09 05  1500    53983   54000      0    1.58e+00    0    1.10e+00
2006 09 05  1505    53983   54300      0    1.58e+00    0    1.10e+00
2006 09 05  1510    53983   54600      0    1.57e+00    0    1.10e+00
2006 09 05  1515    53983   54900      0    1.57e+00    0    1.10e+00
2006 09 05  1520    53983   55200      0    1.58e+00    0    1.11e+00
2006 09 05  1525    53983   55500      0    1.57e+00    0    1.10e+00
2006 09 05  1530    53983   55800      0    1.61e+00    0    1.11e+00
2006 09 05  1535    53983   56100      0    1.58e+00    0    1.10e+00
2006 09 05  1540    53983   56400      0    1.61e+00    0    1.13e+00
2006 09 05  1545    53983   56700      0    1.58e+00    0    1.11e+00
2006 09 05  1550    53983   57000      0    1.60e+00    0    1.11e+00
2006 09 05  1555    53983   57300      0    1.59e+00    0    1.12e+00
2006 09 05  1600    53983   57600      0    1.62e+00    0    1.13e+00
2006 09 05  1605    53983   57900      0    1.58e+00    0    1.11e+00
2006 09 05  1610    53983   58200      0    1.60e+00    0    1.12e+00
2006 09 05  1615    53983   58500      0    1.58e+00    0    1.11e+00
2006 09 05  1620    53983   58800      0    1.57e+00    0    1.10e+00
2006 09 05  1625    53983   59100      0    1.58e+00    0    1.11e+00
2006 09 05  1630    53983   59400      0    1.59e+00    0    1.11e+00
2006 09 05  1635    53983   59700      0    1.58e+00    0    1.11e+00
2006 09 05  1640    53983   60000      0    1.57e+00    0    1.10e+00
2006 09 05  1645    53983   60300      0    1.56e+00    0    1.10e+00
2006 09 05  1650    53983   60600      0    1.60e+00    0    1.14e+00
2006 09 05  1655    53983   60900      0    1.61e+00    0    1.14e+00
2006 09 05  1700    53983   61200      0    1.60e+00    0    1.13e+00
2006 09 05  1705    53983   61500      0    1.58e+00    0    1.10e+00
2006 09 05  1710    53983   61800      0    1.61e+00    0    1.13e+00
2006 09 05  1715    53983   62100      0    1.55e+00    0    1.10e+00
2006 09 05  1720    53983   62400      0    1.60e+00    0    1.12e+00
2006 09 05  1725    53983   62700      0    1.61e+00    0    1.13e+00
2006 09 05  1730    53983   63000      0    1.56e+00    0    1.09e+00
2006 09 05  1735    53983   63300      0    1.58e+00    0    1.10e+00
2006 09 05  1740    53983   63600      0    1.57e+00    0    1.10e+00
2006 09 05  1745    53983   63900      0    1.62e+00    0    1.14e+00
2006 09 05  1750    53983   64200      0    1.56e+00    0    1.10e+00
2006 09 05  1755    53983   64500      0    1.55e+00    0    1.09e+00
2006 09 05  1800    53983   64800      0    1.57e+00    0    1.10e+00
2006 09 05  1805    53983   65100      0    1.56e+00    0    1.09e+00
2006 09 05  1810    53983   65400      0    1.55e+00    0    1.07e+00
2006 09 05  1815    53983   65700      0    1.59e+00    0    1.11e+00
2006 09 05  1820    53983   66000      0    1.61e+00    0    1.13e+00
2006 09 05  1825    53983   66300      0    1.56e+00    0    1.10e+00
2006 09 05  1830    53983   66600      0    1.58e+00    0    1.10e+00
2006 09 05  1835    53983   66900      0    1.59e+00    0    1.12e+00
2006 09 05  1840    53983   67200      0    1.62e+00    0    1.14e+00
2006 09 05  1845    53983   67500      0    1.58e+00    0    1.11e+00
2006 09 05  1850    53983   67800      0    1.57e+00    0    1.10e+00
2006 09 05  1855    53983   68100      0    1.55e+00    0    1.09e+00
2006 09 05  1900    53983   68400      0    1.58e+00    0    1.11e+00
2006 09 05  1905    53983   68700      0    1.56e+00    0    1.08e+00
2006 09 05  1910    53983   69000      0    1.60e+00    0    1.13e+00
2006 09 05  1915    53983   69300      0    1.56e+00    0    1.09e+00
2006 09 05  1920    53983   69600      0    1.56e+00    0    1.09e+00
2006 09 05  1925    53983   69900      0    1.57e+00    0    1.10e+00
2006 09 05  1930    53983   70200      0    1.59e+00    0    1.11e+00
2006 09 05  1935    53983   70500      0    1.57e+00    0    1.10e+00
2006 09 05  1940    53983   70800      0    1.58e+00    0    1.10e+00
2006 09 05  1945    53983   71100      0    1.58e+00    0    1.09e+00
2006 09 05  1950    53983   71400      0    1.57e+00    0    1.09e+00
2006 09 05  1955    53983   71700      0    1.62e+00    0    1.14e+00
2006 09 05  2000    53983   72000      0    1.61e+00    0    1.14e+00
2006 09 05  2005    53983   72300      0    1.54e+00    0    1.09e+00
2006 09 05  2010    53983   72600      0    1.55e+00    0    1.08e+00
2006 09 05  2015    53983   72900      0    1.56e+00    0    1.10e+00
2006 09 05  2020    53983   73200      0    1.57e+00    0    1.10e+00
2006 09 05  2025    53983   73500      0    1.59e+00    0    1.11e+00
2006 09 05  2030    53983   73800      0    1.56e+00    0    1.08e+00
2006 09 05  2035    53983   74100      0    1.59e+00    0    1.11e+00
2006 09 05  2040    53983   74400      0    1.58e+00    0    1.11e+00
2006 09 05  2045    53983   74700      0    1.56e+00    0    1.09e+00
2006 09 05  2050    53983   75000      0    1.61e+00    0    1.14e+00
2006 09 05  2055    53983   75300      0    1.55e+00    0    1.08e+00
2006 09 05  2100    53983   75600      0    1.54e+00    0    1.07e+00
2006 09 05  2105    53983   75900      0    1.57e+00    0    1.10e+00
2006 09 05  2110    53983   76200      0    1.57e+00    0    1.09e+00
2006 09 05  2115    53983   76500      0    1.61e+00    0    1.12e+00
2006 09 05  2120    53983   76800      0    1.58e+00    0    1.11e+00
2006 09 05  2125    53983   77100      0    1.56e+00    0    1.09e+00
2006 09 05  2130    53983   77400      0    1.61e+00    0    1.13e+00
2006 09 05  2135    53983   77700      0    1.63e+00    0    1.14e+00
2006 09 05  2140    53983   78000      0    1.58e+00    0    1.11e+00
2006 09 05  2145    53983   78300      0    1.54e+00    0    1.09e+00
2006 09 05  2150    53983   78600      0    1.57e+00    0    1.10e+00
2006 09 05  2155    53983   78900      0    1.57e+00    0    1.10e+00
2006 09 05  2200    53983   79200      0    1.55e+00    0    1.08e+00
2006 09 05  2205    53983   79500      0    1.62e+00    0    1.13e+00
2006 09 05  2210    53983   79800      0    1.60e+00    0    1.11e+00
2006 09 05  2215    53983   80100      0    1.62e+00    0    1.15e+00
2006 09 05  2220    53983   80400      0    1.58e+00    0    1.11e+00
2006 09 05  2225    53983   80700      0    1.57e+00    0    1.09e+00
2006 09 05  2230    53983   81000      0    1.56e+00    0    1.09e+00
2006 09 05  2235    53983   81300      0    1.59e+00    0    1.11e+00
2006 09 05  2240    53983   81600      0    1.57e+00    0    1.10e+00
2006 09 05  2245    53983   81900      0    1.55e+00    0    1.09e+00
2006 09 05  2250    53983   82200      0    1.59e+00    0    1.13e+00
2006 09 05  2255    53983   82500      0    1.56e+00    0    1.08e+00
2006 09 05  2300    53983   82800      0    1.59e+00    0    1.11e+00
2006 09 05  2305    53983   83100      0    1.59e+00    0    1.11e+00
2006 09 05  2310    53983   83400      0    1.57e+00    0    1.10e+00
2006 09 05  2315    53983   83700      0    1.54e+00    0    1.08e+00
2006 09 05  2320    53983   84000      0    1.54e+00    0    1.08e+00
2006 09 05  2325    53983   84300      0    1.61e+00    0    1.12e+00
2006 09 05  2330    53983   84600      0    1.61e+00    0    1.13e+00
2006 09 05  2335    53983   84900      0    1.59e+00    0    1.12e+00
2006 09 05  2340    53983   85200      0    1.57e+00    0    1.11e+00
2006 09 05  2345    53983   85500      0    1.57e+00    0    1.11e+00
2006 09 05  2350    53983   85800      0    1.55e+00    0    1.08e+00
2006 09 05  2355    53983   86100      0    1.57e+00    0    1.11e+00
