:Data_list: 20060617_ace_sis_5m.txt
:Created: 2006 Jun 18 0011 UT
# Prepared by the U.S. Dept. of Commerce, NOAA, Space Environment Center.
# Please send comments and suggestions to SEC.Webmaster@noaa.gov 
# 
# Units: proton flux p/cs2-sec-ster
# Status(S): 0 = nominal data, 1 to 8 = bad data record, 9 = no data
# Missing data values: -1.00e+05
# Source: ACE Satellite - Solar Isotope Spectrometer
#
# 5-minute averaged Real-time Integral Flux of High-energy Solar Protons
# 
#                 Modified Seconds
# UT Date   Time   Julian  of the      ---- Integral Proton Flux ----
# YR MO DA  HHMM     Day     Day       S    > 10 MeV    S    > 30 MeV
#--------------------------------------------------------------------
2006 06 17  0000    53903       0      0    1.60e+00    0    1.11e+00
2006 06 17  0005    53903     300      0    1.57e+00    0    1.10e+00
2006 06 17  0010    53903     600      0    1.65e+00    0    1.15e+00
2006 06 17  0015    53903     900      0    1.54e+00    0    1.07e+00
2006 06 17  0020    53903    1200      0    1.59e+00    0    1.11e+00
2006 06 17  0025    53903    1500      0    1.54e+00    0    1.08e+00
2006 06 17  0030    53903    1800      0    1.59e+00    0    1.11e+00
2006 06 17  0035    53903    2100      0    1.59e+00    0    1.12e+00
2006 06 17  0040    53903    2400      0    1.56e+00    0    1.10e+00
2006 06 17  0045    53903    2700      0    1.58e+00    0    1.12e+00
2006 06 17  0050    53903    3000      0    1.62e+00    0    1.12e+00
2006 06 17  0055    53903    3300      0    1.64e+00    0    1.15e+00
2006 06 17  0100    53903    3600      0    1.62e+00    0    1.14e+00
2006 06 17  0105    53903    3900      0    1.61e+00    0    1.13e+00
2006 06 17  0110    53903    4200      0    1.64e+00    0    1.15e+00
2006 06 17  0115    53903    4500      0    1.59e+00    0    1.11e+00
2006 06 17  0120    53903    4800      0    1.63e+00    0    1.16e+00
2006 06 17  0125    53903    5100      0    1.61e+00    0    1.14e+00
2006 06 17  0130    53903    5400      0    1.60e+00    0    1.12e+00
2006 06 17  0135    53903    5700      0    1.60e+00    0    1.13e+00
2006 06 17  0140    53903    6000      0    1.61e+00    0    1.12e+00
2006 06 17  0145    53903    6300      0    1.62e+00    0    1.15e+00
2006 06 17  0150    53903    6600      0    1.61e+00    0    1.13e+00
2006 06 17  0155    53903    6900      0    1.60e+00    0    1.13e+00
2006 06 17  0200    53903    7200      0    1.58e+00    0    1.10e+00
2006 06 17  0205    53903    7500      0    1.59e+00    0    1.11e+00
2006 06 17  0210    53903    7800      0    1.61e+00    0    1.13e+00
2006 06 17  0215    53903    8100      0    1.60e+00    0    1.11e+00
2006 06 17  0220    53903    8400      0    1.61e+00    0    1.13e+00
2006 06 17  0225    53903    8700      0    1.61e+00    0    1.13e+00
2006 06 17  0230    53903    9000      0    1.59e+00    0    1.11e+00
2006 06 17  0235    53903    9300      0    1.61e+00    0    1.14e+00
2006 06 17  0240    53903    9600      0    1.60e+00    0    1.12e+00
2006 06 17  0245    53903    9900      0    1.60e+00    0    1.12e+00
2006 06 17  0250    53903   10200      0    1.61e+00    0    1.12e+00
2006 06 17  0255    53903   10500      0    1.61e+00    0    1.14e+00
2006 06 17  0300    53903   10800      0    1.61e+00    0    1.13e+00
2006 06 17  0305    53903   11100      0    1.59e+00    0    1.11e+00
2006 06 17  0310    53903   11400      0    1.60e+00    0    1.13e+00
2006 06 17  0315    53903   11700      0    1.59e+00    0    1.12e+00
2006 06 17  0320    53903   12000      0    1.62e+00    0    1.14e+00
2006 06 17  0325    53903   12300      0    1.59e+00    0    1.11e+00
2006 06 17  0330    53903   12600      0    1.58e+00    0    1.10e+00
2006 06 17  0335    53903   12900      0    1.60e+00    0    1.12e+00
2006 06 17  0340    53903   13200      0    1.58e+00    0    1.10e+00
2006 06 17  0345    53903   13500      0    1.59e+00    0    1.11e+00
2006 06 17  0350    53903   13800      0    1.59e+00    0    1.11e+00
2006 06 17  0355    53903   14100      0    1.60e+00    0    1.11e+00
2006 06 17  0400    53903   14400      0    1.62e+00    0    1.14e+00
2006 06 17  0405    53903   14700      0    1.60e+00    0    1.11e+00
2006 06 17  0410    53903   15000      0    1.60e+00    0    1.13e+00
2006 06 17  0415    53903   15300      0    1.57e+00    0    1.10e+00
2006 06 17  0420    53903   15600      0    1.60e+00    0    1.11e+00
2006 06 17  0425    53903   15900      0    1.59e+00    0    1.12e+00
2006 06 17  0430    53903   16200      0    1.59e+00    0    1.12e+00
2006 06 17  0435    53903   16500      0    1.59e+00    0    1.11e+00
2006 06 17  0440    53903   16800      0    1.61e+00    0    1.13e+00
2006 06 17  0445    53903   17100      0    1.63e+00    0    1.15e+00
2006 06 17  0450    53903   17400      0    1.60e+00    0    1.13e+00
2006 06 17  0455    53903   17700      0    1.60e+00    0    1.13e+00
2006 06 17  0500    53903   18000      0    1.59e+00    0    1.11e+00
2006 06 17  0505    53903   18300      0    1.58e+00    0    1.11e+00
2006 06 17  0510    53903   18600      0    1.61e+00    0    1.14e+00
2006 06 17  0515    53903   18900      0    1.64e+00    0    1.16e+00
2006 06 17  0520    53903   19200      0    1.60e+00    0    1.12e+00
2006 06 17  0525    53903   19500      0    1.59e+00    0    1.10e+00
2006 06 17  0530    53903   19800      0    1.60e+00    0    1.12e+00
2006 06 17  0535    53903   20100      0    1.62e+00    0    1.13e+00
2006 06 17  0540    53903   20400      0    1.60e+00    0    1.12e+00
2006 06 17  0545    53903   20700      0    1.62e+00    0    1.12e+00
2006 06 17  0550    53903   21000      0    1.61e+00    0    1.13e+00
2006 06 17  0555    53903   21300      0    1.60e+00    0    1.12e+00
2006 06 17  0600    53903   21600      0    1.59e+00    0    1.12e+00
2006 06 17  0605    53903   21900      0    1.62e+00    0    1.14e+00
2006 06 17  0610    53903   22200      0    1.56e+00    0    1.10e+00
2006 06 17  0615    53903   22500      0    1.59e+00    0    1.11e+00
2006 06 17  0620    53903   22800      0    1.60e+00    0    1.12e+00
2006 06 17  0625    53903   23100      0    1.62e+00    0    1.13e+00
2006 06 17  0630    53903   23400      0    1.59e+00    0    1.10e+00
2006 06 17  0635    53903   23700      0    1.61e+00    0    1.12e+00
2006 06 17  0640    53903   24000      0    1.60e+00    0    1.12e+00
2006 06 17  0645    53903   24300      0    1.60e+00    0    1.13e+00
2006 06 17  0650    53903   24600      0    1.59e+00    0    1.11e+00
2006 06 17  0655    53903   24900      0    1.60e+00    0    1.12e+00
2006 06 17  0700    53903   25200      0    1.59e+00    0    1.12e+00
2006 06 17  0705    53903   25500      0    1.60e+00    0    1.12e+00
2006 06 17  0710    53903   25800      0    1.60e+00    0    1.11e+00
2006 06 17  0715    53903   26100      0    1.59e+00    0    1.11e+00
2006 06 17  0720    53903   26400      0    1.63e+00    0    1.13e+00
2006 06 17  0725    53903   26700      0    1.59e+00    0    1.11e+00
2006 06 17  0730    53903   27000      0    1.54e+00    0    1.06e+00
2006 06 17  0735    53903   27300      0    1.58e+00    0    1.10e+00
2006 06 17  0740    53903   27600      0    1.60e+00    0    1.12e+00
2006 06 17  0745    53903   27900      0    1.57e+00    0    1.10e+00
2006 06 17  0750    53903   28200      0    1.57e+00    0    1.10e+00
2006 06 17  0755    53903   28500      0    1.60e+00    0    1.13e+00
2006 06 17  0800    53903   28800      0    1.55e+00    0    1.08e+00
2006 06 17  0805    53903   29100      0    1.61e+00    0    1.15e+00
2006 06 17  0810    53903   29400      0    1.57e+00    0    1.09e+00
2006 06 17  0815    53903   29700      0    1.57e+00    0    1.09e+00
2006 06 17  0820    53903   30000      0    1.59e+00    0    1.11e+00
2006 06 17  0825    53903   30300      0    1.56e+00    0    1.10e+00
2006 06 17  0830    53903   30600      0    1.57e+00    0    1.10e+00
2006 06 17  0835    53903   30900      0    1.61e+00    0    1.12e+00
2006 06 17  0840    53903   31200      0    1.61e+00    0    1.12e+00
2006 06 17  0845    53903   31500      0    1.56e+00    0    1.10e+00
2006 06 17  0850    53903   31800      0    1.55e+00    0    1.09e+00
2006 06 17  0855    53903   32100      0    1.61e+00    0    1.14e+00
2006 06 17  0900    53903   32400      0    1.60e+00    0    1.13e+00
2006 06 17  0905    53903   32700      0    1.61e+00    0    1.13e+00
2006 06 17  0910    53903   33000      0    1.61e+00    0    1.13e+00
2006 06 17  0915    53903   33300      0    1.56e+00    0    1.09e+00
2006 06 17  0920    53903   33600      0    1.57e+00    0    1.10e+00
2006 06 17  0925    53903   33900      0    1.57e+00    0    1.10e+00
2006 06 17  0930    53903   34200      0    1.61e+00    0    1.12e+00
2006 06 17  0935    53903   34500      0    1.59e+00    0    1.11e+00
2006 06 17  0940    53903   34800      0    1.52e+00    0    1.06e+00
2006 06 17  0945    53903   35100      0    1.59e+00    0    1.12e+00
2006 06 17  0950    53903   35400      0    1.59e+00    0    1.11e+00
2006 06 17  0955    53903   35700      0    1.59e+00    0    1.12e+00
2006 06 17  1000    53903   36000      0    1.57e+00    0    1.09e+00
2006 06 17  1005    53903   36300      0    1.56e+00    0    1.09e+00
2006 06 17  1010    53903   36600      0    1.59e+00    0    1.12e+00
2006 06 17  1015    53903   36900      0    1.58e+00    0    1.10e+00
2006 06 17  1020    53903   37200      0    1.59e+00    0    1.12e+00
2006 06 17  1025    53903   37500      0    1.61e+00    0    1.13e+00
2006 06 17  1030    53903   37800      0    1.57e+00    0    1.10e+00
2006 06 17  1035    53903   38100      0    1.59e+00    0    1.11e+00
2006 06 17  1040    53903   38400      0    1.63e+00    0    1.15e+00
2006 06 17  1045    53903   38700      0    1.58e+00    0    1.12e+00
2006 06 17  1050    53903   39000      0    1.58e+00    0    1.10e+00
2006 06 17  1055    53903   39300      0    1.62e+00    0    1.14e+00
2006 06 17  1100    53903   39600      0    1.61e+00    0    1.12e+00
2006 06 17  1105    53903   39900      0    1.58e+00    0    1.11e+00
2006 06 17  1110    53903   40200      0    1.59e+00    0    1.11e+00
2006 06 17  1115    53903   40500      0    1.61e+00    0    1.14e+00
2006 06 17  1120    53903   40800      0    1.57e+00    0    1.09e+00
2006 06 17  1125    53903   41100      0    1.64e+00    0    1.16e+00
2006 06 17  1130    53903   41400      0    1.56e+00    0    1.08e+00
2006 06 17  1135    53903   41700      0    1.61e+00    0    1.13e+00
2006 06 17  1140    53903   42000      0    1.57e+00    0    1.10e+00
2006 06 17  1145    53903   42300      0    1.63e+00    0    1.14e+00
2006 06 17  1150    53903   42600      0    1.58e+00    0    1.10e+00
2006 06 17  1155    53903   42900      0    1.60e+00    0    1.11e+00
2006 06 17  1200    53903   43200      0    1.62e+00    0    1.14e+00
2006 06 17  1205    53903   43500      0    1.56e+00    0    1.09e+00
2006 06 17  1210    53903   43800      0    1.60e+00    0    1.11e+00
2006 06 17  1215    53903   44100      0    1.58e+00    0    1.11e+00
2006 06 17  1220    53903   44400      0    1.61e+00    0    1.12e+00
2006 06 17  1225    53903   44700      0    1.58e+00    0    1.10e+00
2006 06 17  1230    53903   45000      0    1.58e+00    0    1.10e+00
2006 06 17  1235    53903   45300      0    1.57e+00    0    1.10e+00
2006 06 17  1240    53903   45600      0    1.62e+00    0    1.13e+00
2006 06 17  1245    53903   45900      0    1.57e+00    0    1.10e+00
2006 06 17  1250    53903   46200      0    1.61e+00    0    1.12e+00
2006 06 17  1255    53903   46500      0    1.56e+00    0    1.09e+00
2006 06 17  1300    53903   46800      0    1.59e+00    0    1.13e+00
2006 06 17  1305    53903   47100      0    1.57e+00    0    1.09e+00
2006 06 17  1310    53903   47400      0    1.63e+00    0    1.15e+00
2006 06 17  1315    53903   47700      0    1.57e+00    0    1.09e+00
2006 06 17  1320    53903   48000      0    1.58e+00    0    1.10e+00
2006 06 17  1325    53903   48300      0    1.62e+00    0    1.14e+00
2006 06 17  1330    53903   48600      0    1.59e+00    0    1.11e+00
2006 06 17  1335    53903   48900      0    1.60e+00    0    1.12e+00
2006 06 17  1340    53903   49200      0    1.59e+00    0    1.12e+00
2006 06 17  1345    53903   49500      0    1.63e+00    0    1.15e+00
2006 06 17  1350    53903   49800      0    1.62e+00    0    1.13e+00
2006 06 17  1355    53903   50100      0    1.60e+00    0    1.13e+00
2006 06 17  1400    53903   50400      0    1.62e+00    0    1.14e+00
2006 06 17  1405    53903   50700      0    1.57e+00    0    1.11e+00
2006 06 17  1410    53903   51000      0    1.58e+00    0    1.11e+00
2006 06 17  1415    53903   51300      0    1.63e+00    0    1.15e+00
2006 06 17  1420    53903   51600      0    1.57e+00    0    1.10e+00
2006 06 17  1425    53903   51900      0    1.64e+00    0    1.14e+00
2006 06 17  1430    53903   52200      0    1.56e+00    0    1.09e+00
2006 06 17  1435    53903   52500      0    1.54e+00    0    1.07e+00
2006 06 17  1440    53903   52800      0    1.58e+00    0    1.09e+00
2006 06 17  1445    53903   53100      0    1.59e+00    0    1.12e+00
2006 06 17  1450    53903   53400      0    1.61e+00    0    1.14e+00
2006 06 17  1455    53903   53700      0    1.57e+00    0    1.10e+00
2006 06 17  1500    53903   54000      0    1.56e+00    0    1.09e+00
2006 06 17  1505    53903   54300      0    1.57e+00    0    1.10e+00
2006 06 17  1510    53903   54600      0    1.60e+00    0    1.14e+00
2006 06 17  1515    53903   54900      9   -1.00e+05    9   -1.00e+05
2006 06 17  1520    53903   55200      0    1.00e+00    0    2.50e-01
2006 06 17  1525    53903   55500      0    1.46e+00    0    9.22e-01
2006 06 17  1530    53903   55800      0    1.59e+00    0    1.11e+00
2006 06 17  1535    53903   56100      0    1.58e+00    0    1.10e+00
2006 06 17  1540    53903   56400      0    1.58e+00    0    1.10e+00
2006 06 17  1545    53903   56700      0    1.59e+00    0    1.11e+00
2006 06 17  1550    53903   57000      0    1.61e+00    0    1.12e+00
2006 06 17  1555    53903   57300      0    1.60e+00    0    1.12e+00
2006 06 17  1600    53903   57600      0    1.62e+00    0    1.13e+00
2006 06 17  1605    53903   57900      0    1.63e+00    0    1.14e+00
2006 06 17  1610    53903   58200      0    1.59e+00    0    1.11e+00
2006 06 17  1615    53903   58500      0    1.57e+00    0    1.10e+00
2006 06 17  1620    53903   58800      0    1.60e+00    0    1.12e+00
2006 06 17  1625    53903   59100      0    1.60e+00    0    1.14e+00
2006 06 17  1630    53903   59400      0    1.62e+00    0    1.13e+00
2006 06 17  1635    53903   59700      0    1.60e+00    0    1.12e+00
2006 06 17  1640    53903   60000      0    1.60e+00    0    1.13e+00
2006 06 17  1645    53903   60300      0    1.61e+00    0    1.13e+00
2006 06 17  1650    53903   60600      0    1.59e+00    0    1.12e+00
2006 06 17  1655    53903   60900      0    1.61e+00    0    1.13e+00
2006 06 17  1700    53903   61200      0    1.59e+00    0    1.11e+00
2006 06 17  1705    53903   61500      0    1.60e+00    0    1.12e+00
2006 06 17  1710    53903   61800      0    1.61e+00    0    1.14e+00
2006 06 17  1715    53903   62100      0    1.63e+00    0    1.14e+00
2006 06 17  1720    53903   62400      0    1.60e+00    0    1.13e+00
2006 06 17  1725    53903   62700      0    1.61e+00    0    1.12e+00
2006 06 17  1730    53903   63000      0    1.58e+00    0    1.11e+00
2006 06 17  1735    53903   63300      0    1.58e+00    0    1.10e+00
2006 06 17  1740    53903   63600      0    1.57e+00    0    1.10e+00
2006 06 17  1745    53903   63900      0    1.60e+00    0    1.09e+00
2006 06 17  1750    53903   64200      0    1.62e+00    0    1.12e+00
2006 06 17  1755    53903   64500      0    1.62e+00    0    1.15e+00
2006 06 17  1800    53903   64800      0    1.60e+00    0    1.12e+00
2006 06 17  1805    53903   65100      0    1.59e+00    0    1.13e+00
2006 06 17  1810    53903   65400      0    1.59e+00    0    1.11e+00
2006 06 17  1815    53903   65700      0    1.64e+00    0    1.14e+00
2006 06 17  1820    53903   66000      0    1.62e+00    0    1.14e+00
2006 06 17  1825    53903   66300      0    1.63e+00    0    1.16e+00
2006 06 17  1830    53903   66600      0    1.57e+00    0    1.10e+00
2006 06 17  1835    53903   66900      0    1.59e+00    0    1.10e+00
2006 06 17  1840    53903   67200      0    1.64e+00    0    1.15e+00
2006 06 17  1845    53903   67500      0    1.59e+00    0    1.12e+00
2006 06 17  1850    53903   67800      0    1.60e+00    0    1.11e+00
2006 06 17  1855    53903   68100      0    1.59e+00    0    1.11e+00
2006 06 17  1900    53903   68400      0    1.60e+00    0    1.12e+00
2006 06 17  1905    53903   68700      0    1.60e+00    0    1.11e+00
2006 06 17  1910    53903   69000      0    1.60e+00    0    1.13e+00
2006 06 17  1915    53903   69300      0    1.59e+00    0    1.11e+00
2006 06 17  1920    53903   69600      0    1.60e+00    0    1.13e+00
2006 06 17  1925    53903   69900      0    1.63e+00    0    1.14e+00
2006 06 17  1930    53903   70200      0    1.60e+00    0    1.12e+00
2006 06 17  1935    53903   70500      0    1.60e+00    0    1.12e+00
2006 06 17  1940    53903   70800      0    1.61e+00    0    1.12e+00
2006 06 17  1945    53903   71100      0    1.57e+00    0    1.10e+00
2006 06 17  1950    53903   71400      0    1.64e+00    0    1.15e+00
2006 06 17  1955    53903   71700      0    1.62e+00    0    1.14e+00
2006 06 17  2000    53903   72000      0    1.65e+00    0    1.15e+00
2006 06 17  2005    53903   72300      0    1.65e+00    0    1.14e+00
2006 06 17  2010    53903   72600      0    1.63e+00    0    1.14e+00
2006 06 17  2015    53903   72900      0    1.64e+00    0    1.15e+00
2006 06 17  2020    53903   73200      0    1.63e+00    0    1.13e+00
2006 06 17  2025    53903   73500      0    1.62e+00    0    1.14e+00
2006 06 17  2030    53903   73800      0    1.60e+00    0    1.13e+00
2006 06 17  2035    53903   74100      0    1.61e+00    0    1.12e+00
2006 06 17  2040    53903   74400      0    1.62e+00    0    1.15e+00
2006 06 17  2045    53903   74700      0    1.60e+00    0    1.12e+00
2006 06 17  2050    53903   75000      0    1.60e+00    0    1.12e+00
2006 06 17  2055    53903   75300      0    1.61e+00    0    1.13e+00
2006 06 17  2100    53903   75600      0    1.63e+00    0    1.15e+00
2006 06 17  2105    53903   75900      0    1.62e+00    0    1.14e+00
2006 06 17  2110    53903   76200      0    1.59e+00    0    1.12e+00
2006 06 17  2115    53903   76500      0    1.60e+00    0    1.12e+00
2006 06 17  2120    53903   76800      0    1.61e+00    0    1.12e+00
2006 06 17  2125    53903   77100      0    1.63e+00    0    1.14e+00
2006 06 17  2130    53903   77400      0    1.60e+00    0    1.11e+00
2006 06 17  2135    53903   77700      0    1.63e+00    0    1.13e+00
2006 06 17  2140    53903   78000      0    1.61e+00    0    1.13e+00
2006 06 17  2145    53903   78300      0    1.61e+00    0    1.13e+00
2006 06 17  2150    53903   78600      0    1.65e+00    0    1.17e+00
2006 06 17  2155    53903   78900      0    1.59e+00    0    1.12e+00
2006 06 17  2200    53903   79200      0    1.60e+00    0    1.13e+00
2006 06 17  2205    53903   79500      0    1.62e+00    0    1.13e+00
2006 06 17  2210    53903   79800      0    1.61e+00    0    1.12e+00
2006 06 17  2215    53903   80100      0    1.61e+00    0    1.12e+00
2006 06 17  2220    53903   80400      0    1.65e+00    0    1.16e+00
2006 06 17  2225    53903   80700      0    1.63e+00    0    1.15e+00
2006 06 17  2230    53903   81000      0    1.62e+00    0    1.13e+00
2006 06 17  2235    53903   81300      0    1.60e+00    0    1.12e+00
2006 06 17  2240    53903   81600      0    1.61e+00    0    1.13e+00
2006 06 17  2245    53903   81900      0    1.61e+00    0    1.13e+00
2006 06 17  2250    53903   82200      0    1.61e+00    0    1.12e+00
2006 06 17  2255    53903   82500      0    1.59e+00    0    1.11e+00
2006 06 17  2300    53903   82800      0    1.60e+00    0    1.10e+00
2006 06 17  2305    53903   83100      0    1.64e+00    0    1.16e+00
2006 06 17  2310    53903   83400      0    1.60e+00    0    1.13e+00
2006 06 17  2315    53903   83700      0    1.62e+00    0    1.13e+00
2006 06 17  2320    53903   84000      0    1.61e+00    0    1.13e+00
2006 06 17  2325    53903   84300      0    1.63e+00    0    1.14e+00
2006 06 17  2330    53903   84600      0    1.58e+00    0    1.12e+00
2006 06 17  2335    53903   84900      0    1.63e+00    0    1.14e+00
2006 06 17  2340    53903   85200      0    1.63e+00    0    1.14e+00
2006 06 17  2345    53903   85500      0    1.57e+00    0    1.10e+00
2006 06 17  2350    53903   85800      0    1.58e+00    0    1.11e+00
2006 06 17  2355    53903   86100      0    1.60e+00    0    1.10e+00
