:Data_list: 20060813_ace_sis_5m.txt
:Created: 2006 Aug 14 0011 UT
# Prepared by the U.S. Dept. of Commerce, NOAA, Space Environment Center.
# Please send comments and suggestions to SEC.Webmaster@noaa.gov 
# 
# Units: proton flux p/cs2-sec-ster
# Status(S): 0 = nominal data, 1 to 8 = bad data record, 9 = no data
# Missing data values: -1.00e+05
# Source: ACE Satellite - Solar Isotope Spectrometer
#
# 5-minute averaged Real-time Integral Flux of High-energy Solar Protons
# 
#                 Modified Seconds
# UT Date   Time   Julian  of the      ---- Integral Proton Flux ----
# YR MO DA  HHMM     Day     Day       S    > 10 MeV    S    > 30 MeV
#--------------------------------------------------------------------
2006 08 13  0000    53960       0      0    1.69e+00    0    1.18e+00
2006 08 13  0005    53960     300      0    1.71e+00    0    1.21e+00
2006 08 13  0010    53960     600      0    1.66e+00    0    1.17e+00
2006 08 13  0015    53960     900      0    1.63e+00    0    1.14e+00
2006 08 13  0020    53960    1200      0    1.68e+00    0    1.18e+00
2006 08 13  0025    53960    1500      0    1.68e+00    0    1.19e+00
2006 08 13  0030    53960    1800      0    1.70e+00    0    1.19e+00
2006 08 13  0035    53960    2100      0    1.62e+00    0    1.12e+00
2006 08 13  0040    53960    2400      0    1.66e+00    0    1.18e+00
2006 08 13  0045    53960    2700      0    1.68e+00    0    1.17e+00
2006 08 13  0050    53960    3000      0    1.68e+00    0    1.18e+00
2006 08 13  0055    53960    3300      0    1.63e+00    0    1.14e+00
2006 08 13  0100    53960    3600      0    1.67e+00    0    1.17e+00
2006 08 13  0105    53960    3900      0    1.67e+00    0    1.16e+00
2006 08 13  0110    53960    4200      0    1.68e+00    0    1.17e+00
2006 08 13  0115    53960    4500      0    1.66e+00    0    1.17e+00
2006 08 13  0120    53960    4800      0    1.64e+00    0    1.14e+00
2006 08 13  0125    53960    5100      0    1.65e+00    0    1.17e+00
2006 08 13  0130    53960    5400      0    1.65e+00    0    1.16e+00
2006 08 13  0135    53960    5700      0    1.68e+00    0    1.18e+00
2006 08 13  0140    53960    6000      0    1.66e+00    0    1.16e+00
2006 08 13  0145    53960    6300      0    1.69e+00    0    1.17e+00
2006 08 13  0150    53960    6600      0    1.68e+00    0    1.19e+00
2006 08 13  0155    53960    6900      0    1.69e+00    0    1.18e+00
2006 08 13  0200    53960    7200      0    1.66e+00    0    1.16e+00
2006 08 13  0205    53960    7500      0    1.66e+00    0    1.17e+00
2006 08 13  0210    53960    7800      0    1.66e+00    0    1.16e+00
2006 08 13  0215    53960    8100      0    1.63e+00    0    1.15e+00
2006 08 13  0220    53960    8400      0    1.65e+00    0    1.15e+00
2006 08 13  0225    53960    8700      0    1.67e+00    0    1.17e+00
2006 08 13  0230    53960    9000      0    1.67e+00    0    1.16e+00
2006 08 13  0235    53960    9300      0    1.64e+00    0    1.15e+00
2006 08 13  0240    53960    9600      0    1.68e+00    0    1.18e+00
2006 08 13  0245    53960    9900      0    1.65e+00    0    1.16e+00
2006 08 13  0250    53960   10200      0    1.66e+00    0    1.16e+00
2006 08 13  0255    53960   10500      0    1.68e+00    0    1.19e+00
2006 08 13  0300    53960   10800      0    1.67e+00    0    1.17e+00
2006 08 13  0305    53960   11100      0    1.66e+00    0    1.15e+00
2006 08 13  0310    53960   11400      0    1.65e+00    0    1.17e+00
2006 08 13  0315    53960   11700      0    1.61e+00    0    1.12e+00
2006 08 13  0320    53960   12000      0    1.63e+00    0    1.14e+00
2006 08 13  0325    53960   12300      0    1.68e+00    0    1.18e+00
2006 08 13  0330    53960   12600      0    1.65e+00    0    1.15e+00
2006 08 13  0335    53960   12900      0    1.67e+00    0    1.17e+00
2006 08 13  0340    53960   13200      0    1.64e+00    0    1.16e+00
2006 08 13  0345    53960   13500      0    1.69e+00    0    1.18e+00
2006 08 13  0350    53960   13800      0    1.67e+00    0    1.16e+00
2006 08 13  0355    53960   14100      0    1.66e+00    0    1.17e+00
2006 08 13  0400    53960   14400      0    1.64e+00    0    1.14e+00
2006 08 13  0405    53960   14700      0    1.63e+00    0    1.15e+00
2006 08 13  0410    53960   15000      0    1.67e+00    0    1.17e+00
2006 08 13  0415    53960   15300      0    1.66e+00    0    1.17e+00
2006 08 13  0420    53960   15600      0    1.69e+00    0    1.18e+00
2006 08 13  0425    53960   15900      0    1.68e+00    0    1.18e+00
2006 08 13  0430    53960   16200      0    1.64e+00    0    1.15e+00
2006 08 13  0435    53960   16500      0    1.69e+00    0    1.18e+00
2006 08 13  0440    53960   16800      0    1.71e+00    0    1.20e+00
2006 08 13  0445    53960   17100      0    1.65e+00    0    1.15e+00
2006 08 13  0450    53960   17400      0    1.67e+00    0    1.17e+00
2006 08 13  0455    53960   17700      0    1.65e+00    0    1.17e+00
2006 08 13  0500    53960   18000      0    1.68e+00    0    1.19e+00
2006 08 13  0505    53960   18300      0    1.62e+00    0    1.14e+00
2006 08 13  0510    53960   18600      0    1.66e+00    0    1.15e+00
2006 08 13  0515    53960   18900      0    1.63e+00    0    1.12e+00
2006 08 13  0520    53960   19200      0    1.64e+00    0    1.15e+00
2006 08 13  0525    53960   19500      0    1.66e+00    0    1.15e+00
2006 08 13  0530    53960   19800      0    1.66e+00    0    1.16e+00
2006 08 13  0535    53960   20100      0    1.68e+00    0    1.18e+00
2006 08 13  0540    53960   20400      0    1.64e+00    0    1.16e+00
2006 08 13  0545    53960   20700      0    1.65e+00    0    1.15e+00
2006 08 13  0550    53960   21000      0    1.67e+00    0    1.17e+00
2006 08 13  0555    53960   21300      0    1.68e+00    0    1.19e+00
2006 08 13  0600    53960   21600      0    1.67e+00    0    1.18e+00
2006 08 13  0605    53960   21900      0    1.65e+00    0    1.16e+00
2006 08 13  0610    53960   22200      0    1.65e+00    0    1.16e+00
2006 08 13  0615    53960   22500      0    1.66e+00    0    1.16e+00
2006 08 13  0620    53960   22800      0    1.67e+00    0    1.17e+00
2006 08 13  0625    53960   23100      0    1.69e+00    0    1.20e+00
2006 08 13  0630    53960   23400      0    1.64e+00    0    1.16e+00
2006 08 13  0635    53960   23700      0    1.71e+00    0    1.19e+00
2006 08 13  0640    53960   24000      0    1.66e+00    0    1.16e+00
2006 08 13  0645    53960   24300      0    1.66e+00    0    1.16e+00
2006 08 13  0650    53960   24600      0    1.65e+00    0    1.15e+00
2006 08 13  0655    53960   24900      0    1.68e+00    0    1.18e+00
2006 08 13  0700    53960   25200      0    1.69e+00    0    1.19e+00
2006 08 13  0705    53960   25500      0    1.67e+00    0    1.15e+00
2006 08 13  0710    53960   25800      0    1.65e+00    0    1.16e+00
2006 08 13  0715    53960   26100      0    1.66e+00    0    1.17e+00
2006 08 13  0720    53960   26400      0    1.67e+00    0    1.17e+00
2006 08 13  0725    53960   26700      0    1.66e+00    0    1.15e+00
2006 08 13  0730    53960   27000      0    1.69e+00    0    1.18e+00
2006 08 13  0735    53960   27300      0    1.69e+00    0    1.18e+00
2006 08 13  0740    53960   27600      0    1.66e+00    0    1.17e+00
2006 08 13  0745    53960   27900      0    1.66e+00    0    1.16e+00
2006 08 13  0750    53960   28200      0    1.67e+00    0    1.17e+00
2006 08 13  0755    53960   28500      0    1.65e+00    0    1.15e+00
2006 08 13  0800    53960   28800      0    1.69e+00    0    1.19e+00
2006 08 13  0805    53960   29100      0    1.66e+00    0    1.16e+00
2006 08 13  0810    53960   29400      0    1.65e+00    0    1.15e+00
2006 08 13  0815    53960   29700      0    1.62e+00    0    1.14e+00
2006 08 13  0820    53960   30000      0    1.65e+00    0    1.16e+00
2006 08 13  0825    53960   30300      0    1.67e+00    0    1.18e+00
2006 08 13  0830    53960   30600      0    1.66e+00    0    1.16e+00
2006 08 13  0835    53960   30900      0    1.67e+00    0    1.18e+00
2006 08 13  0840    53960   31200      0    1.67e+00    0    1.17e+00
2006 08 13  0845    53960   31500      0    1.66e+00    0    1.17e+00
2006 08 13  0850    53960   31800      0    1.66e+00    0    1.17e+00
2006 08 13  0855    53960   32100      0    1.67e+00    0    1.18e+00
2006 08 13  0900    53960   32400      0    1.67e+00    0    1.17e+00
2006 08 13  0905    53960   32700      0    1.66e+00    0    1.16e+00
2006 08 13  0910    53960   33000      0    1.66e+00    0    1.16e+00
2006 08 13  0915    53960   33300      0    1.66e+00    0    1.16e+00
2006 08 13  0920    53960   33600      0    1.66e+00    0    1.17e+00
2006 08 13  0925    53960   33900      0    1.67e+00    0    1.17e+00
2006 08 13  0930    53960   34200      0    1.63e+00    0    1.15e+00
2006 08 13  0935    53960   34500      0    1.67e+00    0    1.16e+00
2006 08 13  0940    53960   34800      0    1.66e+00    0    1.16e+00
2006 08 13  0945    53960   35100      0    1.67e+00    0    1.17e+00
2006 08 13  0950    53960   35400      0    1.66e+00    0    1.16e+00
2006 08 13  0955    53960   35700      0    1.70e+00    0    1.18e+00
2006 08 13  1000    53960   36000      0    1.66e+00    0    1.18e+00
2006 08 13  1005    53960   36300      0    1.64e+00    0    1.14e+00
2006 08 13  1010    53960   36600      0    1.65e+00    0    1.15e+00
2006 08 13  1015    53960   36900      0    1.65e+00    0    1.15e+00
2006 08 13  1020    53960   37200      0    1.66e+00    0    1.16e+00
2006 08 13  1025    53960   37500      0    1.66e+00    0    1.17e+00
2006 08 13  1030    53960   37800      0    1.70e+00    0    1.19e+00
2006 08 13  1035    53960   38100      0    1.72e+00    0    1.20e+00
2006 08 13  1040    53960   38400      0    1.68e+00    0    1.17e+00
2006 08 13  1045    53960   38700      0    1.66e+00    0    1.16e+00
2006 08 13  1050    53960   39000      0    1.67e+00    0    1.17e+00
2006 08 13  1055    53960   39300      0    1.67e+00    0    1.16e+00
2006 08 13  1100    53960   39600      0    1.70e+00    0    1.18e+00
2006 08 13  1105    53960   39900      0    1.69e+00    0    1.17e+00
2006 08 13  1110    53960   40200      0    1.67e+00    0    1.18e+00
2006 08 13  1115    53960   40500      0    1.66e+00    0    1.16e+00
2006 08 13  1120    53960   40800      0    1.64e+00    0    1.16e+00
2006 08 13  1125    53960   41100      0    1.70e+00    0    1.19e+00
2006 08 13  1130    53960   41400      0    1.62e+00    0    1.13e+00
2006 08 13  1135    53960   41700      0    1.64e+00    0    1.15e+00
2006 08 13  1140    53960   42000      0    1.69e+00    0    1.18e+00
2006 08 13  1145    53960   42300      0    1.69e+00    0    1.19e+00
2006 08 13  1150    53960   42600      0    1.64e+00    0    1.16e+00
2006 08 13  1155    53960   42900      0    1.65e+00    0    1.15e+00
2006 08 13  1200    53960   43200      0    1.69e+00    0    1.19e+00
2006 08 13  1205    53960   43500      0    1.68e+00    0    1.17e+00
2006 08 13  1210    53960   43800      0    1.68e+00    0    1.18e+00
2006 08 13  1215    53960   44100      0    1.65e+00    0    1.15e+00
2006 08 13  1220    53960   44400      0    1.65e+00    0    1.15e+00
2006 08 13  1225    53960   44700      0    1.70e+00    0    1.19e+00
2006 08 13  1230    53960   45000      0    1.65e+00    0    1.15e+00
2006 08 13  1235    53960   45300      0    1.68e+00    0    1.18e+00
2006 08 13  1240    53960   45600      0    1.67e+00    0    1.16e+00
2006 08 13  1245    53960   45900      0    1.69e+00    0    1.18e+00
2006 08 13  1250    53960   46200      0    1.66e+00    0    1.16e+00
2006 08 13  1255    53960   46500      0    1.66e+00    0    1.17e+00
2006 08 13  1300    53960   46800      0    1.67e+00    0    1.17e+00
2006 08 13  1305    53960   47100      0    1.62e+00    0    1.14e+00
2006 08 13  1310    53960   47400      0    1.66e+00    0    1.17e+00
2006 08 13  1315    53960   47700      0    1.68e+00    0    1.17e+00
2006 08 13  1320    53960   48000      0    1.68e+00    0    1.19e+00
2006 08 13  1325    53960   48300      0    1.67e+00    0    1.16e+00
2006 08 13  1330    53960   48600      0    1.69e+00    0    1.20e+00
2006 08 13  1335    53960   48900      0    1.68e+00    0    1.18e+00
2006 08 13  1340    53960   49200      0    1.62e+00    0    1.14e+00
2006 08 13  1345    53960   49500      0    1.65e+00    0    1.16e+00
2006 08 13  1350    53960   49800      0    1.67e+00    0    1.17e+00
2006 08 13  1355    53960   50100      0    1.70e+00    0    1.19e+00
2006 08 13  1400    53960   50400      0    1.65e+00    0    1.16e+00
2006 08 13  1405    53960   50700      0    1.72e+00    0    1.22e+00
2006 08 13  1410    53960   51000      0    1.70e+00    0    1.19e+00
2006 08 13  1415    53960   51300      0    1.71e+00    0    1.19e+00
2006 08 13  1420    53960   51600      0    1.68e+00    0    1.20e+00
2006 08 13  1425    53960   51900      0    1.65e+00    0    1.16e+00
2006 08 13  1430    53960   52200      0    1.65e+00    0    1.16e+00
2006 08 13  1435    53960   52500      0    1.67e+00    0    1.17e+00
2006 08 13  1440    53960   52800      0    1.67e+00    0    1.17e+00
2006 08 13  1445    53960   53100      0    1.65e+00    0    1.16e+00
2006 08 13  1450    53960   53400      0    1.70e+00    0    1.19e+00
2006 08 13  1455    53960   53700      0    1.66e+00    0    1.17e+00
2006 08 13  1500    53960   54000      0    1.68e+00    0    1.18e+00
2006 08 13  1505    53960   54300      0    1.66e+00    0    1.17e+00
2006 08 13  1510    53960   54600      0    1.67e+00    0    1.17e+00
2006 08 13  1515    53960   54900      0    1.68e+00    0    1.18e+00
2006 08 13  1520    53960   55200      0    1.70e+00    0    1.19e+00
2006 08 13  1525    53960   55500      0    1.67e+00    0    1.16e+00
2006 08 13  1530    53960   55800      0    1.67e+00    0    1.17e+00
2006 08 13  1535    53960   56100      0    1.65e+00    0    1.16e+00
2006 08 13  1540    53960   56400      0    1.68e+00    0    1.18e+00
2006 08 13  1545    53960   56700      0    1.67e+00    0    1.16e+00
2006 08 13  1550    53960   57000      0    1.68e+00    0    1.18e+00
2006 08 13  1555    53960   57300      0    1.68e+00    0    1.18e+00
2006 08 13  1600    53960   57600      0    1.68e+00    0    1.18e+00
2006 08 13  1605    53960   57900      0    1.65e+00    0    1.17e+00
2006 08 13  1610    53960   58200      0    1.68e+00    0    1.18e+00
2006 08 13  1615    53960   58500      0    1.67e+00    0    1.18e+00
2006 08 13  1620    53960   58800      0    1.67e+00    0    1.17e+00
2006 08 13  1625    53960   59100      0    1.66e+00    0    1.16e+00
2006 08 13  1630    53960   59400      0    1.67e+00    0    1.17e+00
2006 08 13  1635    53960   59700      0    1.63e+00    0    1.13e+00
2006 08 13  1640    53960   60000      0    1.67e+00    0    1.17e+00
2006 08 13  1645    53960   60300      0    1.67e+00    0    1.16e+00
2006 08 13  1650    53960   60600      0    1.67e+00    0    1.17e+00
2006 08 13  1655    53960   60900      0    1.68e+00    0    1.18e+00
2006 08 13  1700    53960   61200      0    1.66e+00    0    1.18e+00
2006 08 13  1705    53960   61500      0    1.67e+00    0    1.16e+00
2006 08 13  1710    53960   61800      0    1.70e+00    0    1.17e+00
2006 08 13  1715    53960   62100      0    1.66e+00    0    1.17e+00
2006 08 13  1720    53960   62400      0    1.66e+00    0    1.17e+00
2006 08 13  1725    53960   62700      0    1.69e+00    0    1.18e+00
2006 08 13  1730    53960   63000      0    1.65e+00    0    1.15e+00
2006 08 13  1735    53960   63300      0    1.66e+00    0    1.16e+00
2006 08 13  1740    53960   63600      0    1.67e+00    0    1.17e+00
2006 08 13  1745    53960   63900      0    1.67e+00    0    1.17e+00
2006 08 13  1750    53960   64200      0    1.69e+00    0    1.18e+00
2006 08 13  1755    53960   64500      0    1.67e+00    0    1.17e+00
2006 08 13  1800    53960   64800      0    1.67e+00    0    1.17e+00
2006 08 13  1805    53960   65100      0    1.69e+00    0    1.19e+00
2006 08 13  1810    53960   65400      0    1.71e+00    0    1.19e+00
2006 08 13  1815    53960   65700      0    1.66e+00    0    1.16e+00
2006 08 13  1820    53960   66000      0    1.64e+00    0    1.15e+00
2006 08 13  1825    53960   66300      0    1.73e+00    0    1.22e+00
2006 08 13  1830    53960   66600      0    1.68e+00    0    1.18e+00
2006 08 13  1835    53960   66900      0    1.66e+00    0    1.16e+00
2006 08 13  1840    53960   67200      0    1.70e+00    0    1.20e+00
2006 08 13  1845    53960   67500      0    1.66e+00    0    1.17e+00
2006 08 13  1850    53960   67800      0    1.69e+00    0    1.19e+00
2006 08 13  1855    53960   68100      0    1.69e+00    0    1.18e+00
2006 08 13  1900    53960   68400      0    1.69e+00    0    1.19e+00
2006 08 13  1905    53960   68700      0    1.72e+00    0    1.21e+00
2006 08 13  1910    53960   69000      0    1.71e+00    0    1.21e+00
2006 08 13  1915    53960   69300      0    1.70e+00    0    1.19e+00
2006 08 13  1920    53960   69600      0    1.68e+00    0    1.18e+00
2006 08 13  1925    53960   69900      0    1.68e+00    0    1.18e+00
2006 08 13  1930    53960   70200      0    1.68e+00    0    1.19e+00
2006 08 13  1935    53960   70500      0    1.68e+00    0    1.18e+00
2006 08 13  1940    53960   70800      0    1.68e+00    0    1.18e+00
2006 08 13  1945    53960   71100      0    1.66e+00    0    1.16e+00
2006 08 13  1950    53960   71400      0    1.66e+00    0    1.17e+00
2006 08 13  1955    53960   71700      0    1.66e+00    0    1.16e+00
2006 08 13  2000    53960   72000      0    1.68e+00    0    1.17e+00
2006 08 13  2005    53960   72300      0    1.71e+00    0    1.19e+00
2006 08 13  2010    53960   72600      0    1.67e+00    0    1.17e+00
2006 08 13  2015    53960   72900      0    1.69e+00    0    1.19e+00
2006 08 13  2020    53960   73200      0    1.65e+00    0    1.17e+00
2006 08 13  2025    53960   73500      0    1.67e+00    0    1.18e+00
2006 08 13  2030    53960   73800      0    1.67e+00    0    1.17e+00
2006 08 13  2035    53960   74100      0    1.66e+00    0    1.16e+00
2006 08 13  2040    53960   74400      0    1.67e+00    0    1.16e+00
2006 08 13  2045    53960   74700      0    1.72e+00    0    1.21e+00
2006 08 13  2050    53960   75000      0    1.69e+00    0    1.19e+00
2006 08 13  2055    53960   75300      0    1.69e+00    0    1.19e+00
2006 08 13  2100    53960   75600      0    1.66e+00    0    1.16e+00
2006 08 13  2105    53960   75900      0    1.67e+00    0    1.17e+00
2006 08 13  2110    53960   76200      0    1.67e+00    0    1.17e+00
2006 08 13  2115    53960   76500      0    1.65e+00    0    1.18e+00
2006 08 13  2120    53960   76800      0    1.68e+00    0    1.18e+00
2006 08 13  2125    53960   77100      0    1.69e+00    0    1.18e+00
2006 08 13  2130    53960   77400      0    1.70e+00    0    1.19e+00
2006 08 13  2135    53960   77700      0    1.67e+00    0    1.17e+00
2006 08 13  2140    53960   78000      0    1.67e+00    0    1.16e+00
2006 08 13  2145    53960   78300      0    1.70e+00    0    1.19e+00
2006 08 13  2150    53960   78600      0    1.67e+00    0    1.16e+00
2006 08 13  2155    53960   78900      0    1.69e+00    0    1.19e+00
2006 08 13  2200    53960   79200      0    1.66e+00    0    1.18e+00
2006 08 13  2205    53960   79500      0    1.67e+00    0    1.17e+00
2006 08 13  2210    53960   79800      0    1.66e+00    0    1.17e+00
2006 08 13  2215    53960   80100      0    1.68e+00    0    1.18e+00
2006 08 13  2220    53960   80400      0    1.70e+00    0    1.18e+00
2006 08 13  2225    53960   80700      0    1.66e+00    0    1.17e+00
2006 08 13  2230    53960   81000      0    1.67e+00    0    1.17e+00
2006 08 13  2235    53960   81300      0    1.69e+00    0    1.18e+00
2006 08 13  2240    53960   81600      0    1.65e+00    0    1.16e+00
2006 08 13  2245    53960   81900      0    1.69e+00    0    1.20e+00
2006 08 13  2250    53960   82200      0    1.69e+00    0    1.17e+00
2006 08 13  2255    53960   82500      0    1.67e+00    0    1.17e+00
2006 08 13  2300    53960   82800      0    1.68e+00    0    1.18e+00
2006 08 13  2305    53960   83100      0    1.67e+00    0    1.17e+00
2006 08 13  2310    53960   83400      0    1.71e+00    0    1.20e+00
2006 08 13  2315    53960   83700      0    1.68e+00    0    1.19e+00
2006 08 13  2320    53960   84000      0    1.68e+00    0    1.18e+00
2006 08 13  2325    53960   84300      0    1.68e+00    0    1.18e+00
2006 08 13  2330    53960   84600      0    1.67e+00    0    1.17e+00
2006 08 13  2335    53960   84900      0    1.65e+00    0    1.15e+00
2006 08 13  2340    53960   85200      0    1.72e+00    0    1.22e+00
2006 08 13  2345    53960   85500      0    1.73e+00    0    1.22e+00
2006 08 13  2350    53960   85800      0    1.66e+00    0    1.18e+00
2006 08 13  2355    53960   86100      0    1.69e+00    0    1.19e+00
