:Data_list: 20060128_ace_sis_5m.txt
:Created: 2006 Jan 29 0011 UT
# Prepared by the U.S. Dept. of Commerce, NOAA, Space Environment Center.
# Please send comments and suggestions to SEC.Webmaster@noaa.gov 
# 
# Units: proton flux p/cs2-sec-ster
# Status(S): 0 = nominal data, 1 to 8 = bad data record, 9 = no data
# Missing data values: -1.00e+05
# Source: ACE Satellite - Solar Isotope Spectrometer
#
# 5-minute averaged Real-time Integral Flux of High-energy Solar Protons
# 
#                 Modified Seconds
# UT Date   Time   Julian  of the      ---- Integral Proton Flux ----
# YR MO DA  HHMM     Day     Day       S    > 10 MeV    S    > 30 MeV
#--------------------------------------------------------------------
2006 01 28  0000    53763       0      0    1.40e+00    0    9.93e-01
2006 01 28  0005    53763     300      0    1.41e+00    0    9.87e-01
2006 01 28  0010    53763     600      0    1.42e+00    0    1.00e+00
2006 01 28  0015    53763     900      0    1.39e+00    0    9.75e-01
2006 01 28  0020    53763    1200      0    1.40e+00    0    9.77e-01
2006 01 28  0025    53763    1500      0    1.37e+00    0    9.54e-01
2006 01 28  0030    53763    1800      0    1.40e+00    0    9.81e-01
2006 01 28  0035    53763    2100      0    1.43e+00    0    1.00e+00
2006 01 28  0040    53763    2400      0    1.39e+00    0    9.81e-01
2006 01 28  0045    53763    2700      0    1.43e+00    0    1.00e+00
2006 01 28  0050    53763    3000      0    1.40e+00    0    9.76e-01
2006 01 28  0055    53763    3300      0    1.41e+00    0    9.90e-01
2006 01 28  0100    53763    3600      0    1.43e+00    0    1.01e+00
2006 01 28  0105    53763    3900      0    1.40e+00    0    9.77e-01
2006 01 28  0110    53763    4200      0    1.40e+00    0    9.74e-01
2006 01 28  0115    53763    4500      0    1.40e+00    0    9.68e-01
2006 01 28  0120    53763    4800      0    1.37e+00    0    9.52e-01
2006 01 28  0125    53763    5100      0    1.42e+00    0    1.01e+00
2006 01 28  0130    53763    5400      0    1.40e+00    0    9.87e-01
2006 01 28  0135    53763    5700      0    1.44e+00    0    1.01e+00
2006 01 28  0140    53763    6000      0    1.42e+00    0    1.01e+00
2006 01 28  0145    53763    6300      0    1.40e+00    0    9.92e-01
2006 01 28  0150    53763    6600      0    1.46e+00    0    1.01e+00
2006 01 28  0155    53763    6900      0    1.41e+00    0    9.91e-01
2006 01 28  0200    53763    7200      0    1.42e+00    0    1.00e+00
2006 01 28  0205    53763    7500      0    1.38e+00    0    9.74e-01
2006 01 28  0210    53763    7800      0    1.41e+00    0    9.97e-01
2006 01 28  0215    53763    8100      0    1.41e+00    0    9.88e-01
2006 01 28  0220    53763    8400      0    1.40e+00    0    9.90e-01
2006 01 28  0225    53763    8700      0    1.40e+00    0    9.67e-01
2006 01 28  0230    53763    9000      0    1.42e+00    0    9.87e-01
2006 01 28  0235    53763    9300      0    1.38e+00    0    9.72e-01
2006 01 28  0240    53763    9600      0    1.41e+00    0    9.90e-01
2006 01 28  0245    53763    9900      0    1.39e+00    0    9.83e-01
2006 01 28  0250    53763   10200      0    1.40e+00    0    9.92e-01
2006 01 28  0255    53763   10500      0    1.39e+00    0    9.69e-01
2006 01 28  0300    53763   10800      0    1.38e+00    0    9.71e-01
2006 01 28  0305    53763   11100      0    1.42e+00    0    1.00e+00
2006 01 28  0310    53763   11400      0    1.37e+00    0    9.63e-01
2006 01 28  0315    53763   11700      0    1.45e+00    0    1.02e+00
2006 01 28  0320    53763   12000      0    1.43e+00    0    1.00e+00
2006 01 28  0325    53763   12300      0    1.41e+00    0    9.99e-01
2006 01 28  0330    53763   12600      0    1.42e+00    0    9.96e-01
2006 01 28  0335    53763   12900      0    1.42e+00    0    1.00e+00
2006 01 28  0340    53763   13200      0    1.36e+00    0    9.51e-01
2006 01 28  0345    53763   13500      0    1.43e+00    0    9.98e-01
2006 01 28  0350    53763   13800      0    1.40e+00    0    9.94e-01
2006 01 28  0355    53763   14100      0    1.40e+00    0    9.81e-01
2006 01 28  0400    53763   14400      0    1.42e+00    0    9.89e-01
2006 01 28  0405    53763   14700      0    1.37e+00    0    9.68e-01
2006 01 28  0410    53763   15000      0    1.41e+00    0    9.88e-01
2006 01 28  0415    53763   15300      0    1.41e+00    0    1.00e+00
2006 01 28  0420    53763   15600      0    1.40e+00    0    9.80e-01
2006 01 28  0425    53763   15900      0    1.41e+00    0    9.92e-01
2006 01 28  0430    53763   16200      0    1.39e+00    0    9.84e-01
2006 01 28  0435    53763   16500      0    1.40e+00    0    9.77e-01
2006 01 28  0440    53763   16800      0    1.38e+00    0    9.80e-01
2006 01 28  0445    53763   17100      0    1.41e+00    0    9.86e-01
2006 01 28  0450    53763   17400      0    1.43e+00    0    1.01e+00
2006 01 28  0455    53763   17700      0    1.41e+00    0    9.98e-01
2006 01 28  0500    53763   18000      0    1.40e+00    0    9.81e-01
2006 01 28  0505    53763   18300      0    1.43e+00    0    1.00e+00
2006 01 28  0510    53763   18600      0    1.39e+00    0    9.72e-01
2006 01 28  0515    53763   18900      0    1.41e+00    0    9.87e-01
2006 01 28  0520    53763   19200      0    1.39e+00    0    9.69e-01
2006 01 28  0525    53763   19500      0    1.42e+00    0    9.91e-01
2006 01 28  0530    53763   19800      0    1.43e+00    0    1.01e+00
2006 01 28  0535    53763   20100      0    1.38e+00    0    9.74e-01
2006 01 28  0540    53763   20400      0    1.39e+00    0    9.72e-01
2006 01 28  0545    53763   20700      0    1.38e+00    0    9.67e-01
2006 01 28  0550    53763   21000      0    1.40e+00    0    9.88e-01
2006 01 28  0555    53763   21300      0    1.39e+00    0    9.81e-01
2006 01 28  0600    53763   21600      0    1.39e+00    0    9.81e-01
2006 01 28  0605    53763   21900      0    1.39e+00    0    9.78e-01
2006 01 28  0610    53763   22200      0    1.43e+00    0    1.01e+00
2006 01 28  0615    53763   22500      0    1.43e+00    0    1.02e+00
2006 01 28  0620    53763   22800      0    1.41e+00    0    9.92e-01
2006 01 28  0625    53763   23100      0    1.43e+00    0    1.01e+00
2006 01 28  0630    53763   23400      0    1.41e+00    0    9.77e-01
2006 01 28  0635    53763   23700      0    1.44e+00    0    1.02e+00
2006 01 28  0640    53763   24000      0    1.43e+00    0    1.00e+00
2006 01 28  0645    53763   24300      0    1.40e+00    0    9.85e-01
2006 01 28  0650    53763   24600      0    1.43e+00    0    1.00e+00
2006 01 28  0655    53763   24900      0    1.40e+00    0    9.75e-01
2006 01 28  0700    53763   25200      0    1.42e+00    0    1.01e+00
2006 01 28  0705    53763   25500      0    1.40e+00    0    9.79e-01
2006 01 28  0710    53763   25800      0    1.42e+00    0    1.01e+00
2006 01 28  0715    53763   26100      0    1.41e+00    0    1.00e+00
2006 01 28  0720    53763   26400      0    1.42e+00    0    1.00e+00
2006 01 28  0725    53763   26700      0    1.42e+00    0    9.90e-01
2006 01 28  0730    53763   27000      0    1.40e+00    0    9.87e-01
2006 01 28  0735    53763   27300      0    1.42e+00    0    9.92e-01
2006 01 28  0740    53763   27600      0    1.42e+00    0    1.00e+00
2006 01 28  0745    53763   27900      0    1.41e+00    0    9.90e-01
2006 01 28  0750    53763   28200      0    1.38e+00    0    9.63e-01
2006 01 28  0755    53763   28500      0    1.43e+00    0    1.00e+00
2006 01 28  0800    53763   28800      0    1.41e+00    0    9.91e-01
2006 01 28  0805    53763   29100      0    1.40e+00    0    9.84e-01
2006 01 28  0810    53763   29400      0    1.43e+00    0    1.01e+00
2006 01 28  0815    53763   29700      0    1.42e+00    0    9.94e-01
2006 01 28  0820    53763   30000      0    1.42e+00    0    9.94e-01
2006 01 28  0825    53763   30300      0    1.40e+00    0    9.76e-01
2006 01 28  0830    53763   30600      0    1.37e+00    0    9.48e-01
2006 01 28  0835    53763   30900      0    1.39e+00    0    9.71e-01
2006 01 28  0840    53763   31200      0    1.41e+00    0    9.84e-01
2006 01 28  0845    53763   31500      0    1.41e+00    0    9.91e-01
2006 01 28  0850    53763   31800      0    1.40e+00    0    9.83e-01
2006 01 28  0855    53763   32100      0    1.40e+00    0    9.82e-01
2006 01 28  0900    53763   32400      0    1.42e+00    0    9.92e-01
2006 01 28  0905    53763   32700      0    1.38e+00    0    9.70e-01
2006 01 28  0910    53763   33000      0    1.42e+00    0    1.01e+00
2006 01 28  0915    53763   33300      0    1.39e+00    0    9.82e-01
2006 01 28  0920    53763   33600      0    1.39e+00    0    9.79e-01
2006 01 28  0925    53763   33900      0    1.41e+00    0    9.86e-01
2006 01 28  0930    53763   34200      0    1.38e+00    0    9.66e-01
2006 01 28  0935    53763   34500      0    1.42e+00    0    9.97e-01
2006 01 28  0940    53763   34800      0    1.42e+00    0    9.98e-01
2006 01 28  0945    53763   35100      0    1.42e+00    0    9.91e-01
2006 01 28  0950    53763   35400      0    1.39e+00    0    9.78e-01
2006 01 28  0955    53763   35700      0    1.39e+00    0    9.69e-01
2006 01 28  1000    53763   36000      0    1.42e+00    0    1.01e+00
2006 01 28  1005    53763   36300      0    1.43e+00    0    9.93e-01
2006 01 28  1010    53763   36600      0    1.42e+00    0    9.94e-01
2006 01 28  1015    53763   36900      0    1.43e+00    0    1.00e+00
2006 01 28  1020    53763   37200      0    1.39e+00    0    9.79e-01
2006 01 28  1025    53763   37500      0    1.44e+00    0    1.00e+00
2006 01 28  1030    53763   37800      0    1.41e+00    0    9.97e-01
2006 01 28  1035    53763   38100      0    1.42e+00    0    9.98e-01
2006 01 28  1040    53763   38400      0    1.41e+00    0    1.01e+00
2006 01 28  1045    53763   38700      0    1.42e+00    0    9.93e-01
2006 01 28  1050    53763   39000      0    1.43e+00    0    1.01e+00
2006 01 28  1055    53763   39300      0    1.43e+00    0    9.95e-01
2006 01 28  1100    53763   39600      0    1.40e+00    0    9.79e-01
2006 01 28  1105    53763   39900      0    1.41e+00    0    9.92e-01
2006 01 28  1110    53763   40200      0    1.42e+00    0    9.94e-01
2006 01 28  1115    53763   40500      0    1.39e+00    0    9.81e-01
2006 01 28  1120    53763   40800      0    1.39e+00    0    9.79e-01
2006 01 28  1125    53763   41100      0    1.39e+00    0    9.76e-01
2006 01 28  1130    53763   41400      0    1.41e+00    0    9.99e-01
2006 01 28  1135    53763   41700      0    1.39e+00    0    9.75e-01
2006 01 28  1140    53763   42000      0    1.41e+00    0    9.82e-01
2006 01 28  1145    53763   42300      0    1.42e+00    0    9.93e-01
2006 01 28  1150    53763   42600      0    1.40e+00    0    9.89e-01
2006 01 28  1155    53763   42900      0    1.42e+00    0    1.00e+00
2006 01 28  1200    53763   43200      0    1.39e+00    0    9.74e-01
2006 01 28  1205    53763   43500      0    1.41e+00    0    9.89e-01
2006 01 28  1210    53763   43800      0    1.38e+00    0    9.71e-01
2006 01 28  1215    53763   44100      0    1.40e+00    0    9.80e-01
2006 01 28  1220    53763   44400      0    1.42e+00    0    1.00e+00
2006 01 28  1225    53763   44700      0    1.40e+00    0    9.88e-01
2006 01 28  1230    53763   45000      0    1.39e+00    0    9.80e-01
2006 01 28  1235    53763   45300      0    1.43e+00    0    1.01e+00
2006 01 28  1240    53763   45600      0    1.42e+00    0    9.96e-01
2006 01 28  1245    53763   45900      0    1.41e+00    0    9.94e-01
2006 01 28  1250    53763   46200      0    1.41e+00    0    9.88e-01
2006 01 28  1255    53763   46500      0    1.41e+00    0    9.87e-01
2006 01 28  1300    53763   46800      0    1.40e+00    0    9.82e-01
2006 01 28  1305    53763   47100      0    1.36e+00    0    9.56e-01
2006 01 28  1310    53763   47400      0    1.39e+00    0    9.68e-01
2006 01 28  1315    53763   47700      0    1.41e+00    0    9.88e-01
2006 01 28  1320    53763   48000      0    1.40e+00    0    9.84e-01
2006 01 28  1325    53763   48300      0    1.45e+00    0    1.02e+00
2006 01 28  1330    53763   48600      0    1.41e+00    0    9.94e-01
2006 01 28  1335    53763   48900      0    1.42e+00    0    9.98e-01
2006 01 28  1340    53763   49200      0    1.37e+00    0    9.61e-01
2006 01 28  1345    53763   49500      0    1.41e+00    0    9.98e-01
2006 01 28  1350    53763   49800      0    1.43e+00    0    1.00e+00
2006 01 28  1355    53763   50100      0    1.40e+00    0    9.88e-01
2006 01 28  1400    53763   50400      0    1.44e+00    0    1.02e+00
2006 01 28  1405    53763   50700      0    1.42e+00    0    9.94e-01
2006 01 28  1410    53763   51000      0    1.46e+00    0    1.03e+00
2006 01 28  1415    53763   51300      0    1.41e+00    0    9.82e-01
2006 01 28  1420    53763   51600      0    1.42e+00    0    1.00e+00
2006 01 28  1425    53763   51900      0    1.38e+00    0    9.63e-01
2006 01 28  1430    53763   52200      0    1.41e+00    0    9.77e-01
2006 01 28  1435    53763   52500      0    1.43e+00    0    1.01e+00
2006 01 28  1440    53763   52800      0    1.41e+00    0    9.97e-01
2006 01 28  1445    53763   53100      0    1.39e+00    0    9.71e-01
2006 01 28  1450    53763   53400      0    1.38e+00    0    9.59e-01
2006 01 28  1455    53763   53700      0    1.42e+00    0    9.96e-01
2006 01 28  1500    53763   54000      0    1.42e+00    0    1.00e+00
2006 01 28  1505    53763   54300      0    1.41e+00    0    9.93e-01
2006 01 28  1510    53763   54600      0    1.39e+00    0    9.81e-01
2006 01 28  1515    53763   54900      0    1.40e+00    0    9.91e-01
2006 01 28  1520    53763   55200      0    1.37e+00    0    9.60e-01
2006 01 28  1525    53763   55500      0    1.42e+00    0    1.00e+00
2006 01 28  1530    53763   55800      0    1.40e+00    0    9.73e-01
2006 01 28  1535    53763   56100      0    1.40e+00    0    9.86e-01
2006 01 28  1540    53763   56400      0    1.41e+00    0    9.88e-01
2006 01 28  1545    53763   56700      0    1.38e+00    0    9.70e-01
2006 01 28  1550    53763   57000      0    1.39e+00    0    9.84e-01
2006 01 28  1555    53763   57300      0    1.38e+00    0    9.78e-01
2006 01 28  1600    53763   57600      0    1.38e+00    0    9.68e-01
2006 01 28  1605    53763   57900      0    1.40e+00    0    9.87e-01
2006 01 28  1610    53763   58200      0    1.40e+00    0    9.82e-01
2006 01 28  1615    53763   58500      0    1.40e+00    0    9.81e-01
2006 01 28  1620    53763   58800      0    1.43e+00    0    1.00e+00
2006 01 28  1625    53763   59100      0    1.42e+00    0    9.91e-01
2006 01 28  1630    53763   59400      0    1.42e+00    0    1.00e+00
2006 01 28  1635    53763   59700      0    1.39e+00    0    9.64e-01
2006 01 28  1640    53763   60000      0    1.39e+00    0    9.58e-01
2006 01 28  1645    53763   60300      0    1.39e+00    0    9.70e-01
2006 01 28  1650    53763   60600      0    1.43e+00    0    1.00e+00
2006 01 28  1655    53763   60900      0    1.39e+00    0    9.86e-01
2006 01 28  1700    53763   61200      0    1.44e+00    0    1.02e+00
2006 01 28  1705    53763   61500      0    1.41e+00    0    9.72e-01
2006 01 28  1710    53763   61800      0    1.41e+00    0    9.90e-01
2006 01 28  1715    53763   62100      0    1.41e+00    0    9.93e-01
2006 01 28  1720    53763   62400      0    1.40e+00    0    9.82e-01
2006 01 28  1725    53763   62700      0    1.42e+00    0    1.01e+00
2006 01 28  1730    53763   63000      0    1.40e+00    0    9.77e-01
2006 01 28  1735    53763   63300      0    1.37e+00    0    9.64e-01
2006 01 28  1740    53763   63600      0    1.42e+00    0    9.94e-01
2006 01 28  1745    53763   63900      0    1.39e+00    0    9.74e-01
2006 01 28  1750    53763   64200      0    1.44e+00    0    1.01e+00
2006 01 28  1755    53763   64500      0    1.44e+00    0    1.02e+00
2006 01 28  1800    53763   64800      0    1.41e+00    0    9.93e-01
2006 01 28  1805    53763   65100      0    1.41e+00    0    9.88e-01
2006 01 28  1810    53763   65400      0    1.40e+00    0    9.81e-01
2006 01 28  1815    53763   65700      0    1.42e+00    0    9.93e-01
2006 01 28  1820    53763   66000      0    1.40e+00    0    9.89e-01
2006 01 28  1825    53763   66300      0    1.41e+00    0    9.90e-01
2006 01 28  1830    53763   66600      0    1.39e+00    0    9.72e-01
2006 01 28  1835    53763   66900      0    1.38e+00    0    9.69e-01
2006 01 28  1840    53763   67200      0    1.38e+00    0    9.78e-01
2006 01 28  1845    53763   67500      0    1.41e+00    0    1.00e+00
2006 01 28  1850    53763   67800      0    1.44e+00    0    1.01e+00
2006 01 28  1855    53763   68100      0    1.40e+00    0    9.90e-01
2006 01 28  1900    53763   68400      0    1.40e+00    0    9.81e-01
2006 01 28  1905    53763   68700      0    1.42e+00    0    9.97e-01
2006 01 28  1910    53763   69000      0    1.39e+00    0    9.80e-01
2006 01 28  1915    53763   69300      0    1.41e+00    0    1.00e+00
2006 01 28  1920    53763   69600      0    1.38e+00    0    9.73e-01
2006 01 28  1925    53763   69900      0    1.42e+00    0    1.00e+00
2006 01 28  1930    53763   70200      0    1.42e+00    0    9.86e-01
2006 01 28  1935    53763   70500      0    1.43e+00    0    1.01e+00
2006 01 28  1940    53763   70800      0    1.41e+00    0    9.98e-01
2006 01 28  1945    53763   71100      0    1.41e+00    0    9.90e-01
2006 01 28  1950    53763   71400      0    1.41e+00    0    9.89e-01
2006 01 28  1955    53763   71700      0    1.39e+00    0    9.81e-01
2006 01 28  2000    53763   72000      0    1.39e+00    0    9.78e-01
2006 01 28  2005    53763   72300      0    1.40e+00    0    9.72e-01
2006 01 28  2010    53763   72600      0    1.41e+00    0    9.86e-01
2006 01 28  2015    53763   72900      0    1.41e+00    0    9.86e-01
2006 01 28  2020    53763   73200      0    1.42e+00    0    1.00e+00
2006 01 28  2025    53763   73500      0    1.41e+00    0    9.97e-01
2006 01 28  2030    53763   73800      0    1.43e+00    0    1.01e+00
2006 01 28  2035    53763   74100      0    1.43e+00    0    1.01e+00
2006 01 28  2040    53763   74400      0    1.40e+00    0    9.84e-01
2006 01 28  2045    53763   74700      0    1.40e+00    0    9.79e-01
2006 01 28  2050    53763   75000      0    1.42e+00    0    1.01e+00
2006 01 28  2055    53763   75300      0    1.39e+00    0    9.62e-01
2006 01 28  2100    53763   75600      0    1.39e+00    0    9.73e-01
2006 01 28  2105    53763   75900      0    1.39e+00    0    9.80e-01
2006 01 28  2110    53763   76200      0    1.44e+00    0    1.01e+00
2006 01 28  2115    53763   76500      0    1.39e+00    0    9.84e-01
2006 01 28  2120    53763   76800      0    1.38e+00    0    9.66e-01
2006 01 28  2125    53763   77100      0    1.45e+00    0    1.02e+00
2006 01 28  2130    53763   77400      0    1.44e+00    0    1.01e+00
2006 01 28  2135    53763   77700      0    1.42e+00    0    1.00e+00
2006 01 28  2140    53763   78000      0    1.38e+00    0    9.72e-01
2006 01 28  2145    53763   78300      0    1.41e+00    0    9.98e-01
2006 01 28  2150    53763   78600      0    1.40e+00    0    9.81e-01
2006 01 28  2155    53763   78900      0    1.39e+00    0    9.91e-01
2006 01 28  2200    53763   79200      0    1.42e+00    0    9.92e-01
2006 01 28  2205    53763   79500      0    1.41e+00    0    9.84e-01
2006 01 28  2210    53763   79800      0    1.32e+00    0    9.14e-01
2006 01 28  2215    53763   80100      0    1.41e+00    0    9.83e-01
2006 01 28  2220    53763   80400      0    1.42e+00    0    9.88e-01
2006 01 28  2225    53763   80700      0    1.40e+00    0    9.95e-01
2006 01 28  2230    53763   81000      0    1.41e+00    0    9.92e-01
2006 01 28  2235    53763   81300      0    1.43e+00    0    1.02e+00
2006 01 28  2240    53763   81600      0    1.41e+00    0    9.82e-01
2006 01 28  2245    53763   81900      0    1.38e+00    0    9.70e-01
2006 01 28  2250    53763   82200      0    1.41e+00    0    9.86e-01
2006 01 28  2255    53763   82500      0    1.39e+00    0    9.84e-01
2006 01 28  2300    53763   82800      0    1.40e+00    0    9.89e-01
2006 01 28  2305    53763   83100      0    1.45e+00    0    1.02e+00
2006 01 28  2310    53763   83400      0    1.42e+00    0    1.01e+00
2006 01 28  2315    53763   83700      0    1.40e+00    0    9.78e-01
2006 01 28  2320    53763   84000      0    1.43e+00    0    1.00e+00
2006 01 28  2325    53763   84300      0    1.38e+00    0    9.67e-01
2006 01 28  2330    53763   84600      0    1.40e+00    0    9.90e-01
2006 01 28  2335    53763   84900      0    1.40e+00    0    9.93e-01
2006 01 28  2340    53763   85200      0    1.46e+00    0    1.04e+00
2006 01 28  2345    53763   85500      0    1.39e+00    0    9.78e-01
2006 01 28  2350    53763   85800      0    1.42e+00    0    1.00e+00
2006 01 28  2355    53763   86100      0    1.42e+00    0    1.00e+00
