:Data_list: 20060213_ace_sis_5m.txt
:Created: 2006 Feb 14 0011 UT
# Prepared by the U.S. Dept. of Commerce, NOAA, Space Environment Center.
# Please send comments and suggestions to SEC.Webmaster@noaa.gov 
# 
# Units: proton flux p/cs2-sec-ster
# Status(S): 0 = nominal data, 1 to 8 = bad data record, 9 = no data
# Missing data values: -1.00e+05
# Source: ACE Satellite - Solar Isotope Spectrometer
#
# 5-minute averaged Real-time Integral Flux of High-energy Solar Protons
# 
#                 Modified Seconds
# UT Date   Time   Julian  of the      ---- Integral Proton Flux ----
# YR MO DA  HHMM     Day     Day       S    > 10 MeV    S    > 30 MeV
#--------------------------------------------------------------------
2006 02 13  0000    53779       0      0    1.46e+00    0    1.03e+00
2006 02 13  0005    53779     300      0    1.51e+00    0    1.07e+00
2006 02 13  0010    53779     600      0    1.47e+00    0    1.02e+00
2006 02 13  0015    53779     900      0    1.48e+00    0    1.03e+00
2006 02 13  0020    53779    1200      0    1.47e+00    0    1.03e+00
2006 02 13  0025    53779    1500      0    1.49e+00    0    1.05e+00
2006 02 13  0030    53779    1800      0    1.50e+00    0    1.06e+00
2006 02 13  0035    53779    2100      0    1.49e+00    0    1.04e+00
2006 02 13  0040    53779    2400      0    1.48e+00    0    1.04e+00
2006 02 13  0045    53779    2700      0    1.49e+00    0    1.04e+00
2006 02 13  0050    53779    3000      0    1.45e+00    0    1.02e+00
2006 02 13  0055    53779    3300      0    1.45e+00    0    1.02e+00
2006 02 13  0100    53779    3600      0    1.50e+00    0    1.05e+00
2006 02 13  0105    53779    3900      0    1.49e+00    0    1.05e+00
2006 02 13  0110    53779    4200      0    1.47e+00    0    1.02e+00
2006 02 13  0115    53779    4500      0    1.47e+00    0    1.04e+00
2006 02 13  0120    53779    4800      0    1.46e+00    0    1.03e+00
2006 02 13  0125    53779    5100      0    1.46e+00    0    1.03e+00
2006 02 13  0130    53779    5400      0    1.47e+00    0    1.02e+00
2006 02 13  0135    53779    5700      0    1.46e+00    0    1.01e+00
2006 02 13  0140    53779    6000      0    1.49e+00    0    1.05e+00
2006 02 13  0145    53779    6300      0    1.48e+00    0    1.05e+00
2006 02 13  0150    53779    6600      0    1.48e+00    0    1.04e+00
2006 02 13  0155    53779    6900      0    1.49e+00    0    1.06e+00
2006 02 13  0200    53779    7200      0    1.48e+00    0    1.03e+00
2006 02 13  0205    53779    7500      0    1.45e+00    0    1.02e+00
2006 02 13  0210    53779    7800      0    1.47e+00    0    1.04e+00
2006 02 13  0215    53779    8100      0    1.43e+00    0    1.01e+00
2006 02 13  0220    53779    8400      0    1.48e+00    0    1.04e+00
2006 02 13  0225    53779    8700      0    1.47e+00    0    1.04e+00
2006 02 13  0230    53779    9000      0    1.47e+00    0    1.02e+00
2006 02 13  0235    53779    9300      0    1.46e+00    0    1.02e+00
2006 02 13  0240    53779    9600      0    1.47e+00    0    1.04e+00
2006 02 13  0245    53779    9900      0    1.46e+00    0    1.03e+00
2006 02 13  0250    53779   10200      0    1.49e+00    0    1.05e+00
2006 02 13  0255    53779   10500      0    1.50e+00    0    1.05e+00
2006 02 13  0300    53779   10800      0    1.47e+00    0    1.04e+00
2006 02 13  0305    53779   11100      0    1.48e+00    0    1.04e+00
2006 02 13  0310    53779   11400      0    1.47e+00    0    1.04e+00
2006 02 13  0315    53779   11700      0    1.48e+00    0    1.03e+00
2006 02 13  0320    53779   12000      0    1.47e+00    0    1.04e+00
2006 02 13  0325    53779   12300      0    1.46e+00    0    1.02e+00
2006 02 13  0330    53779   12600      0    1.35e+00    0    9.41e-01
2006 02 13  0335    53779   12900      0    1.47e+00    0    1.04e+00
2006 02 13  0340    53779   13200      0    1.49e+00    0    1.05e+00
2006 02 13  0345    53779   13500      0    1.45e+00    0    1.02e+00
2006 02 13  0350    53779   13800      0    1.45e+00    0    1.00e+00
2006 02 13  0355    53779   14100      0    1.46e+00    0    1.02e+00
2006 02 13  0400    53779   14400      0    1.45e+00    0    1.02e+00
2006 02 13  0405    53779   14700      0    1.46e+00    0    1.01e+00
2006 02 13  0410    53779   15000      0    1.48e+00    0    1.03e+00
2006 02 13  0415    53779   15300      0    1.49e+00    0    1.05e+00
2006 02 13  0420    53779   15600      0    1.46e+00    0    1.03e+00
2006 02 13  0425    53779   15900      0    1.47e+00    0    1.03e+00
2006 02 13  0430    53779   16200      0    1.49e+00    0    1.04e+00
2006 02 13  0435    53779   16500      0    1.45e+00    0    1.01e+00
2006 02 13  0440    53779   16800      0    1.45e+00    0    1.02e+00
2006 02 13  0445    53779   17100      0    1.47e+00    0    1.03e+00
2006 02 13  0450    53779   17400      0    1.49e+00    0    1.05e+00
2006 02 13  0455    53779   17700      0    1.45e+00    0    1.01e+00
2006 02 13  0500    53779   18000      0    1.47e+00    0    1.03e+00
2006 02 13  0505    53779   18300      0    1.46e+00    0    1.04e+00
2006 02 13  0510    53779   18600      0    1.46e+00    0    1.03e+00
2006 02 13  0515    53779   18900      0    1.43e+00    0    1.01e+00
2006 02 13  0520    53779   19200      0    1.45e+00    0    1.02e+00
2006 02 13  0525    53779   19500      0    1.47e+00    0    1.02e+00
2006 02 13  0530    53779   19800      0    1.49e+00    0    1.04e+00
2006 02 13  0535    53779   20100      0    1.43e+00    0    1.00e+00
2006 02 13  0540    53779   20400      0    1.45e+00    0    1.02e+00
2006 02 13  0545    53779   20700      0    1.48e+00    0    1.04e+00
2006 02 13  0550    53779   21000      0    1.49e+00    0    1.04e+00
2006 02 13  0555    53779   21300      0    1.47e+00    0    1.04e+00
2006 02 13  0600    53779   21600      0    1.46e+00    0    1.03e+00
2006 02 13  0605    53779   21900      0    1.46e+00    0    1.03e+00
2006 02 13  0610    53779   22200      0    1.46e+00    0    1.04e+00
2006 02 13  0615    53779   22500      0    1.45e+00    0    1.02e+00
2006 02 13  0620    53779   22800      0    1.47e+00    0    1.05e+00
2006 02 13  0625    53779   23100      0    1.49e+00    0    1.04e+00
2006 02 13  0630    53779   23400      0    1.49e+00    0    1.06e+00
2006 02 13  0635    53779   23700      0    1.48e+00    0    1.04e+00
2006 02 13  0640    53779   24000      0    1.47e+00    0    1.04e+00
2006 02 13  0645    53779   24300      0    1.50e+00    0    1.05e+00
2006 02 13  0650    53779   24600      0    1.42e+00    0    9.93e-01
2006 02 13  0655    53779   24900      0    1.47e+00    0    1.03e+00
2006 02 13  0700    53779   25200      0    1.47e+00    0    1.03e+00
2006 02 13  0705    53779   25500      0    1.46e+00    0    1.04e+00
2006 02 13  0710    53779   25800      0    1.48e+00    0    1.05e+00
2006 02 13  0715    53779   26100      0    1.43e+00    0    1.01e+00
2006 02 13  0720    53779   26400      0    1.46e+00    0    1.03e+00
2006 02 13  0725    53779   26700      0    1.46e+00    0    1.03e+00
2006 02 13  0730    53779   27000      0    1.50e+00    0    1.05e+00
2006 02 13  0735    53779   27300      0    1.45e+00    0    1.03e+00
2006 02 13  0740    53779   27600      0    1.46e+00    0    1.02e+00
2006 02 13  0745    53779   27900      0    1.41e+00    0    9.90e-01
2006 02 13  0750    53779   28200      0    1.48e+00    0    1.03e+00
2006 02 13  0755    53779   28500      0    1.45e+00    0    1.02e+00
2006 02 13  0800    53779   28800      0    1.46e+00    0    1.03e+00
2006 02 13  0805    53779   29100      0    1.49e+00    0    1.04e+00
2006 02 13  0810    53779   29400      0    1.46e+00    0    1.03e+00
2006 02 13  0815    53779   29700      0    1.45e+00    0    1.01e+00
2006 02 13  0820    53779   30000      0    1.47e+00    0    1.02e+00
2006 02 13  0825    53779   30300      0    1.48e+00    0    1.04e+00
2006 02 13  0830    53779   30600      0    1.47e+00    0    1.03e+00
2006 02 13  0835    53779   30900      0    1.47e+00    0    1.03e+00
2006 02 13  0840    53779   31200      0    1.47e+00    0    1.04e+00
2006 02 13  0845    53779   31500      0    1.46e+00    0    1.02e+00
2006 02 13  0850    53779   31800      0    1.46e+00    0    1.03e+00
2006 02 13  0855    53779   32100      0    1.45e+00    0    1.01e+00
2006 02 13  0900    53779   32400      0    1.44e+00    0    1.00e+00
2006 02 13  0905    53779   32700      0    1.44e+00    0    1.01e+00
2006 02 13  0910    53779   33000      0    1.47e+00    0    1.04e+00
2006 02 13  0915    53779   33300      0    1.45e+00    0    1.02e+00
2006 02 13  0920    53779   33600      0    1.45e+00    0    1.02e+00
2006 02 13  0925    53779   33900      0    1.47e+00    0    1.03e+00
2006 02 13  0930    53779   34200      0    1.48e+00    0    1.05e+00
2006 02 13  0935    53779   34500      0    1.48e+00    0    1.03e+00
2006 02 13  0940    53779   34800      0    1.46e+00    0    1.03e+00
2006 02 13  0945    53779   35100      0    1.47e+00    0    1.04e+00
2006 02 13  0950    53779   35400      0    1.42e+00    0    9.98e-01
2006 02 13  0955    53779   35700      0    1.48e+00    0    1.05e+00
2006 02 13  1000    53779   36000      0    1.46e+00    0    1.03e+00
2006 02 13  1005    53779   36300      0    1.50e+00    0    1.05e+00
2006 02 13  1010    53779   36600      0    1.50e+00    0    1.06e+00
2006 02 13  1015    53779   36900      0    1.47e+00    0    1.04e+00
2006 02 13  1020    53779   37200      0    1.50e+00    0    1.05e+00
2006 02 13  1025    53779   37500      0    1.55e+00    0    1.09e+00
2006 02 13  1030    53779   37800      0    1.47e+00    0    1.05e+00
2006 02 13  1035    53779   38100      0    1.48e+00    0    1.04e+00
2006 02 13  1040    53779   38400      0    1.51e+00    0    1.07e+00
2006 02 13  1045    53779   38700      0    1.50e+00    0    1.06e+00
2006 02 13  1050    53779   39000      0    1.46e+00    0    1.03e+00
2006 02 13  1055    53779   39300      0    1.51e+00    0    1.05e+00
2006 02 13  1100    53779   39600      0    1.51e+00    0    1.07e+00
2006 02 13  1105    53779   39900      0    1.48e+00    0    1.04e+00
2006 02 13  1110    53779   40200      0    1.52e+00    0    1.07e+00
2006 02 13  1115    53779   40500      0    1.49e+00    0    1.05e+00
2006 02 13  1120    53779   40800      0    1.52e+00    0    1.07e+00
2006 02 13  1125    53779   41100      0    1.45e+00    0    1.02e+00
2006 02 13  1130    53779   41400      0    1.51e+00    0    1.06e+00
2006 02 13  1135    53779   41700      0    1.48e+00    0    1.04e+00
2006 02 13  1140    53779   42000      0    1.48e+00    0    1.04e+00
2006 02 13  1145    53779   42300      0    1.48e+00    0    1.03e+00
2006 02 13  1150    53779   42600      0    1.48e+00    0    1.04e+00
2006 02 13  1155    53779   42900      0    1.44e+00    0    1.00e+00
2006 02 13  1200    53779   43200      0    1.48e+00    0    1.05e+00
2006 02 13  1205    53779   43500      0    1.48e+00    0    1.04e+00
2006 02 13  1210    53779   43800      0    1.47e+00    0    1.02e+00
2006 02 13  1215    53779   44100      0    1.48e+00    0    1.05e+00
2006 02 13  1220    53779   44400      0    1.46e+00    0    1.02e+00
2006 02 13  1225    53779   44700      0    1.48e+00    0    1.05e+00
2006 02 13  1230    53779   45000      0    1.48e+00    0    1.04e+00
2006 02 13  1235    53779   45300      0    1.47e+00    0    1.03e+00
2006 02 13  1240    53779   45600      0    1.51e+00    0    1.07e+00
2006 02 13  1245    53779   45900      0    1.46e+00    0    1.03e+00
2006 02 13  1250    53779   46200      0    1.48e+00    0    1.03e+00
2006 02 13  1255    53779   46500      0    1.50e+00    0    1.05e+00
2006 02 13  1300    53779   46800      0    1.50e+00    0    1.06e+00
2006 02 13  1305    53779   47100      0    1.49e+00    0    1.04e+00
2006 02 13  1310    53779   47400      0    1.50e+00    0    1.06e+00
2006 02 13  1315    53779   47700      0    1.49e+00    0    1.04e+00
2006 02 13  1320    53779   48000      0    1.49e+00    0    1.05e+00
2006 02 13  1325    53779   48300      0    1.48e+00    0    1.04e+00
2006 02 13  1330    53779   48600      0    1.49e+00    0    1.05e+00
2006 02 13  1335    53779   48900      0    1.46e+00    0    1.03e+00
2006 02 13  1340    53779   49200      0    1.51e+00    0    1.06e+00
2006 02 13  1345    53779   49500      0    1.48e+00    0    1.05e+00
2006 02 13  1350    53779   49800      0    1.50e+00    0    1.05e+00
2006 02 13  1355    53779   50100      0    1.50e+00    0    1.05e+00
2006 02 13  1400    53779   50400      0    1.48e+00    0    1.04e+00
2006 02 13  1405    53779   50700      0    1.47e+00    0    1.03e+00
2006 02 13  1410    53779   51000      0    1.48e+00    0    1.04e+00
2006 02 13  1415    53779   51300      0    1.51e+00    0    1.06e+00
2006 02 13  1420    53779   51600      0    1.51e+00    0    1.06e+00
2006 02 13  1425    53779   51900      0    1.51e+00    0    1.06e+00
2006 02 13  1430    53779   52200      0    1.46e+00    0    1.02e+00
2006 02 13  1435    53779   52500      0    1.46e+00    0    1.03e+00
2006 02 13  1440    53779   52800      0    1.50e+00    0    1.05e+00
2006 02 13  1445    53779   53100      0    1.47e+00    0    1.04e+00
2006 02 13  1450    53779   53400      0    1.48e+00    0    1.05e+00
2006 02 13  1455    53779   53700      0    1.48e+00    0    1.03e+00
2006 02 13  1500    53779   54000      0    1.50e+00    0    1.06e+00
2006 02 13  1505    53779   54300      0    1.49e+00    0    1.04e+00
2006 02 13  1510    53779   54600      0    1.50e+00    0    1.06e+00
2006 02 13  1515    53779   54900      0    1.50e+00    0    1.04e+00
2006 02 13  1520    53779   55200      0    1.54e+00    0    1.09e+00
2006 02 13  1525    53779   55500      0    1.47e+00    0    1.04e+00
2006 02 13  1530    53779   55800      0    1.47e+00    0    1.04e+00
2006 02 13  1535    53779   56100      0    1.46e+00    0    1.02e+00
2006 02 13  1540    53779   56400      0    1.47e+00    0    1.03e+00
2006 02 13  1545    53779   56700      0    1.47e+00    0    1.04e+00
2006 02 13  1550    53779   57000      0    1.46e+00    0    1.03e+00
2006 02 13  1555    53779   57300      0    1.47e+00    0    1.04e+00
2006 02 13  1600    53779   57600      0    1.48e+00    0    1.02e+00
2006 02 13  1605    53779   57900      0    1.50e+00    0    1.05e+00
2006 02 13  1610    53779   58200      0    1.50e+00    0    1.06e+00
2006 02 13  1615    53779   58500      0    1.48e+00    0    1.05e+00
2006 02 13  1620    53779   58800      0    1.48e+00    0    1.03e+00
2006 02 13  1625    53779   59100      0    1.47e+00    0    1.03e+00
2006 02 13  1630    53779   59400      0    1.50e+00    0    1.05e+00
2006 02 13  1635    53779   59700      0    1.51e+00    0    1.06e+00
2006 02 13  1640    53779   60000      0    1.48e+00    0    1.03e+00
2006 02 13  1645    53779   60300      0    1.45e+00    0    1.02e+00
2006 02 13  1650    53779   60600      0    1.52e+00    0    1.07e+00
2006 02 13  1655    53779   60900      0    1.49e+00    0    1.06e+00
2006 02 13  1700    53779   61200      0    1.50e+00    0    1.06e+00
2006 02 13  1705    53779   61500      0    1.48e+00    0    1.05e+00
2006 02 13  1710    53779   61800      0    1.49e+00    0    1.06e+00
2006 02 13  1715    53779   62100      0    1.49e+00    0    1.04e+00
2006 02 13  1720    53779   62400      0    1.49e+00    0    1.06e+00
2006 02 13  1725    53779   62700      0    1.47e+00    0    1.04e+00
2006 02 13  1730    53779   63000      0    1.53e+00    0    1.07e+00
2006 02 13  1735    53779   63300      0    1.46e+00    0    1.02e+00
2006 02 13  1740    53779   63600      0    1.47e+00    0    1.02e+00
2006 02 13  1745    53779   63900      0    1.48e+00    0    1.04e+00
2006 02 13  1750    53779   64200      0    1.47e+00    0    1.02e+00
2006 02 13  1755    53779   64500      0    1.50e+00    0    1.05e+00
2006 02 13  1800    53779   64800      0    1.49e+00    0    1.05e+00
2006 02 13  1805    53779   65100      0    1.48e+00    0    1.05e+00
2006 02 13  1810    53779   65400      0    1.47e+00    0    1.03e+00
2006 02 13  1815    53779   65700      0    1.50e+00    0    1.05e+00
2006 02 13  1820    53779   66000      0    1.46e+00    0    1.03e+00
2006 02 13  1825    53779   66300      0    1.45e+00    0    9.94e-01
2006 02 13  1830    53779   66600      0    1.48e+00    0    1.05e+00
2006 02 13  1835    53779   66900      0    1.52e+00    0    1.08e+00
2006 02 13  1840    53779   67200      0    1.51e+00    0    1.06e+00
2006 02 13  1845    53779   67500      0    1.49e+00    0    1.04e+00
2006 02 13  1850    53779   67800      0    1.50e+00    0    1.06e+00
2006 02 13  1855    53779   68100      0    1.49e+00    0    1.05e+00
2006 02 13  1900    53779   68400      0    1.47e+00    0    1.03e+00
2006 02 13  1905    53779   68700      0    1.44e+00    0    9.99e-01
2006 02 13  1910    53779   69000      0    1.45e+00    0    1.01e+00
2006 02 13  1915    53779   69300      0    1.45e+00    0    1.02e+00
2006 02 13  1920    53779   69600      0    1.47e+00    0    1.03e+00
2006 02 13  1925    53779   69900      0    1.47e+00    0    1.03e+00
2006 02 13  1930    53779   70200      0    1.47e+00    0    1.03e+00
2006 02 13  1935    53779   70500      0    1.46e+00    0    1.03e+00
2006 02 13  1940    53779   70800      0    1.46e+00    0    1.01e+00
2006 02 13  1945    53779   71100      0    1.46e+00    0    1.03e+00
2006 02 13  1950    53779   71400      0    1.49e+00    0    1.06e+00
2006 02 13  1955    53779   71700      0    1.45e+00    0    1.01e+00
2006 02 13  2000    53779   72000      0    1.48e+00    0    1.04e+00
2006 02 13  2005    53779   72300      0    1.48e+00    0    1.05e+00
2006 02 13  2010    53779   72600      0    1.45e+00    0    1.02e+00
2006 02 13  2015    53779   72900      0    1.44e+00    0    1.00e+00
2006 02 13  2020    53779   73200      0    1.45e+00    0    1.03e+00
2006 02 13  2025    53779   73500      0    1.50e+00    0    1.05e+00
2006 02 13  2030    53779   73800      0    1.47e+00    0    1.04e+00
2006 02 13  2035    53779   74100      0    1.47e+00    0    1.03e+00
2006 02 13  2040    53779   74400      0    1.47e+00    0    1.03e+00
2006 02 13  2045    53779   74700      0    1.49e+00    0    1.04e+00
2006 02 13  2050    53779   75000      0    1.46e+00    0    1.02e+00
2006 02 13  2055    53779   75300      0    1.48e+00    0    1.04e+00
2006 02 13  2100    53779   75600      0    1.49e+00    0    1.05e+00
2006 02 13  2105    53779   75900      0    1.48e+00    0    1.03e+00
2006 02 13  2110    53779   76200      0    1.48e+00    0    1.04e+00
2006 02 13  2115    53779   76500      0    1.44e+00    0    1.01e+00
2006 02 13  2120    53779   76800      0    1.48e+00    0    1.03e+00
2006 02 13  2125    53779   77100      0    1.48e+00    0    1.04e+00
2006 02 13  2130    53779   77400      0    1.45e+00    0    1.01e+00
2006 02 13  2135    53779   77700      0    1.46e+00    0    1.03e+00
2006 02 13  2140    53779   78000      0    1.51e+00    0    1.07e+00
2006 02 13  2145    53779   78300      0    1.49e+00    0    1.04e+00
2006 02 13  2150    53779   78600      0    1.48e+00    0    1.03e+00
2006 02 13  2155    53779   78900      0    1.45e+00    0    1.02e+00
2006 02 13  2200    53779   79200      0    1.47e+00    0    1.04e+00
2006 02 13  2205    53779   79500      0    1.48e+00    0    1.04e+00
2006 02 13  2210    53779   79800      0    1.45e+00    0    1.03e+00
2006 02 13  2215    53779   80100      0    1.49e+00    0    1.05e+00
2006 02 13  2220    53779   80400      0    1.49e+00    0    1.05e+00
2006 02 13  2225    53779   80700      0    1.50e+00    0    1.06e+00
2006 02 13  2230    53779   81000      0    1.46e+00    0    1.02e+00
2006 02 13  2235    53779   81300      0    1.46e+00    0    1.03e+00
2006 02 13  2240    53779   81600      0    1.52e+00    0    1.07e+00
2006 02 13  2245    53779   81900      0    1.48e+00    0    1.03e+00
2006 02 13  2250    53779   82200      0    1.48e+00    0    1.05e+00
2006 02 13  2255    53779   82500      0    1.48e+00    0    1.04e+00
2006 02 13  2300    53779   82800      0    1.45e+00    0    1.03e+00
2006 02 13  2305    53779   83100      0    1.48e+00    0    1.04e+00
2006 02 13  2310    53779   83400      0    1.52e+00    0    1.07e+00
2006 02 13  2315    53779   83700      0    1.49e+00    0    1.04e+00
2006 02 13  2320    53779   84000      0    1.48e+00    0    1.03e+00
2006 02 13  2325    53779   84300      0    1.45e+00    0    1.02e+00
2006 02 13  2330    53779   84600      0    1.45e+00    0    1.02e+00
2006 02 13  2335    53779   84900      0    1.45e+00    0    1.02e+00
2006 02 13  2340    53779   85200      0    1.50e+00    0    1.06e+00
2006 02 13  2345    53779   85500      0    1.48e+00    0    1.03e+00
2006 02 13  2350    53779   85800      0    1.45e+00    0    1.03e+00
2006 02 13  2355    53779   86100      0    1.47e+00    0    1.03e+00
