:Data_list: 20060311_ace_sis_5m.txt
:Created: 2006 Mar 12 0011 UT
# Prepared by the U.S. Dept. of Commerce, NOAA, Space Environment Center.
# Please send comments and suggestions to SEC.Webmaster@noaa.gov 
# 
# Units: proton flux p/cs2-sec-ster
# Status(S): 0 = nominal data, 1 to 8 = bad data record, 9 = no data
# Missing data values: -1.00e+05
# Source: ACE Satellite - Solar Isotope Spectrometer
#
# 5-minute averaged Real-time Integral Flux of High-energy Solar Protons
# 
#                 Modified Seconds
# UT Date   Time   Julian  of the      ---- Integral Proton Flux ----
# YR MO DA  HHMM     Day     Day       S    > 10 MeV    S    > 30 MeV
#--------------------------------------------------------------------
2006 03 11  0000    53805       0      0    1.49e+00    0    1.04e+00
2006 03 11  0005    53805     300      0    1.52e+00    0    1.08e+00
2006 03 11  0010    53805     600      0    1.54e+00    0    1.09e+00
2006 03 11  0015    53805     900      0    1.52e+00    0    1.06e+00
2006 03 11  0020    53805    1200      0    1.49e+00    0    1.05e+00
2006 03 11  0025    53805    1500      0    1.51e+00    0    1.06e+00
2006 03 11  0030    53805    1800      0    1.52e+00    0    1.07e+00
2006 03 11  0035    53805    2100      0    1.51e+00    0    1.06e+00
2006 03 11  0040    53805    2400      0    1.52e+00    0    1.07e+00
2006 03 11  0045    53805    2700      0    1.50e+00    0    1.05e+00
2006 03 11  0050    53805    3000      0    1.50e+00    0    1.06e+00
2006 03 11  0055    53805    3300      0    1.53e+00    0    1.07e+00
2006 03 11  0100    53805    3600      0    1.51e+00    0    1.06e+00
2006 03 11  0105    53805    3900      0    1.51e+00    0    1.06e+00
2006 03 11  0110    53805    4200      0    1.50e+00    0    1.06e+00
2006 03 11  0115    53805    4500      0    1.47e+00    0    1.02e+00
2006 03 11  0120    53805    4800      0    1.52e+00    0    1.06e+00
2006 03 11  0125    53805    5100      0    1.53e+00    0    1.08e+00
2006 03 11  0130    53805    5400      0    1.50e+00    0    1.05e+00
2006 03 11  0135    53805    5700      0    1.52e+00    0    1.07e+00
2006 03 11  0140    53805    6000      0    1.50e+00    0    1.06e+00
2006 03 11  0145    53805    6300      0    1.49e+00    0    1.05e+00
2006 03 11  0150    53805    6600      0    1.45e+00    0    1.02e+00
2006 03 11  0155    53805    6900      0    1.46e+00    0    1.03e+00
2006 03 11  0200    53805    7200      0    1.48e+00    0    1.04e+00
2006 03 11  0205    53805    7500      0    1.49e+00    0    1.04e+00
2006 03 11  0210    53805    7800      0    1.50e+00    0    1.06e+00
2006 03 11  0215    53805    8100      0    1.51e+00    0    1.07e+00
2006 03 11  0220    53805    8400      0    1.51e+00    0    1.06e+00
2006 03 11  0225    53805    8700      0    1.52e+00    0    1.06e+00
2006 03 11  0230    53805    9000      0    1.52e+00    0    1.08e+00
2006 03 11  0235    53805    9300      0    1.48e+00    0    1.03e+00
2006 03 11  0240    53805    9600      0    1.50e+00    0    1.04e+00
2006 03 11  0245    53805    9900      0    1.49e+00    0    1.05e+00
2006 03 11  0250    53805   10200      0    1.49e+00    0    1.05e+00
2006 03 11  0255    53805   10500      0    1.50e+00    0    1.05e+00
2006 03 11  0300    53805   10800      0    1.50e+00    0    1.06e+00
2006 03 11  0305    53805   11100      0    1.53e+00    0    1.08e+00
2006 03 11  0310    53805   11400      0    1.50e+00    0    1.06e+00
2006 03 11  0315    53805   11700      0    1.52e+00    0    1.07e+00
2006 03 11  0320    53805   12000      0    1.49e+00    0    1.05e+00
2006 03 11  0325    53805   12300      0    1.53e+00    0    1.09e+00
2006 03 11  0330    53805   12600      0    1.52e+00    0    1.06e+00
2006 03 11  0335    53805   12900      0    1.51e+00    0    1.06e+00
2006 03 11  0340    53805   13200      0    1.54e+00    0    1.09e+00
2006 03 11  0345    53805   13500      0    1.50e+00    0    1.04e+00
2006 03 11  0350    53805   13800      0    1.51e+00    0    1.05e+00
2006 03 11  0355    53805   14100      0    1.52e+00    0    1.07e+00
2006 03 11  0400    53805   14400      0    1.51e+00    0    1.06e+00
2006 03 11  0405    53805   14700      0    1.55e+00    0    1.09e+00
2006 03 11  0410    53805   15000      0    1.49e+00    0    1.05e+00
2006 03 11  0415    53805   15300      0    1.50e+00    0    1.05e+00
2006 03 11  0420    53805   15600      0    1.52e+00    0    1.07e+00
2006 03 11  0425    53805   15900      0    1.51e+00    0    1.06e+00
2006 03 11  0430    53805   16200      0    1.51e+00    0    1.07e+00
2006 03 11  0435    53805   16500      0    1.52e+00    0    1.08e+00
2006 03 11  0440    53805   16800      0    1.51e+00    0    1.05e+00
2006 03 11  0445    53805   17100      0    1.53e+00    0    1.09e+00
2006 03 11  0450    53805   17400      0    1.53e+00    0    1.08e+00
2006 03 11  0455    53805   17700      0    1.53e+00    0    1.07e+00
2006 03 11  0500    53805   18000      0    1.53e+00    0    1.08e+00
2006 03 11  0505    53805   18300      0    1.52e+00    0    1.06e+00
2006 03 11  0510    53805   18600      0    1.52e+00    0    1.07e+00
2006 03 11  0515    53805   18900      0    1.48e+00    0    1.03e+00
2006 03 11  0520    53805   19200      0    1.51e+00    0    1.07e+00
2006 03 11  0525    53805   19500      0    1.47e+00    0    1.03e+00
2006 03 11  0530    53805   19800      0    1.50e+00    0    1.06e+00
2006 03 11  0535    53805   20100      0    1.51e+00    0    1.06e+00
2006 03 11  0540    53805   20400      0    1.48e+00    0    1.04e+00
2006 03 11  0545    53805   20700      0    1.50e+00    0    1.05e+00
2006 03 11  0550    53805   21000      0    1.52e+00    0    1.07e+00
2006 03 11  0555    53805   21300      0    1.50e+00    0    1.06e+00
2006 03 11  0600    53805   21600      0    1.51e+00    0    1.06e+00
2006 03 11  0605    53805   21900      0    1.47e+00    0    1.02e+00
2006 03 11  0610    53805   22200      0    1.50e+00    0    1.06e+00
2006 03 11  0615    53805   22500      0    1.55e+00    0    1.10e+00
2006 03 11  0620    53805   22800      0    1.52e+00    0    1.08e+00
2006 03 11  0625    53805   23100      0    1.53e+00    0    1.07e+00
2006 03 11  0630    53805   23400      0    1.51e+00    0    1.05e+00
2006 03 11  0635    53805   23700      0    1.51e+00    0    1.06e+00
2006 03 11  0640    53805   24000      0    1.53e+00    0    1.08e+00
2006 03 11  0645    53805   24300      0    1.51e+00    0    1.06e+00
2006 03 11  0650    53805   24600      0    1.51e+00    0    1.05e+00
2006 03 11  0655    53805   24900      0    1.49e+00    0    1.05e+00
2006 03 11  0700    53805   25200      0    1.49e+00    0    1.04e+00
2006 03 11  0705    53805   25500      0    1.47e+00    0    1.04e+00
2006 03 11  0710    53805   25800      0    1.49e+00    0    1.05e+00
2006 03 11  0715    53805   26100      0    1.49e+00    0    1.06e+00
2006 03 11  0720    53805   26400      0    1.50e+00    0    1.06e+00
2006 03 11  0725    53805   26700      0    1.52e+00    0    1.07e+00
2006 03 11  0730    53805   27000      0    1.50e+00    0    1.05e+00
2006 03 11  0735    53805   27300      0    1.51e+00    0    1.05e+00
2006 03 11  0740    53805   27600      0    1.50e+00    0    1.05e+00
2006 03 11  0745    53805   27900      0    1.50e+00    0    1.06e+00
2006 03 11  0750    53805   28200      0    1.51e+00    0    1.06e+00
2006 03 11  0755    53805   28500      0    1.50e+00    0    1.06e+00
2006 03 11  0800    53805   28800      0    1.52e+00    0    1.07e+00
2006 03 11  0805    53805   29100      0    1.47e+00    0    1.03e+00
2006 03 11  0810    53805   29400      0    1.49e+00    0    1.04e+00
2006 03 11  0815    53805   29700      0    1.50e+00    0    1.05e+00
2006 03 11  0820    53805   30000      0    1.49e+00    0    1.04e+00
2006 03 11  0825    53805   30300      0    1.50e+00    0    1.04e+00
2006 03 11  0830    53805   30600      0    1.48e+00    0    1.05e+00
2006 03 11  0835    53805   30900      0    1.45e+00    0    1.02e+00
2006 03 11  0840    53805   31200      0    1.47e+00    0    1.02e+00
2006 03 11  0845    53805   31500      0    1.47e+00    0    1.03e+00
2006 03 11  0850    53805   31800      0    1.49e+00    0    1.05e+00
2006 03 11  0855    53805   32100      0    1.49e+00    0    1.04e+00
2006 03 11  0900    53805   32400      0    1.46e+00    0    1.03e+00
2006 03 11  0905    53805   32700      0    1.47e+00    0    1.03e+00
2006 03 11  0910    53805   33000      0    1.49e+00    0    1.06e+00
2006 03 11  0915    53805   33300      0    1.51e+00    0    1.06e+00
2006 03 11  0920    53805   33600      0    1.45e+00    0    1.02e+00
2006 03 11  0925    53805   33900      0    1.54e+00    0    1.10e+00
2006 03 11  0930    53805   34200      0    1.52e+00    0    1.07e+00
2006 03 11  0935    53805   34500      0    1.52e+00    0    1.07e+00
2006 03 11  0940    53805   34800      0    1.50e+00    0    1.05e+00
2006 03 11  0945    53805   35100      0    1.52e+00    0    1.06e+00
2006 03 11  0950    53805   35400      0    1.47e+00    0    1.03e+00
2006 03 11  0955    53805   35700      0    1.48e+00    0    1.04e+00
2006 03 11  1000    53805   36000      0    1.49e+00    0    1.06e+00
2006 03 11  1005    53805   36300      0    1.54e+00    0    1.09e+00
2006 03 11  1010    53805   36600      0    1.52e+00    0    1.06e+00
2006 03 11  1015    53805   36900      0    1.51e+00    0    1.05e+00
2006 03 11  1020    53805   37200      0    1.51e+00    0    1.06e+00
2006 03 11  1025    53805   37500      0    1.51e+00    0    1.06e+00
2006 03 11  1030    53805   37800      0    1.48e+00    0    1.04e+00
2006 03 11  1035    53805   38100      0    1.46e+00    0    1.02e+00
2006 03 11  1040    53805   38400      0    1.52e+00    0    1.06e+00
2006 03 11  1045    53805   38700      0    1.53e+00    0    1.08e+00
2006 03 11  1050    53805   39000      0    1.51e+00    0    1.06e+00
2006 03 11  1055    53805   39300      0    1.49e+00    0    1.04e+00
2006 03 11  1100    53805   39600      0    1.49e+00    0    1.04e+00
2006 03 11  1105    53805   39900      0    1.52e+00    0    1.06e+00
2006 03 11  1110    53805   40200      0    1.50e+00    0    1.06e+00
2006 03 11  1115    53805   40500      0    1.48e+00    0    1.03e+00
2006 03 11  1120    53805   40800      0    1.49e+00    0    1.05e+00
2006 03 11  1125    53805   41100      0    1.51e+00    0    1.07e+00
2006 03 11  1130    53805   41400      0    1.50e+00    0    1.06e+00
2006 03 11  1135    53805   41700      0    1.50e+00    0    1.05e+00
2006 03 11  1140    53805   42000      0    1.49e+00    0    1.04e+00
2006 03 11  1145    53805   42300      0    1.48e+00    0    1.05e+00
2006 03 11  1150    53805   42600      0    1.50e+00    0    1.06e+00
2006 03 11  1155    53805   42900      0    1.50e+00    0    1.06e+00
2006 03 11  1200    53805   43200      0    1.52e+00    0    1.07e+00
2006 03 11  1205    53805   43500      0    1.48e+00    0    1.03e+00
2006 03 11  1210    53805   43800      0    1.49e+00    0    1.05e+00
2006 03 11  1215    53805   44100      0    1.49e+00    0    1.05e+00
2006 03 11  1220    53805   44400      0    1.50e+00    0    1.05e+00
2006 03 11  1225    53805   44700      0    1.51e+00    0    1.05e+00
2006 03 11  1230    53805   45000      0    1.47e+00    0    1.03e+00
2006 03 11  1235    53805   45300      0    1.48e+00    0    1.03e+00
2006 03 11  1240    53805   45600      0    1.49e+00    0    1.05e+00
2006 03 11  1245    53805   45900      0    1.49e+00    0    1.05e+00
2006 03 11  1250    53805   46200      0    1.46e+00    0    1.02e+00
2006 03 11  1255    53805   46500      0    1.45e+00    0    1.03e+00
2006 03 11  1300    53805   46800      0    1.49e+00    0    1.04e+00
2006 03 11  1305    53805   47100      0    1.48e+00    0    1.04e+00
2006 03 11  1310    53805   47400      0    1.49e+00    0    1.03e+00
2006 03 11  1315    53805   47700      0    1.50e+00    0    1.04e+00
2006 03 11  1320    53805   48000      0    1.46e+00    0    1.02e+00
2006 03 11  1325    53805   48300      0    1.54e+00    0    1.09e+00
2006 03 11  1330    53805   48600      0    1.49e+00    0    1.04e+00
2006 03 11  1335    53805   48900      0    1.51e+00    0    1.08e+00
2006 03 11  1340    53805   49200      0    1.47e+00    0    1.03e+00
2006 03 11  1345    53805   49500      0    1.51e+00    0    1.05e+00
2006 03 11  1350    53805   49800      0    1.49e+00    0    1.04e+00
2006 03 11  1355    53805   50100      0    1.49e+00    0    1.04e+00
2006 03 11  1400    53805   50400      0    1.49e+00    0    1.05e+00
2006 03 11  1405    53805   50700      0    1.47e+00    0    1.05e+00
2006 03 11  1410    53805   51000      0    1.46e+00    0    1.02e+00
2006 03 11  1415    53805   51300      0    1.49e+00    0    1.04e+00
2006 03 11  1420    53805   51600      0    1.50e+00    0    1.05e+00
2006 03 11  1425    53805   51900      0    1.50e+00    0    1.05e+00
2006 03 11  1430    53805   52200      0    1.48e+00    0    1.04e+00
2006 03 11  1435    53805   52500      0    1.49e+00    0    1.04e+00
2006 03 11  1440    53805   52800      0    1.53e+00    0    1.08e+00
2006 03 11  1445    53805   53100      0    1.52e+00    0    1.08e+00
2006 03 11  1450    53805   53400      0    1.49e+00    0    1.05e+00
2006 03 11  1455    53805   53700      0    1.52e+00    0    1.06e+00
2006 03 11  1500    53805   54000      0    1.51e+00    0    1.06e+00
2006 03 11  1505    53805   54300      0    1.52e+00    0    1.06e+00
2006 03 11  1510    53805   54600      0    1.49e+00    0    1.04e+00
2006 03 11  1515    53805   54900      0    1.51e+00    0    1.05e+00
2006 03 11  1520    53805   55200      0    1.44e+00    0    1.01e+00
2006 03 11  1525    53805   55500      0    1.49e+00    0    1.04e+00
2006 03 11  1530    53805   55800      0    1.50e+00    0    1.06e+00
2006 03 11  1535    53805   56100      0    1.48e+00    0    1.03e+00
2006 03 11  1540    53805   56400      0    1.52e+00    0    1.09e+00
2006 03 11  1545    53805   56700      0    1.49e+00    0    1.05e+00
2006 03 11  1550    53805   57000      0    1.52e+00    0    1.08e+00
2006 03 11  1555    53805   57300      0    1.48e+00    0    1.04e+00
2006 03 11  1600    53805   57600      0    1.50e+00    0    1.05e+00
2006 03 11  1605    53805   57900      0    1.46e+00    0    1.02e+00
2006 03 11  1610    53805   58200      0    1.49e+00    0    1.04e+00
2006 03 11  1615    53805   58500      0    1.52e+00    0    1.06e+00
2006 03 11  1620    53805   58800      0    1.49e+00    0    1.04e+00
2006 03 11  1625    53805   59100      0    1.50e+00    0    1.05e+00
2006 03 11  1630    53805   59400      0    1.52e+00    0    1.06e+00
2006 03 11  1635    53805   59700      0    1.52e+00    0    1.07e+00
2006 03 11  1640    53805   60000      0    1.48e+00    0    1.04e+00
2006 03 11  1645    53805   60300      0    1.48e+00    0    1.03e+00
2006 03 11  1650    53805   60600      0    1.51e+00    0    1.06e+00
2006 03 11  1655    53805   60900      0    1.47e+00    0    1.03e+00
2006 03 11  1700    53805   61200      0    1.51e+00    0    1.05e+00
2006 03 11  1705    53805   61500      0    1.48e+00    0    1.05e+00
2006 03 11  1710    53805   61800      0    1.49e+00    0    1.04e+00
2006 03 11  1715    53805   62100      0    1.46e+00    0    1.03e+00
2006 03 11  1720    53805   62400      0    1.49e+00    0    1.05e+00
2006 03 11  1725    53805   62700      0    1.48e+00    0    1.04e+00
2006 03 11  1730    53805   63000      0    1.51e+00    0    1.06e+00
2006 03 11  1735    53805   63300      0    1.49e+00    0    1.04e+00
2006 03 11  1740    53805   63600      0    1.46e+00    0    1.02e+00
2006 03 11  1745    53805   63900      0    1.52e+00    0    1.07e+00
2006 03 11  1750    53805   64200      0    1.49e+00    0    1.03e+00
2006 03 11  1755    53805   64500      0    1.50e+00    0    1.06e+00
2006 03 11  1800    53805   64800      0    1.49e+00    0    1.05e+00
2006 03 11  1805    53805   65100      0    1.47e+00    0    1.02e+00
2006 03 11  1810    53805   65400      0    1.48e+00    0    1.03e+00
2006 03 11  1815    53805   65700      0    1.50e+00    0    1.06e+00
2006 03 11  1820    53805   66000      0    1.46e+00    0    1.03e+00
2006 03 11  1825    53805   66300      0    1.47e+00    0    1.04e+00
2006 03 11  1830    53805   66600      0    1.51e+00    0    1.06e+00
2006 03 11  1835    53805   66900      0    1.48e+00    0    1.04e+00
2006 03 11  1840    53805   67200      0    1.52e+00    0    1.07e+00
2006 03 11  1845    53805   67500      0    1.49e+00    0    1.05e+00
2006 03 11  1850    53805   67800      0    1.49e+00    0    1.05e+00
2006 03 11  1855    53805   68100      0    1.49e+00    0    1.05e+00
2006 03 11  1900    53805   68400      0    1.53e+00    0    1.06e+00
2006 03 11  1905    53805   68700      0    1.45e+00    0    1.02e+00
2006 03 11  1910    53805   69000      0    1.47e+00    0    1.03e+00
2006 03 11  1915    53805   69300      0    1.50e+00    0    1.06e+00
2006 03 11  1920    53805   69600      0    1.51e+00    0    1.06e+00
2006 03 11  1925    53805   69900      0    1.48e+00    0    1.04e+00
2006 03 11  1930    53805   70200      0    1.51e+00    0    1.05e+00
2006 03 11  1935    53805   70500      0    1.52e+00    0    1.06e+00
2006 03 11  1940    53805   70800      0    1.50e+00    0    1.05e+00
2006 03 11  1945    53805   71100      0    1.49e+00    0    1.05e+00
2006 03 11  1950    53805   71400      0    1.52e+00    0    1.07e+00
2006 03 11  1955    53805   71700      0    1.53e+00    0    1.08e+00
2006 03 11  2000    53805   72000      0    1.48e+00    0    1.04e+00
2006 03 11  2005    53805   72300      0    1.50e+00    0    1.05e+00
2006 03 11  2010    53805   72600      0    1.53e+00    0    1.08e+00
2006 03 11  2015    53805   72900      0    1.49e+00    0    1.05e+00
2006 03 11  2020    53805   73200      0    1.51e+00    0    1.06e+00
2006 03 11  2025    53805   73500      0    1.51e+00    0    1.06e+00
2006 03 11  2030    53805   73800      0    1.47e+00    0    1.04e+00
2006 03 11  2035    53805   74100      0    1.49e+00    0    1.04e+00
2006 03 11  2040    53805   74400      0    1.48e+00    0    1.04e+00
2006 03 11  2045    53805   74700      0    1.53e+00    0    1.08e+00
2006 03 11  2050    53805   75000      0    1.50e+00    0    1.06e+00
2006 03 11  2055    53805   75300      0    1.51e+00    0    1.06e+00
2006 03 11  2100    53805   75600      0    1.53e+00    0    1.07e+00
2006 03 11  2105    53805   75900      0    1.51e+00    0    1.06e+00
2006 03 11  2110    53805   76200      0    1.49e+00    0    1.04e+00
2006 03 11  2115    53805   76500      0    1.53e+00    0    1.07e+00
2006 03 11  2120    53805   76800      0    1.51e+00    0    1.06e+00
2006 03 11  2125    53805   77100      0    1.50e+00    0    1.06e+00
2006 03 11  2130    53805   77400      0    1.50e+00    0    1.05e+00
2006 03 11  2135    53805   77700      0    1.51e+00    0    1.05e+00
2006 03 11  2140    53805   78000      0    1.50e+00    0    1.05e+00
2006 03 11  2145    53805   78300      0    1.52e+00    0    1.07e+00
2006 03 11  2150    53805   78600      0    1.54e+00    0    1.08e+00
2006 03 11  2155    53805   78900      0    1.51e+00    0    1.07e+00
2006 03 11  2200    53805   79200      0    1.49e+00    0    1.05e+00
2006 03 11  2205    53805   79500      0    1.47e+00    0    1.04e+00
2006 03 11  2210    53805   79800      0    1.51e+00    0    1.06e+00
2006 03 11  2215    53805   80100      0    1.48e+00    0    1.03e+00
2006 03 11  2220    53805   80400      0    1.47e+00    0    1.02e+00
2006 03 11  2225    53805   80700      0    1.50e+00    0    1.05e+00
2006 03 11  2230    53805   81000      0    1.52e+00    0    1.07e+00
2006 03 11  2235    53805   81300      0    1.51e+00    0    1.06e+00
2006 03 11  2240    53805   81600      0    1.52e+00    0    1.07e+00
2006 03 11  2245    53805   81900      0    1.49e+00    0    1.05e+00
2006 03 11  2250    53805   82200      0    1.50e+00    0    1.05e+00
2006 03 11  2255    53805   82500      0    1.49e+00    0    1.04e+00
2006 03 11  2300    53805   82800      0    1.51e+00    0    1.07e+00
2006 03 11  2305    53805   83100      0    1.50e+00    0    1.04e+00
2006 03 11  2310    53805   83400      0    1.54e+00    0    1.08e+00
2006 03 11  2315    53805   83700      0    1.51e+00    0    1.07e+00
2006 03 11  2320    53805   84000      0    1.50e+00    0    1.05e+00
2006 03 11  2325    53805   84300      0    1.53e+00    0    1.07e+00
2006 03 11  2330    53805   84600      0    1.50e+00    0    1.06e+00
2006 03 11  2335    53805   84900      0    1.51e+00    0    1.06e+00
2006 03 11  2340    53805   85200      0    1.52e+00    0    1.06e+00
2006 03 11  2345    53805   85500      0    1.51e+00    0    1.06e+00
2006 03 11  2350    53805   85800      0    1.50e+00    0    1.06e+00
2006 03 11  2355    53805   86100      0    1.50e+00    0    1.05e+00
