:Data_list: 20060614_ace_sis_5m.txt
:Created: 2006 Jun 15 0011 UT
# Prepared by the U.S. Dept. of Commerce, NOAA, Space Environment Center.
# Please send comments and suggestions to SEC.Webmaster@noaa.gov 
# 
# Units: proton flux p/cs2-sec-ster
# Status(S): 0 = nominal data, 1 to 8 = bad data record, 9 = no data
# Missing data values: -1.00e+05
# Source: ACE Satellite - Solar Isotope Spectrometer
#
# 5-minute averaged Real-time Integral Flux of High-energy Solar Protons
# 
#                 Modified Seconds
# UT Date   Time   Julian  of the      ---- Integral Proton Flux ----
# YR MO DA  HHMM     Day     Day       S    > 10 MeV    S    > 30 MeV
#--------------------------------------------------------------------
2006 06 14  0000    53900       0      0    1.62e+00    0    1.14e+00
2006 06 14  0005    53900     300      0    1.64e+00    0    1.15e+00
2006 06 14  0010    53900     600      0    1.61e+00    0    1.14e+00
2006 06 14  0015    53900     900      0    1.65e+00    0    1.16e+00
2006 06 14  0020    53900    1200      0    1.63e+00    0    1.14e+00
2006 06 14  0025    53900    1500      0    1.59e+00    0    1.12e+00
2006 06 14  0030    53900    1800      0    1.62e+00    0    1.14e+00
2006 06 14  0035    53900    2100      0    1.62e+00    0    1.13e+00
2006 06 14  0040    53900    2400      0    1.64e+00    0    1.14e+00
2006 06 14  0045    53900    2700      0    1.66e+00    0    1.16e+00
2006 06 14  0050    53900    3000      0    1.61e+00    0    1.13e+00
2006 06 14  0055    53900    3300      0    1.66e+00    0    1.16e+00
2006 06 14  0100    53900    3600      0    1.66e+00    0    1.16e+00
2006 06 14  0105    53900    3900      0    1.63e+00    0    1.15e+00
2006 06 14  0110    53900    4200      0    1.66e+00    0    1.16e+00
2006 06 14  0115    53900    4500      0    1.64e+00    0    1.16e+00
2006 06 14  0120    53900    4800      0    1.65e+00    0    1.16e+00
2006 06 14  0125    53900    5100      0    1.62e+00    0    1.13e+00
2006 06 14  0130    53900    5400      0    1.67e+00    0    1.16e+00
2006 06 14  0135    53900    5700      0    1.65e+00    0    1.15e+00
2006 06 14  0140    53900    6000      0    1.68e+00    0    1.17e+00
2006 06 14  0145    53900    6300      0    1.61e+00    0    1.12e+00
2006 06 14  0150    53900    6600      0    1.65e+00    0    1.15e+00
2006 06 14  0155    53900    6900      0    1.62e+00    0    1.13e+00
2006 06 14  0200    53900    7200      0    1.62e+00    0    1.14e+00
2006 06 14  0205    53900    7500      0    1.68e+00    0    1.18e+00
2006 06 14  0210    53900    7800      0    1.67e+00    0    1.18e+00
2006 06 14  0215    53900    8100      0    1.66e+00    0    1.14e+00
2006 06 14  0220    53900    8400      0    1.63e+00    0    1.14e+00
2006 06 14  0225    53900    8700      0    1.63e+00    0    1.13e+00
2006 06 14  0230    53900    9000      0    1.64e+00    0    1.16e+00
2006 06 14  0235    53900    9300      0    1.62e+00    0    1.13e+00
2006 06 14  0240    53900    9600      0    1.67e+00    0    1.18e+00
2006 06 14  0245    53900    9900      0    1.68e+00    0    1.20e+00
2006 06 14  0250    53900   10200      0    1.62e+00    0    1.12e+00
2006 06 14  0255    53900   10500      0    1.61e+00    0    1.12e+00
2006 06 14  0300    53900   10800      0    1.65e+00    0    1.15e+00
2006 06 14  0305    53900   11100      0    1.64e+00    0    1.15e+00
2006 06 14  0310    53900   11400      0    1.62e+00    0    1.13e+00
2006 06 14  0315    53900   11700      0    1.63e+00    0    1.13e+00
2006 06 14  0320    53900   12000      0    1.65e+00    0    1.16e+00
2006 06 14  0325    53900   12300      0    1.63e+00    0    1.13e+00
2006 06 14  0330    53900   12600      0    1.60e+00    0    1.12e+00
2006 06 14  0335    53900   12900      0    1.63e+00    0    1.13e+00
2006 06 14  0340    53900   13200      0    1.60e+00    0    1.12e+00
2006 06 14  0345    53900   13500      0    1.60e+00    0    1.12e+00
2006 06 14  0350    53900   13800      0    1.62e+00    0    1.13e+00
2006 06 14  0355    53900   14100      0    1.63e+00    0    1.14e+00
2006 06 14  0400    53900   14400      0    1.63e+00    0    1.15e+00
2006 06 14  0405    53900   14700      0    1.64e+00    0    1.15e+00
2006 06 14  0410    53900   15000      0    1.59e+00    0    1.11e+00
2006 06 14  0415    53900   15300      0    1.65e+00    0    1.14e+00
2006 06 14  0420    53900   15600      0    1.60e+00    0    1.11e+00
2006 06 14  0425    53900   15900      0    1.60e+00    0    1.13e+00
2006 06 14  0430    53900   16200      0    1.60e+00    0    1.11e+00
2006 06 14  0435    53900   16500      0    1.64e+00    0    1.15e+00
2006 06 14  0440    53900   16800      0    1.59e+00    0    1.12e+00
2006 06 14  0445    53900   17100      0    1.65e+00    0    1.15e+00
2006 06 14  0450    53900   17400      0    1.62e+00    0    1.14e+00
2006 06 14  0455    53900   17700      0    1.62e+00    0    1.13e+00
2006 06 14  0500    53900   18000      0    1.61e+00    0    1.12e+00
2006 06 14  0505    53900   18300      0    1.64e+00    0    1.15e+00
2006 06 14  0510    53900   18600      0    1.67e+00    0    1.17e+00
2006 06 14  0515    53900   18900      0    1.60e+00    0    1.12e+00
2006 06 14  0520    53900   19200      0    1.67e+00    0    1.16e+00
2006 06 14  0525    53900   19500      0    1.65e+00    0    1.16e+00
2006 06 14  0530    53900   19800      0    1.61e+00    0    1.12e+00
2006 06 14  0535    53900   20100      0    1.66e+00    0    1.18e+00
2006 06 14  0540    53900   20400      0    1.67e+00    0    1.18e+00
2006 06 14  0545    53900   20700      0    1.61e+00    0    1.12e+00
2006 06 14  0550    53900   21000      0    1.65e+00    0    1.15e+00
2006 06 14  0555    53900   21300      0    1.64e+00    0    1.14e+00
2006 06 14  0600    53900   21600      0    1.66e+00    0    1.16e+00
2006 06 14  0605    53900   21900      0    1.62e+00    0    1.13e+00
2006 06 14  0610    53900   22200      0    1.60e+00    0    1.12e+00
2006 06 14  0615    53900   22500      0    1.62e+00    0    1.13e+00
2006 06 14  0620    53900   22800      0    1.61e+00    0    1.13e+00
2006 06 14  0625    53900   23100      0    1.62e+00    0    1.13e+00
2006 06 14  0630    53900   23400      0    1.62e+00    0    1.12e+00
2006 06 14  0635    53900   23700      0    1.60e+00    0    1.11e+00
2006 06 14  0640    53900   24000      0    1.69e+00    0    1.19e+00
2006 06 14  0645    53900   24300      0    1.62e+00    0    1.14e+00
2006 06 14  0650    53900   24600      0    1.59e+00    0    1.11e+00
2006 06 14  0655    53900   24900      0    1.65e+00    0    1.16e+00
2006 06 14  0700    53900   25200      0    1.65e+00    0    1.16e+00
2006 06 14  0705    53900   25500      0    1.63e+00    0    1.14e+00
2006 06 14  0710    53900   25800      0    1.65e+00    0    1.16e+00
2006 06 14  0715    53900   26100      0    1.62e+00    0    1.14e+00
2006 06 14  0720    53900   26400      0    1.65e+00    0    1.16e+00
2006 06 14  0725    53900   26700      0    1.66e+00    0    1.16e+00
2006 06 14  0730    53900   27000      0    1.62e+00    0    1.12e+00
2006 06 14  0735    53900   27300      0    1.60e+00    0    1.12e+00
2006 06 14  0740    53900   27600      0    1.64e+00    0    1.14e+00
2006 06 14  0745    53900   27900      0    1.65e+00    0    1.14e+00
2006 06 14  0750    53900   28200      0    1.64e+00    0    1.15e+00
2006 06 14  0755    53900   28500      0    1.65e+00    0    1.15e+00
2006 06 14  0800    53900   28800      0    1.60e+00    0    1.11e+00
2006 06 14  0805    53900   29100      0    1.61e+00    0    1.13e+00
2006 06 14  0810    53900   29400      0    1.66e+00    0    1.17e+00
2006 06 14  0815    53900   29700      0    1.68e+00    0    1.16e+00
2006 06 14  0820    53900   30000      0    1.67e+00    0    1.17e+00
2006 06 14  0825    53900   30300      0    1.60e+00    0    1.11e+00
2006 06 14  0830    53900   30600      0    1.59e+00    0    1.11e+00
2006 06 14  0835    53900   30900      0    1.63e+00    0    1.13e+00
2006 06 14  0840    53900   31200      0    1.64e+00    0    1.14e+00
2006 06 14  0845    53900   31500      0    1.67e+00    0    1.17e+00
2006 06 14  0850    53900   31800      0    1.64e+00    0    1.14e+00
2006 06 14  0855    53900   32100      0    1.63e+00    0    1.14e+00
2006 06 14  0900    53900   32400      0    1.62e+00    0    1.13e+00
2006 06 14  0905    53900   32700      0    1.65e+00    0    1.16e+00
2006 06 14  0910    53900   33000      0    1.63e+00    0    1.15e+00
2006 06 14  0915    53900   33300      0    1.61e+00    0    1.13e+00
2006 06 14  0920    53900   33600      0    1.62e+00    0    1.14e+00
2006 06 14  0925    53900   33900      0    1.67e+00    0    1.18e+00
2006 06 14  0930    53900   34200      0    1.61e+00    0    1.13e+00
2006 06 14  0935    53900   34500      0    1.64e+00    0    1.14e+00
2006 06 14  0940    53900   34800      0    1.66e+00    0    1.15e+00
2006 06 14  0945    53900   35100      0    1.60e+00    0    1.12e+00
2006 06 14  0950    53900   35400      0    1.63e+00    0    1.14e+00
2006 06 14  0955    53900   35700      0    1.64e+00    0    1.15e+00
2006 06 14  1000    53900   36000      0    1.65e+00    0    1.16e+00
2006 06 14  1005    53900   36300      0    1.68e+00    0    1.18e+00
2006 06 14  1010    53900   36600      0    1.65e+00    0    1.16e+00
2006 06 14  1015    53900   36900      0    1.64e+00    0    1.15e+00
2006 06 14  1020    53900   37200      0    1.62e+00    0    1.13e+00
2006 06 14  1025    53900   37500      0    1.63e+00    0    1.13e+00
2006 06 14  1030    53900   37800      0    1.62e+00    0    1.15e+00
2006 06 14  1035    53900   38100      0    1.61e+00    0    1.13e+00
2006 06 14  1040    53900   38400      0    1.65e+00    0    1.15e+00
2006 06 14  1045    53900   38700      0    1.65e+00    0    1.15e+00
2006 06 14  1050    53900   39000      0    1.66e+00    0    1.16e+00
2006 06 14  1055    53900   39300      0    1.67e+00    0    1.17e+00
2006 06 14  1100    53900   39600      0    1.65e+00    0    1.17e+00
2006 06 14  1105    53900   39900      0    1.62e+00    0    1.12e+00
2006 06 14  1110    53900   40200      0    1.64e+00    0    1.15e+00
2006 06 14  1115    53900   40500      0    1.66e+00    0    1.16e+00
2006 06 14  1120    53900   40800      0    1.63e+00    0    1.14e+00
2006 06 14  1125    53900   41100      0    1.64e+00    0    1.16e+00
2006 06 14  1130    53900   41400      0    1.65e+00    0    1.15e+00
2006 06 14  1135    53900   41700      0    1.64e+00    0    1.16e+00
2006 06 14  1140    53900   42000      0    1.68e+00    0    1.18e+00
2006 06 14  1145    53900   42300      0    1.64e+00    0    1.15e+00
2006 06 14  1150    53900   42600      0    1.66e+00    0    1.17e+00
2006 06 14  1155    53900   42900      0    1.64e+00    0    1.14e+00
2006 06 14  1200    53900   43200      0    1.67e+00    0    1.16e+00
2006 06 14  1205    53900   43500      0    1.65e+00    0    1.16e+00
2006 06 14  1210    53900   43800      0    1.64e+00    0    1.16e+00
2006 06 14  1215    53900   44100      0    1.64e+00    0    1.15e+00
2006 06 14  1220    53900   44400      0    1.60e+00    0    1.13e+00
2006 06 14  1225    53900   44700      0    1.65e+00    0    1.15e+00
2006 06 14  1230    53900   45000      0    1.69e+00    0    1.20e+00
2006 06 14  1235    53900   45300      0    1.67e+00    0    1.17e+00
2006 06 14  1240    53900   45600      0    1.66e+00    0    1.16e+00
2006 06 14  1245    53900   45900      0    1.64e+00    0    1.14e+00
2006 06 14  1250    53900   46200      0    1.68e+00    0    1.17e+00
2006 06 14  1255    53900   46500      0    1.65e+00    0    1.16e+00
2006 06 14  1300    53900   46800      0    1.65e+00    0    1.15e+00
2006 06 14  1305    53900   47100      0    1.68e+00    0    1.18e+00
2006 06 14  1310    53900   47400      0    1.67e+00    0    1.18e+00
2006 06 14  1315    53900   47700      0    1.67e+00    0    1.17e+00
2006 06 14  1320    53900   48000      0    1.66e+00    0    1.17e+00
2006 06 14  1325    53900   48300      0    1.67e+00    0    1.18e+00
2006 06 14  1330    53900   48600      0    1.65e+00    0    1.16e+00
2006 06 14  1335    53900   48900      0    1.65e+00    0    1.16e+00
2006 06 14  1340    53900   49200      0    1.64e+00    0    1.14e+00
2006 06 14  1345    53900   49500      0    1.70e+00    0    1.19e+00
2006 06 14  1350    53900   49800      0    1.61e+00    0    1.13e+00
2006 06 14  1355    53900   50100      0    1.64e+00    0    1.16e+00
2006 06 14  1400    53900   50400      0    1.67e+00    0    1.17e+00
2006 06 14  1405    53900   50700      0    1.66e+00    0    1.16e+00
2006 06 14  1410    53900   51000      0    1.61e+00    0    1.14e+00
2006 06 14  1415    53900   51300      0    1.64e+00    0    1.15e+00
2006 06 14  1420    53900   51600      0    1.66e+00    0    1.17e+00
2006 06 14  1425    53900   51900      0    1.66e+00    0    1.16e+00
2006 06 14  1430    53900   52200      0    1.62e+00    0    1.14e+00
2006 06 14  1435    53900   52500      0    1.66e+00    0    1.17e+00
2006 06 14  1440    53900   52800      0    1.60e+00    0    1.13e+00
2006 06 14  1445    53900   53100      0    1.65e+00    0    1.16e+00
2006 06 14  1450    53900   53400      0    1.65e+00    0    1.15e+00
2006 06 14  1455    53900   53700      0    1.64e+00    0    1.16e+00
2006 06 14  1500    53900   54000      0    1.63e+00    0    1.14e+00
2006 06 14  1505    53900   54300      0    1.64e+00    0    1.16e+00
2006 06 14  1510    53900   54600      0    1.59e+00    0    1.11e+00
2006 06 14  1515    53900   54900      0    1.67e+00    0    1.17e+00
2006 06 14  1520    53900   55200      0    1.65e+00    0    1.14e+00
2006 06 14  1525    53900   55500      0    1.64e+00    0    1.15e+00
2006 06 14  1530    53900   55800      0    1.69e+00    0    1.20e+00
2006 06 14  1535    53900   56100      0    1.67e+00    0    1.17e+00
2006 06 14  1540    53900   56400      0    1.64e+00    0    1.15e+00
2006 06 14  1545    53900   56700      0    1.64e+00    0    1.15e+00
2006 06 14  1550    53900   57000      0    1.66e+00    0    1.17e+00
2006 06 14  1555    53900   57300      0    1.61e+00    0    1.14e+00
2006 06 14  1600    53900   57600      0    1.62e+00    0    1.13e+00
2006 06 14  1605    53900   57900      0    1.64e+00    0    1.15e+00
2006 06 14  1610    53900   58200      0    1.68e+00    0    1.18e+00
2006 06 14  1615    53900   58500      0    1.63e+00    0    1.15e+00
2006 06 14  1620    53900   58800      0    1.65e+00    0    1.16e+00
2006 06 14  1625    53900   59100      0    1.64e+00    0    1.14e+00
2006 06 14  1630    53900   59400      0    1.66e+00    0    1.15e+00
2006 06 14  1635    53900   59700      0    1.64e+00    0    1.16e+00
2006 06 14  1640    53900   60000      0    1.63e+00    0    1.15e+00
2006 06 14  1645    53900   60300      0    1.59e+00    0    1.12e+00
2006 06 14  1650    53900   60600      0    1.60e+00    0    1.12e+00
2006 06 14  1655    53900   60900      0    1.62e+00    0    1.14e+00
2006 06 14  1700    53900   61200      0    1.65e+00    0    1.15e+00
2006 06 14  1705    53900   61500      0    1.66e+00    0    1.17e+00
2006 06 14  1710    53900   61800      0    1.62e+00    0    1.14e+00
2006 06 14  1715    53900   62100      0    1.66e+00    0    1.17e+00
2006 06 14  1720    53900   62400      0    1.64e+00    0    1.14e+00
2006 06 14  1725    53900   62700      0    1.66e+00    0    1.16e+00
2006 06 14  1730    53900   63000      0    1.61e+00    0    1.12e+00
2006 06 14  1735    53900   63300      0    1.60e+00    0    1.11e+00
2006 06 14  1740    53900   63600      0    1.62e+00    0    1.13e+00
2006 06 14  1745    53900   63900      0    1.68e+00    0    1.19e+00
2006 06 14  1750    53900   64200      0    1.61e+00    0    1.12e+00
2006 06 14  1755    53900   64500      0    1.60e+00    0    1.12e+00
2006 06 14  1800    53900   64800      0    1.63e+00    0    1.14e+00
2006 06 14  1805    53900   65100      0    1.63e+00    0    1.15e+00
2006 06 14  1810    53900   65400      0    1.60e+00    0    1.11e+00
2006 06 14  1815    53900   65700      0    1.68e+00    0    1.18e+00
2006 06 14  1820    53900   66000      0    1.67e+00    0    1.18e+00
2006 06 14  1825    53900   66300      0    1.62e+00    0    1.14e+00
2006 06 14  1830    53900   66600      0    1.63e+00    0    1.15e+00
2006 06 14  1835    53900   66900      0    1.62e+00    0    1.14e+00
2006 06 14  1840    53900   67200      0    1.62e+00    0    1.14e+00
2006 06 14  1845    53900   67500      0    1.64e+00    0    1.15e+00
2006 06 14  1850    53900   67800      0    1.64e+00    0    1.15e+00
2006 06 14  1855    53900   68100      0    1.64e+00    0    1.16e+00
2006 06 14  1900    53900   68400      0    1.66e+00    0    1.17e+00
2006 06 14  1905    53900   68700      0    1.64e+00    0    1.15e+00
2006 06 14  1910    53900   69000      0    1.60e+00    0    1.13e+00
2006 06 14  1915    53900   69300      0    1.63e+00    0    1.14e+00
2006 06 14  1920    53900   69600      0    1.65e+00    0    1.16e+00
2006 06 14  1925    53900   69900      0    1.65e+00    0    1.16e+00
2006 06 14  1930    53900   70200      0    1.62e+00    0    1.13e+00
2006 06 14  1935    53900   70500      0    1.62e+00    0    1.13e+00
2006 06 14  1940    53900   70800      0    1.62e+00    0    1.14e+00
2006 06 14  1945    53900   71100      0    1.61e+00    0    1.13e+00
2006 06 14  1950    53900   71400      0    1.64e+00    0    1.16e+00
2006 06 14  1955    53900   71700      0    1.63e+00    0    1.14e+00
2006 06 14  2000    53900   72000      0    1.57e+00    0    1.10e+00
2006 06 14  2005    53900   72300      0    1.65e+00    0    1.15e+00
2006 06 14  2010    53900   72600      0    1.64e+00    0    1.14e+00
2006 06 14  2015    53900   72900      0    1.62e+00    0    1.13e+00
2006 06 14  2020    53900   73200      0    1.64e+00    0    1.16e+00
2006 06 14  2025    53900   73500      0    1.63e+00    0    1.14e+00
2006 06 14  2030    53900   73800      0    1.61e+00    0    1.12e+00
2006 06 14  2035    53900   74100      0    1.60e+00    0    1.12e+00
2006 06 14  2040    53900   74400      0    1.64e+00    0    1.16e+00
2006 06 14  2045    53900   74700      0    1.64e+00    0    1.14e+00
2006 06 14  2050    53900   75000      0    1.65e+00    0    1.14e+00
2006 06 14  2055    53900   75300      0    1.65e+00    0    1.15e+00
2006 06 14  2100    53900   75600      0    1.62e+00    0    1.13e+00
2006 06 14  2105    53900   75900      0    1.65e+00    0    1.16e+00
2006 06 14  2110    53900   76200      0    1.63e+00    0    1.15e+00
2006 06 14  2115    53900   76500      0    1.64e+00    0    1.15e+00
2006 06 14  2120    53900   76800      0    1.65e+00    0    1.15e+00
2006 06 14  2125    53900   77100      0    1.66e+00    0    1.18e+00
2006 06 14  2130    53900   77400      0    1.63e+00    0    1.14e+00
2006 06 14  2135    53900   77700      0    1.65e+00    0    1.16e+00
2006 06 14  2140    53900   78000      0    1.65e+00    0    1.16e+00
2006 06 14  2145    53900   78300      0    1.62e+00    0    1.14e+00
2006 06 14  2150    53900   78600      0    1.62e+00    0    1.15e+00
2006 06 14  2155    53900   78900      0    1.61e+00    0    1.12e+00
2006 06 14  2200    53900   79200      0    1.60e+00    0    1.13e+00
2006 06 14  2205    53900   79500      0    1.60e+00    0    1.12e+00
2006 06 14  2210    53900   79800      0    1.62e+00    0    1.14e+00
2006 06 14  2215    53900   80100      0    1.62e+00    0    1.13e+00
2006 06 14  2220    53900   80400      0    1.64e+00    0    1.14e+00
2006 06 14  2225    53900   80700      0    1.63e+00    0    1.15e+00
2006 06 14  2230    53900   81000      0    1.64e+00    0    1.15e+00
2006 06 14  2235    53900   81300      0    1.64e+00    0    1.16e+00
2006 06 14  2240    53900   81600      0    1.61e+00    0    1.12e+00
2006 06 14  2245    53900   81900      0    1.62e+00    0    1.13e+00
2006 06 14  2250    53900   82200      0    1.60e+00    0    1.12e+00
2006 06 14  2255    53900   82500      0    1.60e+00    0    1.11e+00
2006 06 14  2300    53900   82800      0    1.67e+00    0    1.19e+00
2006 06 14  2305    53900   83100      0    1.63e+00    0    1.14e+00
2006 06 14  2310    53900   83400      0    1.64e+00    0    1.14e+00
2006 06 14  2315    53900   83700      0    1.59e+00    0    1.11e+00
2006 06 14  2320    53900   84000      0    1.60e+00    0    1.11e+00
2006 06 14  2325    53900   84300      0    1.60e+00    0    1.12e+00
2006 06 14  2330    53900   84600      0    1.62e+00    0    1.14e+00
2006 06 14  2335    53900   84900      0    1.60e+00    0    1.13e+00
2006 06 14  2340    53900   85200      0    1.67e+00    0    1.18e+00
2006 06 14  2345    53900   85500      0    1.61e+00    0    1.12e+00
2006 06 14  2350    53900   85800      0    1.60e+00    0    1.13e+00
2006 06 14  2355    53900   86100      0    1.62e+00    0    1.14e+00
