:Data_list: 20061222_ace_sis_5m.txt
:Created: 2006 Dec 23 0011 UT
# Prepared by the U.S. Dept. of Commerce, NOAA, Space Environment Center.
# Please send comments and suggestions to SEC.Webmaster@noaa.gov 
# 
# Units: proton flux p/cs2-sec-ster
# Status(S): 0 = nominal data, 1 to 8 = bad data record, 9 = no data
# Missing data values: -1.00e+05
# Source: ACE Satellite - Solar Isotope Spectrometer
#
# 5-minute averaged Real-time Integral Flux of High-energy Solar Protons
# 
#                 Modified Seconds
# UT Date   Time   Julian  of the      ---- Integral Proton Flux ----
# YR MO DA  HHMM     Day     Day       S    > 10 MeV    S    > 30 MeV
#--------------------------------------------------------------------
2006 12 22  0000    54091       0      0    2.16e+00    0    1.48e+00
2006 12 22  0005    54091     300      0    2.08e+00    0    1.43e+00
2006 12 22  0010    54091     600      0    2.09e+00    0    1.45e+00
2006 12 22  0015    54091     900      0    2.21e+00    0    1.53e+00
2006 12 22  0020    54091    1200      0    2.21e+00    0    1.53e+00
2006 12 22  0025    54091    1500      0    2.20e+00    0    1.52e+00
2006 12 22  0030    54091    1800      0    2.16e+00    0    1.48e+00
2006 12 22  0035    54091    2100      0    2.17e+00    0    1.50e+00
2006 12 22  0040    54091    2400      0    2.08e+00    0    1.45e+00
2006 12 22  0045    54091    2700      0    2.14e+00    0    1.49e+00
2006 12 22  0050    54091    3000      0    2.24e+00    0    1.56e+00
2006 12 22  0055    54091    3300      0    2.17e+00    0    1.49e+00
2006 12 22  0100    54091    3600      0    2.16e+00    0    1.49e+00
2006 12 22  0105    54091    3900      0    2.13e+00    0    1.48e+00
2006 12 22  0110    54091    4200      0    2.17e+00    0    1.51e+00
2006 12 22  0115    54091    4500      0    2.08e+00    0    1.45e+00
2006 12 22  0120    54091    4800      0    2.13e+00    0    1.49e+00
2006 12 22  0125    54091    5100      0    2.25e+00    0    1.56e+00
2006 12 22  0130    54091    5400      0    2.20e+00    0    1.52e+00
2006 12 22  0135    54091    5700      0    2.21e+00    0    1.52e+00
2006 12 22  0140    54091    6000      0    2.10e+00    0    1.45e+00
2006 12 22  0145    54091    6300      0    2.13e+00    0    1.48e+00
2006 12 22  0150    54091    6600      0    2.08e+00    0    1.44e+00
2006 12 22  0155    54091    6900      0    2.16e+00    0    1.50e+00
2006 12 22  0200    54091    7200      0    2.20e+00    0    1.53e+00
2006 12 22  0205    54091    7500      0    2.20e+00    0    1.51e+00
2006 12 22  0210    54091    7800      0    2.20e+00    0    1.53e+00
2006 12 22  0215    54091    8100      0    2.08e+00    0    1.43e+00
2006 12 22  0220    54091    8400      0    2.10e+00    0    1.47e+00
2006 12 22  0225    54091    8700      0    2.08e+00    0    1.45e+00
2006 12 22  0230    54091    9000      0    2.17e+00    0    1.52e+00
2006 12 22  0235    54091    9300      0    2.24e+00    0    1.56e+00
2006 12 22  0240    54091    9600      0    2.18e+00    0    1.51e+00
2006 12 22  0245    54091    9900      0    2.17e+00    0    1.51e+00
2006 12 22  0250    54091   10200      0    2.08e+00    0    1.45e+00
2006 12 22  0255    54091   10500      0    2.07e+00    0    1.45e+00
2006 12 22  0300    54091   10800      0    2.02e+00    0    1.40e+00
2006 12 22  0305    54091   11100      0    2.21e+00    0    1.51e+00
2006 12 22  0310    54091   11400      0    2.20e+00    0    1.53e+00
2006 12 22  0315    54091   11700      0    2.15e+00    0    1.50e+00
2006 12 22  0320    54091   12000      0    2.19e+00    0    1.52e+00
2006 12 22  0325    54091   12300      0    2.11e+00    0    1.46e+00
2006 12 22  0330    54091   12600      0    2.08e+00    0    1.45e+00
2006 12 22  0335    54091   12900      0    2.09e+00    0    1.45e+00
2006 12 22  0340    54091   13200      0    2.17e+00    0    1.52e+00
2006 12 22  0345    54091   13500      0    2.16e+00    0    1.49e+00
2006 12 22  0350    54091   13800      0    2.19e+00    0    1.53e+00
2006 12 22  0355    54091   14100      0    2.17e+00    0    1.51e+00
2006 12 22  0400    54091   14400      0    2.12e+00    0    1.46e+00
2006 12 22  0405    54091   14700      0    2.02e+00    0    1.39e+00
2006 12 22  0410    54091   15000      0    2.08e+00    0    1.44e+00
2006 12 22  0415    54091   15300      0    2.19e+00    0    1.52e+00
2006 12 22  0420    54091   15600      0    2.21e+00    0    1.52e+00
2006 12 22  0425    54091   15900      0    2.11e+00    0    1.45e+00
2006 12 22  0430    54091   16200      0    2.10e+00    0    1.44e+00
2006 12 22  0435    54091   16500      0    2.11e+00    0    1.46e+00
2006 12 22  0440    54091   16800      0    2.09e+00    0    1.45e+00
2006 12 22  0445    54091   17100      0    2.02e+00    0    1.39e+00
2006 12 22  0450    54091   17400      0    2.23e+00    0    1.54e+00
2006 12 22  0455    54091   17700      0    2.24e+00    0    1.56e+00
2006 12 22  0500    54091   18000      0    2.18e+00    0    1.52e+00
2006 12 22  0505    54091   18300      0    2.11e+00    0    1.47e+00
2006 12 22  0510    54091   18600      0    2.13e+00    0    1.49e+00
2006 12 22  0515    54091   18900      0    2.06e+00    0    1.43e+00
2006 12 22  0520    54091   19200      0    2.12e+00    0    1.48e+00
2006 12 22  0525    54091   19500      0    2.22e+00    0    1.54e+00
2006 12 22  0530    54091   19800      0    2.17e+00    0    1.49e+00
2006 12 22  0535    54091   20100      0    2.17e+00    0    1.50e+00
2006 12 22  0540    54091   20400      0    2.13e+00    0    1.47e+00
2006 12 22  0545    54091   20700      0    2.08e+00    0    1.45e+00
2006 12 22  0550    54091   21000      0    2.07e+00    0    1.43e+00
2006 12 22  0555    54091   21300      0    2.13e+00    0    1.48e+00
2006 12 22  0600    54091   21600      0    2.22e+00    0    1.54e+00
2006 12 22  0605    54091   21900      0    2.15e+00    0    1.49e+00
2006 12 22  0610    54091   22200      0    2.13e+00    0    1.48e+00
2006 12 22  0615    54091   22500      0    2.15e+00    0    1.49e+00
2006 12 22  0620    54091   22800      0    2.09e+00    0    1.45e+00
2006 12 22  0625    54091   23100      0    2.01e+00    0    1.39e+00
2006 12 22  0630    54091   23400      0    2.20e+00    0    1.53e+00
2006 12 22  0635    54091   23700      0    2.21e+00    0    1.54e+00
2006 12 22  0640    54091   24000      0    2.14e+00    0    1.50e+00
2006 12 22  0645    54091   24300      0    2.12e+00    0    1.47e+00
2006 12 22  0650    54091   24600      0    2.13e+00    0    1.49e+00
2006 12 22  0655    54091   24900      0    2.02e+00    0    1.41e+00
2006 12 22  0700    54091   25200      0    2.07e+00    0    1.43e+00
2006 12 22  0705    54091   25500      0    2.20e+00    0    1.53e+00
2006 12 22  0710    54091   25800      0    2.19e+00    0    1.53e+00
2006 12 22  0715    54091   26100      0    2.16e+00    0    1.49e+00
2006 12 22  0720    54091   26400      0    2.13e+00    0    1.47e+00
2006 12 22  0725    54091   26700      0    2.08e+00    0    1.45e+00
2006 12 22  0730    54091   27000      0    1.99e+00    0    1.38e+00
2006 12 22  0735    54091   27300      0    2.06e+00    0    1.42e+00
2006 12 22  0740    54091   27600      0    2.22e+00    0    1.54e+00
2006 12 22  0745    54091   27900      0    2.19e+00    0    1.53e+00
2006 12 22  0750    54091   28200      0    2.12e+00    0    1.47e+00
2006 12 22  0755    54091   28500      0    2.09e+00    0    1.45e+00
2006 12 22  0800    54091   28800      0    2.08e+00    0    1.45e+00
2006 12 22  0805    54091   29100      0    2.00e+00    0    1.39e+00
2006 12 22  0810    54091   29400      0    2.09e+00    0    1.45e+00
2006 12 22  0815    54091   29700      0    2.25e+00    0    1.56e+00
2006 12 22  0820    54091   30000      0    2.20e+00    0    1.52e+00
2006 12 22  0825    54091   30300      0    2.15e+00    0    1.49e+00
2006 12 22  0830    54091   30600      0    2.06e+00    0    1.43e+00
2006 12 22  0835    54091   30900      0    2.04e+00    0    1.43e+00
2006 12 22  0840    54091   31200      0    2.02e+00    0    1.40e+00
2006 12 22  0845    54091   31500      0    2.08e+00    0    1.43e+00
2006 12 22  0850    54091   31800      0    2.18e+00    0    1.52e+00
2006 12 22  0855    54091   32100      0    2.15e+00    0    1.50e+00
2006 12 22  0900    54091   32400      0    2.13e+00    0    1.49e+00
2006 12 22  0905    54091   32700      0    2.11e+00    0    1.45e+00
2006 12 22  0910    54091   33000      0    2.06e+00    0    1.43e+00
2006 12 22  0915    54091   33300      0    1.99e+00    0    1.39e+00
2006 12 22  0920    54091   33600      0    2.14e+00    0    1.49e+00
2006 12 22  0925    54091   33900      0    2.20e+00    0    1.53e+00
2006 12 22  0930    54091   34200      0    2.15e+00    0    1.50e+00
2006 12 22  0935    54091   34500      0    2.16e+00    0    1.51e+00
2006 12 22  0940    54091   34800      0    2.13e+00    0    1.48e+00
2006 12 22  0945    54091   35100      0    2.03e+00    0    1.41e+00
2006 12 22  0950    54091   35400      0    1.99e+00    0    1.40e+00
2006 12 22  0955    54091   35700      0    2.21e+00    0    1.56e+00
2006 12 22  1000    54091   36000      0    2.22e+00    0    1.54e+00
2006 12 22  1005    54091   36300      0    2.15e+00    0    1.50e+00
2006 12 22  1010    54091   36600      0    2.13e+00    0    1.49e+00
2006 12 22  1015    54091   36900      0    2.10e+00    0    1.47e+00
2006 12 22  1020    54091   37200      0    1.99e+00    0    1.36e+00
2006 12 22  1025    54091   37500      0    2.05e+00    0    1.43e+00
2006 12 22  1030    54091   37800      0    2.19e+00    0    1.52e+00
2006 12 22  1035    54091   38100      0    2.19e+00    0    1.53e+00
2006 12 22  1040    54091   38400      0    2.19e+00    0    1.53e+00
2006 12 22  1045    54091   38700      0    2.12e+00    0    1.47e+00
2006 12 22  1050    54091   39000      0    2.13e+00    0    1.48e+00
2006 12 22  1055    54091   39300      0    2.01e+00    0    1.40e+00
2006 12 22  1100    54091   39600      0    2.03e+00    0    1.42e+00
2006 12 22  1105    54091   39900      0    2.20e+00    0    1.52e+00
2006 12 22  1110    54091   40200      0    2.17e+00    0    1.51e+00
2006 12 22  1115    54091   40500      0    2.17e+00    0    1.51e+00
2006 12 22  1120    54091   40800      0    2.16e+00    0    1.50e+00
2006 12 22  1125    54091   41100      0    2.15e+00    0    1.48e+00
2006 12 22  1130    54091   41400      0    2.02e+00    0    1.41e+00
2006 12 22  1135    54091   41700      0    2.16e+00    0    1.49e+00
2006 12 22  1140    54091   42000      0    2.18e+00    0    1.50e+00
2006 12 22  1145    54091   42300      0    2.21e+00    0    1.53e+00
2006 12 22  1150    54091   42600      0    2.16e+00    0    1.51e+00
2006 12 22  1155    54091   42900      0    2.12e+00    0    1.46e+00
2006 12 22  1200    54091   43200      0    2.12e+00    0    1.48e+00
2006 12 22  1205    54091   43500      0    1.99e+00    0    1.39e+00
2006 12 22  1210    54091   43800      0    2.13e+00    0    1.48e+00
2006 12 22  1215    54091   44100      0    2.21e+00    0    1.54e+00
2006 12 22  1220    54091   44400      0    2.15e+00    0    1.50e+00
2006 12 22  1225    54091   44700      0    2.12e+00    0    1.47e+00
2006 12 22  1230    54091   45000      0    2.06e+00    0    1.43e+00
2006 12 22  1235    54091   45300      0    2.02e+00    0    1.40e+00
2006 12 22  1240    54091   45600      0    2.02e+00    0    1.40e+00
2006 12 22  1245    54091   45900      0    2.13e+00    0    1.48e+00
2006 12 22  1250    54091   46200      0    2.18e+00    0    1.51e+00
2006 12 22  1255    54091   46500      0    2.14e+00    0    1.50e+00
2006 12 22  1300    54091   46800      0    2.13e+00    0    1.48e+00
2006 12 22  1305    54091   47100      0    2.10e+00    0    1.47e+00
2006 12 22  1310    54091   47400      0    2.05e+00    0    1.42e+00
2006 12 22  1315    54091   47700      0    1.98e+00    0    1.38e+00
2006 12 22  1320    54091   48000      0    2.21e+00    0    1.54e+00
2006 12 22  1325    54091   48300      0    2.19e+00    0    1.54e+00
2006 12 22  1330    54091   48600      0    2.15e+00    0    1.50e+00
2006 12 22  1335    54091   48900      0    2.10e+00    0    1.47e+00
2006 12 22  1340    54091   49200      0    2.11e+00    0    1.47e+00
2006 12 22  1345    54091   49500      0    2.03e+00    0    1.41e+00
2006 12 22  1350    54091   49800      0    2.02e+00    0    1.42e+00
2006 12 22  1355    54091   50100      0    2.17e+00    0    1.51e+00
2006 12 22  1400    54091   50400      0    2.18e+00    0    1.52e+00
2006 12 22  1405    54091   50700      0    2.13e+00    0    1.49e+00
2006 12 22  1410    54091   51000      0    2.12e+00    0    1.48e+00
2006 12 22  1415    54091   51300      0    2.10e+00    0    1.47e+00
2006 12 22  1420    54091   51600      0    1.96e+00    0    1.36e+00
2006 12 22  1425    54091   51900      0    2.09e+00    0    1.45e+00
2006 12 22  1430    54091   52200      0    2.21e+00    0    1.53e+00
2006 12 22  1435    54091   52500      0    2.21e+00    0    1.55e+00
2006 12 22  1440    54091   52800      0    2.17e+00    0    1.50e+00
2006 12 22  1445    54091   53100      0    2.07e+00    0    1.44e+00
2006 12 22  1450    54091   53400      0    2.07e+00    0    1.45e+00
2006 12 22  1455    54091   53700      0    2.03e+00    0    1.42e+00
2006 12 22  1500    54091   54000      0    2.16e+00    0    1.49e+00
2006 12 22  1505    54091   54300      0    2.23e+00    0    1.55e+00
2006 12 22  1510    54091   54600      0    2.21e+00    0    1.55e+00
2006 12 22  1515    54091   54900      0    2.15e+00    0    1.50e+00
2006 12 22  1520    54091   55200      0    2.16e+00    0    1.51e+00
2006 12 22  1525    54091   55500      0    2.09e+00    0    1.46e+00
2006 12 22  1530    54091   55800      0    2.07e+00    0    1.45e+00
2006 12 22  1535    54091   56100      0    2.20e+00    0    1.54e+00
2006 12 22  1540    54091   56400      0    2.22e+00    0    1.55e+00
2006 12 22  1545    54091   56700      0    2.15e+00    0    1.51e+00
2006 12 22  1550    54091   57000      0    2.12e+00    0    1.47e+00
2006 12 22  1555    54091   57300      0    2.09e+00    0    1.46e+00
2006 12 22  1600    54091   57600      0    2.09e+00    0    1.45e+00
2006 12 22  1605    54091   57900      0    2.06e+00    0    1.42e+00
2006 12 22  1610    54091   58200      0    2.20e+00    0    1.53e+00
2006 12 22  1615    54091   58500      0    2.18e+00    0    1.52e+00
2006 12 22  1620    54091   58800      0    2.18e+00    0    1.51e+00
2006 12 22  1625    54091   59100      0    2.15e+00    0    1.49e+00
2006 12 22  1630    54091   59400      0    2.10e+00    0    1.47e+00
2006 12 22  1635    54091   59700      0    2.06e+00    0    1.44e+00
2006 12 22  1640    54091   60000      0    2.05e+00    0    1.42e+00
2006 12 22  1645    54091   60300      0    2.19e+00    0    1.53e+00
2006 12 22  1650    54091   60600      0    2.21e+00    0    1.55e+00
2006 12 22  1655    54091   60900      0    2.20e+00    0    1.51e+00
2006 12 22  1700    54091   61200      0    2.13e+00    0    1.49e+00
2006 12 22  1705    54091   61500      0    2.15e+00    0    1.50e+00
2006 12 22  1710    54091   61800      0    1.99e+00    0    1.38e+00
2006 12 22  1715    54091   62100      0    2.07e+00    0    1.44e+00
2006 12 22  1720    54091   62400      0    2.23e+00    0    1.56e+00
2006 12 22  1725    54091   62700      0    2.22e+00    0    1.56e+00
2006 12 22  1730    54091   63000      0    2.10e+00    0    1.47e+00
2006 12 22  1735    54091   63300      0    2.13e+00    0    1.49e+00
2006 12 22  1740    54091   63600      0    2.10e+00    0    1.47e+00
2006 12 22  1745    54091   63900      0    2.02e+00    0    1.40e+00
2006 12 22  1750    54091   64200      0    2.11e+00    0    1.46e+00
2006 12 22  1755    54091   64500      0    2.23e+00    0    1.56e+00
2006 12 22  1800    54091   64800      0    2.16e+00    0    1.51e+00
2006 12 22  1805    54091   65100      0    2.17e+00    0    1.49e+00
2006 12 22  1810    54091   65400      0    2.08e+00    0    1.45e+00
2006 12 22  1815    54091   65700      0    2.12e+00    0    1.48e+00
2006 12 22  1820    54091   66000      0    2.03e+00    0    1.42e+00
2006 12 22  1825    54091   66300      0    2.08e+00    0    1.44e+00
2006 12 22  1830    54091   66600      0    2.23e+00    0    1.55e+00
2006 12 22  1835    54091   66900      0    2.18e+00    0    1.52e+00
2006 12 22  1840    54091   67200      0    2.23e+00    0    1.56e+00
2006 12 22  1845    54091   67500      0    2.14e+00    0    1.49e+00
2006 12 22  1850    54091   67800      0    2.11e+00    0    1.47e+00
2006 12 22  1855    54091   68100      0    2.02e+00    0    1.42e+00
2006 12 22  1900    54091   68400      0    2.14e+00    0    1.49e+00
2006 12 22  1905    54091   68700      0    2.23e+00    0    1.55e+00
2006 12 22  1910    54091   69000      0    2.20e+00    0    1.51e+00
2006 12 22  1915    54091   69300      0    2.18e+00    0    1.51e+00
2006 12 22  1920    54091   69600      0    2.15e+00    0    1.48e+00
2006 12 22  1925    54091   69900      0    2.09e+00    0    1.48e+00
2006 12 22  1930    54091   70200      0    2.04e+00    0    1.42e+00
2006 12 22  1935    54091   70500      0    2.20e+00    0    1.52e+00
2006 12 22  1940    54091   70800      0    2.23e+00    0    1.54e+00
2006 12 22  1945    54091   71100      0    2.18e+00    0    1.53e+00
2006 12 22  1950    54091   71400      0    2.09e+00    0    1.45e+00
2006 12 22  1955    54091   71700      0    2.13e+00    0    1.48e+00
2006 12 22  2000    54091   72000      0    2.01e+00    0    1.41e+00
2006 12 22  2005    54091   72300      0    2.03e+00    0    1.40e+00
2006 12 22  2010    54091   72600      0    2.20e+00    0    1.52e+00
2006 12 22  2015    54091   72900      0    2.18e+00    0    1.51e+00
2006 12 22  2020    54091   73200      0    2.17e+00    0    1.53e+00
2006 12 22  2025    54091   73500      0    2.10e+00    0    1.48e+00
2006 12 22  2030    54091   73800      0    2.14e+00    0    1.48e+00
2006 12 22  2035    54091   74100      0    2.01e+00    0    1.40e+00
2006 12 22  2040    54091   74400      0    2.10e+00    0    1.46e+00
2006 12 22  2045    54091   74700      0    2.24e+00    0    1.58e+00
2006 12 22  2050    54091   75000      0    2.19e+00    0    1.54e+00
2006 12 22  2055    54091   75300      0    2.18e+00    0    1.53e+00
2006 12 22  2100    54091   75600      0    2.18e+00    0    1.50e+00
2006 12 22  2105    54091   75900      9   -1.00e+05    9   -1.00e+05
2006 12 22  2110    54091   76200      0    2.07e+00    0    1.44e+00
2006 12 22  2115    54091   76500      0    2.12e+00    0    1.47e+00
2006 12 22  2120    54091   76800      0    2.17e+00    0    1.52e+00
2006 12 22  2125    54091   77100      0    2.19e+00    0    1.53e+00
2006 12 22  2130    54091   77400      0    2.19e+00    0    1.54e+00
2006 12 22  2135    54091   77700      0    2.14e+00    0    1.48e+00
2006 12 22  2140    54091   78000      0    2.09e+00    0    1.44e+00
2006 12 22  2145    54091   78300      0    2.07e+00    0    1.43e+00
2006 12 22  2150    54091   78600      0    2.17e+00    0    1.52e+00
2006 12 22  2155    54091   78900      0    2.23e+00    0    1.57e+00
2006 12 22  2200    54091   79200      0    2.18e+00    0    1.53e+00
2006 12 22  2205    54091   79500      0    2.18e+00    0    1.53e+00
2006 12 22  2210    54091   79800      0    2.19e+00    0    1.52e+00
2006 12 22  2215    54091   80100      0    2.07e+00    0    1.46e+00
2006 12 22  2220    54091   80400      0    2.13e+00    0    1.50e+00
2006 12 22  2225    54091   80700      0    2.15e+00    0    1.50e+00
2006 12 22  2230    54091   81000      0    2.17e+00    0    1.51e+00
2006 12 22  2235    54091   81300      0    2.20e+00    0    1.54e+00
2006 12 22  2240    54091   81600      0    2.14e+00    0    1.49e+00
2006 12 22  2245    54091   81900      0    2.13e+00    0    1.48e+00
2006 12 22  2250    54091   82200      0    2.09e+00    0    1.47e+00
2006 12 22  2255    54091   82500      0    2.02e+00    0    1.42e+00
2006 12 22  2300    54091   82800      0    2.20e+00    0    1.54e+00
2006 12 22  2305    54091   83100      0    2.26e+00    0    1.57e+00
2006 12 22  2310    54091   83400      0    2.20e+00    0    1.53e+00
2006 12 22  2315    54091   83700      0    2.13e+00    0    1.48e+00
2006 12 22  2320    54091   84000      0    2.13e+00    0    1.50e+00
2006 12 22  2325    54091   84300      0    2.06e+00    0    1.43e+00
2006 12 22  2330    54091   84600      0    2.04e+00    0    1.42e+00
2006 12 22  2335    54091   84900      0    2.21e+00    0    1.53e+00
2006 12 22  2340    54091   85200      0    2.26e+00    0    1.58e+00
2006 12 22  2345    54091   85500      0    2.18e+00    0    1.51e+00
2006 12 22  2350    54091   85800      0    2.16e+00    0    1.50e+00
2006 12 22  2355    54091   86100      0    2.15e+00    0    1.51e+00
