:Data_list: 20060310_ace_sis_5m.txt
:Created: 2006 Mar 11 0011 UT
# Prepared by the U.S. Dept. of Commerce, NOAA, Space Environment Center.
# Please send comments and suggestions to SEC.Webmaster@noaa.gov 
# 
# Units: proton flux p/cs2-sec-ster
# Status(S): 0 = nominal data, 1 to 8 = bad data record, 9 = no data
# Missing data values: -1.00e+05
# Source: ACE Satellite - Solar Isotope Spectrometer
#
# 5-minute averaged Real-time Integral Flux of High-energy Solar Protons
# 
#                 Modified Seconds
# UT Date   Time   Julian  of the      ---- Integral Proton Flux ----
# YR MO DA  HHMM     Day     Day       S    > 10 MeV    S    > 30 MeV
#--------------------------------------------------------------------
2006 03 10  0000    53804       0      0    1.50e+00    0    1.05e+00
2006 03 10  0005    53804     300      0    1.50e+00    0    1.05e+00
2006 03 10  0010    53804     600      0    1.50e+00    0    1.05e+00
2006 03 10  0015    53804     900      0    1.51e+00    0    1.06e+00
2006 03 10  0020    53804    1200      0    1.49e+00    0    1.04e+00
2006 03 10  0025    53804    1500      0    1.51e+00    0    1.06e+00
2006 03 10  0030    53804    1800      0    1.52e+00    0    1.07e+00
2006 03 10  0035    53804    2100      0    1.50e+00    0    1.05e+00
2006 03 10  0040    53804    2400      0    1.52e+00    0    1.07e+00
2006 03 10  0045    53804    2700      0    1.50e+00    0    1.06e+00
2006 03 10  0050    53804    3000      0    1.52e+00    0    1.07e+00
2006 03 10  0055    53804    3300      0    1.49e+00    0    1.05e+00
2006 03 10  0100    53804    3600      0    1.51e+00    0    1.07e+00
2006 03 10  0105    53804    3900      0    1.50e+00    0    1.06e+00
2006 03 10  0110    53804    4200      0    1.49e+00    0    1.05e+00
2006 03 10  0115    53804    4500      0    1.50e+00    0    1.06e+00
2006 03 10  0120    53804    4800      0    1.47e+00    0    1.02e+00
2006 03 10  0125    53804    5100      0    1.46e+00    0    1.03e+00
2006 03 10  0130    53804    5400      0    1.51e+00    0    1.06e+00
2006 03 10  0135    53804    5700      0    1.50e+00    0    1.05e+00
2006 03 10  0140    53804    6000      0    1.52e+00    0    1.07e+00
2006 03 10  0145    53804    6300      0    1.50e+00    0    1.06e+00
2006 03 10  0150    53804    6600      0    1.47e+00    0    1.04e+00
2006 03 10  0155    53804    6900      0    1.48e+00    0    1.04e+00
2006 03 10  0200    53804    7200      0    1.51e+00    0    1.06e+00
2006 03 10  0205    53804    7500      0    1.48e+00    0    1.04e+00
2006 03 10  0210    53804    7800      0    1.51e+00    0    1.06e+00
2006 03 10  0215    53804    8100      0    1.47e+00    0    1.03e+00
2006 03 10  0220    53804    8400      0    1.49e+00    0    1.05e+00
2006 03 10  0225    53804    8700      0    1.52e+00    0    1.06e+00
2006 03 10  0230    53804    9000      0    1.49e+00    0    1.05e+00
2006 03 10  0235    53804    9300      0    1.49e+00    0    1.04e+00
2006 03 10  0240    53804    9600      0    1.50e+00    0    1.06e+00
2006 03 10  0245    53804    9900      0    1.50e+00    0    1.05e+00
2006 03 10  0250    53804   10200      0    1.41e+00    0    9.83e-01
2006 03 10  0255    53804   10500      0    1.52e+00    0    1.07e+00
2006 03 10  0300    53804   10800      0    1.50e+00    0    1.04e+00
2006 03 10  0305    53804   11100      0    1.49e+00    0    1.05e+00
2006 03 10  0310    53804   11400      0    1.48e+00    0    1.04e+00
2006 03 10  0315    53804   11700      0    1.51e+00    0    1.06e+00
2006 03 10  0320    53804   12000      0    1.52e+00    0    1.08e+00
2006 03 10  0325    53804   12300      0    1.51e+00    0    1.06e+00
2006 03 10  0330    53804   12600      0    1.50e+00    0    1.05e+00
2006 03 10  0335    53804   12900      0    1.46e+00    0    1.02e+00
2006 03 10  0340    53804   13200      0    1.51e+00    0    1.06e+00
2006 03 10  0345    53804   13500      0    1.52e+00    0    1.06e+00
2006 03 10  0350    53804   13800      0    1.55e+00    0    1.09e+00
2006 03 10  0355    53804   14100      0    1.51e+00    0    1.06e+00
2006 03 10  0400    53804   14400      0    1.52e+00    0    1.06e+00
2006 03 10  0405    53804   14700      0    1.52e+00    0    1.07e+00
2006 03 10  0410    53804   15000      0    1.54e+00    0    1.08e+00
2006 03 10  0415    53804   15300      0    1.54e+00    0    1.07e+00
2006 03 10  0420    53804   15600      0    1.52e+00    0    1.07e+00
2006 03 10  0425    53804   15900      0    1.52e+00    0    1.06e+00
2006 03 10  0430    53804   16200      0    1.48e+00    0    1.04e+00
2006 03 10  0435    53804   16500      0    1.51e+00    0    1.06e+00
2006 03 10  0440    53804   16800      0    1.53e+00    0    1.07e+00
2006 03 10  0445    53804   17100      0    1.54e+00    0    1.08e+00
2006 03 10  0450    53804   17400      0    1.50e+00    0    1.06e+00
2006 03 10  0455    53804   17700      0    1.52e+00    0    1.06e+00
2006 03 10  0500    53804   18000      0    1.55e+00    0    1.08e+00
2006 03 10  0505    53804   18300      0    1.50e+00    0    1.06e+00
2006 03 10  0510    53804   18600      0    1.51e+00    0    1.05e+00
2006 03 10  0515    53804   18900      0    1.53e+00    0    1.08e+00
2006 03 10  0520    53804   19200      0    1.52e+00    0    1.06e+00
2006 03 10  0525    53804   19500      0    1.50e+00    0    1.05e+00
2006 03 10  0530    53804   19800      0    1.52e+00    0    1.07e+00
2006 03 10  0535    53804   20100      0    1.55e+00    0    1.10e+00
2006 03 10  0540    53804   20400      0    1.51e+00    0    1.06e+00
2006 03 10  0545    53804   20700      0    1.53e+00    0    1.07e+00
2006 03 10  0550    53804   21000      0    1.46e+00    0    1.02e+00
2006 03 10  0555    53804   21300      0    1.50e+00    0    1.06e+00
2006 03 10  0600    53804   21600      0    1.53e+00    0    1.08e+00
2006 03 10  0605    53804   21900      0    1.54e+00    0    1.09e+00
2006 03 10  0610    53804   22200      0    1.53e+00    0    1.07e+00
2006 03 10  0615    53804   22500      0    1.52e+00    0    1.07e+00
2006 03 10  0620    53804   22800      0    1.49e+00    0    1.04e+00
2006 03 10  0625    53804   23100      0    1.51e+00    0    1.06e+00
2006 03 10  0630    53804   23400      0    1.55e+00    0    1.08e+00
2006 03 10  0635    53804   23700      0    1.54e+00    0    1.08e+00
2006 03 10  0640    53804   24000      0    1.53e+00    0    1.08e+00
2006 03 10  0645    53804   24300      0    1.54e+00    0    1.08e+00
2006 03 10  0650    53804   24600      0    1.52e+00    0    1.07e+00
2006 03 10  0655    53804   24900      0    1.50e+00    0    1.05e+00
2006 03 10  0700    53804   25200      0    1.51e+00    0    1.04e+00
2006 03 10  0705    53804   25500      0    1.54e+00    0    1.10e+00
2006 03 10  0710    53804   25800      0    1.52e+00    0    1.06e+00
2006 03 10  0715    53804   26100      0    1.54e+00    0    1.08e+00
2006 03 10  0720    53804   26400      0    1.52e+00    0    1.07e+00
2006 03 10  0725    53804   26700      0    1.56e+00    0    1.08e+00
2006 03 10  0730    53804   27000      0    1.51e+00    0    1.04e+00
2006 03 10  0735    53804   27300      0    1.51e+00    0    1.05e+00
2006 03 10  0740    53804   27600      0    1.51e+00    0    1.06e+00
2006 03 10  0745    53804   27900      0    1.51e+00    0    1.06e+00
2006 03 10  0750    53804   28200      0    1.51e+00    0    1.07e+00
2006 03 10  0755    53804   28500      0    1.51e+00    0    1.05e+00
2006 03 10  0800    53804   28800      0    1.52e+00    0    1.06e+00
2006 03 10  0805    53804   29100      0    1.52e+00    0    1.05e+00
2006 03 10  0810    53804   29400      0    1.52e+00    0    1.07e+00
2006 03 10  0815    53804   29700      0    1.50e+00    0    1.05e+00
2006 03 10  0820    53804   30000      0    1.52e+00    0    1.07e+00
2006 03 10  0825    53804   30300      0    1.53e+00    0    1.07e+00
2006 03 10  0830    53804   30600      0    1.57e+00    0    1.11e+00
2006 03 10  0835    53804   30900      0    1.56e+00    0    1.09e+00
2006 03 10  0840    53804   31200      0    1.53e+00    0    1.08e+00
2006 03 10  0845    53804   31500      0    1.52e+00    0    1.06e+00
2006 03 10  0850    53804   31800      0    1.54e+00    0    1.07e+00
2006 03 10  0855    53804   32100      0    1.54e+00    0    1.09e+00
2006 03 10  0900    53804   32400      0    1.53e+00    0    1.07e+00
2006 03 10  0905    53804   32700      0    1.52e+00    0    1.07e+00
2006 03 10  0910    53804   33000      0    1.51e+00    0    1.06e+00
2006 03 10  0915    53804   33300      0    1.51e+00    0    1.06e+00
2006 03 10  0920    53804   33600      0    1.54e+00    0    1.09e+00
2006 03 10  0925    53804   33900      0    1.50e+00    0    1.06e+00
2006 03 10  0930    53804   34200      0    1.53e+00    0    1.09e+00
2006 03 10  0935    53804   34500      0    1.55e+00    0    1.08e+00
2006 03 10  0940    53804   34800      0    1.53e+00    0    1.08e+00
2006 03 10  0945    53804   35100      0    1.49e+00    0    1.05e+00
2006 03 10  0950    53804   35400      0    1.54e+00    0    1.09e+00
2006 03 10  0955    53804   35700      0    1.53e+00    0    1.08e+00
2006 03 10  1000    53804   36000      0    1.53e+00    0    1.07e+00
2006 03 10  1005    53804   36300      0    1.51e+00    0    1.06e+00
2006 03 10  1010    53804   36600      0    1.48e+00    0    1.03e+00
2006 03 10  1015    53804   36900      0    1.47e+00    0    1.04e+00
2006 03 10  1020    53804   37200      0    1.51e+00    0    1.05e+00
2006 03 10  1025    53804   37500      0    1.54e+00    0    1.09e+00
2006 03 10  1030    53804   37800      0    1.54e+00    0    1.09e+00
2006 03 10  1035    53804   38100      0    1.51e+00    0    1.06e+00
2006 03 10  1040    53804   38400      0    1.52e+00    0    1.07e+00
2006 03 10  1045    53804   38700      0    1.51e+00    0    1.05e+00
2006 03 10  1050    53804   39000      0    1.52e+00    0    1.07e+00
2006 03 10  1055    53804   39300      0    1.54e+00    0    1.09e+00
2006 03 10  1100    53804   39600      0    1.50e+00    0    1.05e+00
2006 03 10  1105    53804   39900      0    1.53e+00    0    1.07e+00
2006 03 10  1110    53804   40200      0    1.54e+00    0    1.09e+00
2006 03 10  1115    53804   40500      0    1.52e+00    0    1.07e+00
2006 03 10  1120    53804   40800      0    1.51e+00    0    1.06e+00
2006 03 10  1125    53804   41100      0    1.52e+00    0    1.07e+00
2006 03 10  1130    53804   41400      0    1.53e+00    0    1.08e+00
2006 03 10  1135    53804   41700      0    1.54e+00    0    1.09e+00
2006 03 10  1140    53804   42000      0    1.50e+00    0    1.06e+00
2006 03 10  1145    53804   42300      0    1.51e+00    0    1.07e+00
2006 03 10  1150    53804   42600      0    1.53e+00    0    1.08e+00
2006 03 10  1155    53804   42900      0    1.50e+00    0    1.06e+00
2006 03 10  1200    53804   43200      0    1.50e+00    0    1.06e+00
2006 03 10  1205    53804   43500      0    1.51e+00    0    1.05e+00
2006 03 10  1210    53804   43800      0    1.54e+00    0    1.08e+00
2006 03 10  1215    53804   44100      0    1.53e+00    0    1.07e+00
2006 03 10  1220    53804   44400      0    1.53e+00    0    1.07e+00
2006 03 10  1225    53804   44700      0    1.51e+00    0    1.06e+00
2006 03 10  1230    53804   45000      0    1.50e+00    0    1.05e+00
2006 03 10  1235    53804   45300      0    1.51e+00    0    1.08e+00
2006 03 10  1240    53804   45600      0    1.50e+00    0    1.06e+00
2006 03 10  1245    53804   45900      0    1.51e+00    0    1.06e+00
2006 03 10  1250    53804   46200      0    1.54e+00    0    1.08e+00
2006 03 10  1255    53804   46500      0    1.53e+00    0    1.09e+00
2006 03 10  1300    53804   46800      0    1.52e+00    0    1.07e+00
2006 03 10  1305    53804   47100      0    1.48e+00    0    1.03e+00
2006 03 10  1310    53804   47400      0    1.51e+00    0    1.05e+00
2006 03 10  1315    53804   47700      0    1.53e+00    0    1.07e+00
2006 03 10  1320    53804   48000      0    1.48e+00    0    1.03e+00
2006 03 10  1325    53804   48300      0    1.51e+00    0    1.07e+00
2006 03 10  1330    53804   48600      0    1.51e+00    0    1.07e+00
2006 03 10  1335    53804   48900      0    1.51e+00    0    1.06e+00
2006 03 10  1340    53804   49200      0    1.53e+00    0    1.08e+00
2006 03 10  1345    53804   49500      0    1.51e+00    0    1.05e+00
2006 03 10  1350    53804   49800      0    1.51e+00    0    1.06e+00
2006 03 10  1355    53804   50100      0    1.49e+00    0    1.05e+00
2006 03 10  1400    53804   50400      0    1.51e+00    0    1.07e+00
2006 03 10  1405    53804   50700      0    1.53e+00    0    1.07e+00
2006 03 10  1410    53804   51000      0    1.51e+00    0    1.07e+00
2006 03 10  1415    53804   51300      0    1.50e+00    0    1.05e+00
2006 03 10  1420    53804   51600      0    1.49e+00    0    1.06e+00
2006 03 10  1425    53804   51900      0    1.52e+00    0    1.07e+00
2006 03 10  1430    53804   52200      0    1.51e+00    0    1.06e+00
2006 03 10  1435    53804   52500      0    1.49e+00    0    1.04e+00
2006 03 10  1440    53804   52800      0    1.48e+00    0    1.04e+00
2006 03 10  1445    53804   53100      0    1.49e+00    0    1.04e+00
2006 03 10  1450    53804   53400      0    1.52e+00    0    1.07e+00
2006 03 10  1455    53804   53700      0    1.48e+00    0    1.04e+00
2006 03 10  1500    53804   54000      0    1.54e+00    0    1.08e+00
2006 03 10  1505    53804   54300      0    1.49e+00    0    1.04e+00
2006 03 10  1510    53804   54600      0    1.46e+00    0    1.02e+00
2006 03 10  1515    53804   54900      0    1.49e+00    0    1.04e+00
2006 03 10  1520    53804   55200      0    1.53e+00    0    1.07e+00
2006 03 10  1525    53804   55500      0    1.49e+00    0    1.04e+00
2006 03 10  1530    53804   55800      0    1.49e+00    0    1.04e+00
2006 03 10  1535    53804   56100      0    1.50e+00    0    1.06e+00
2006 03 10  1540    53804   56400      0    1.48e+00    0    1.05e+00
2006 03 10  1545    53804   56700      0    1.50e+00    0    1.06e+00
2006 03 10  1550    53804   57000      0    1.52e+00    0    1.06e+00
2006 03 10  1555    53804   57300      0    1.52e+00    0    1.07e+00
2006 03 10  1600    53804   57600      0    1.50e+00    0    1.05e+00
2006 03 10  1605    53804   57900      0    1.49e+00    0    1.05e+00
2006 03 10  1610    53804   58200      0    1.46e+00    0    1.02e+00
2006 03 10  1615    53804   58500      0    1.48e+00    0    1.03e+00
2006 03 10  1620    53804   58800      0    1.45e+00    0    1.02e+00
2006 03 10  1625    53804   59100      0    1.50e+00    0    1.06e+00
2006 03 10  1630    53804   59400      0    1.54e+00    0    1.08e+00
2006 03 10  1635    53804   59700      0    1.52e+00    0    1.07e+00
2006 03 10  1640    53804   60000      0    1.50e+00    0    1.05e+00
2006 03 10  1645    53804   60300      0    1.52e+00    0    1.05e+00
2006 03 10  1650    53804   60600      0    1.53e+00    0    1.07e+00
2006 03 10  1655    53804   60900      0    1.54e+00    0    1.08e+00
2006 03 10  1700    53804   61200      0    1.51e+00    0    1.05e+00
2006 03 10  1705    53804   61500      0    1.47e+00    0    1.03e+00
2006 03 10  1710    53804   61800      0    1.52e+00    0    1.07e+00
2006 03 10  1715    53804   62100      0    1.51e+00    0    1.05e+00
2006 03 10  1720    53804   62400      0    1.48e+00    0    1.04e+00
2006 03 10  1725    53804   62700      0    1.49e+00    0    1.05e+00
2006 03 10  1730    53804   63000      0    1.49e+00    0    1.04e+00
2006 03 10  1735    53804   63300      0    1.53e+00    0    1.08e+00
2006 03 10  1740    53804   63600      0    1.49e+00    0    1.04e+00
2006 03 10  1745    53804   63900      0    1.51e+00    0    1.07e+00
2006 03 10  1750    53804   64200      0    1.51e+00    0    1.06e+00
2006 03 10  1755    53804   64500      0    1.51e+00    0    1.05e+00
2006 03 10  1800    53804   64800      0    1.53e+00    0    1.07e+00
2006 03 10  1805    53804   65100      0    1.51e+00    0    1.06e+00
2006 03 10  1810    53804   65400      0    1.50e+00    0    1.06e+00
2006 03 10  1815    53804   65700      0    1.53e+00    0    1.08e+00
2006 03 10  1820    53804   66000      0    1.53e+00    0    1.07e+00
2006 03 10  1825    53804   66300      0    1.49e+00    0    1.05e+00
2006 03 10  1830    53804   66600      0    1.51e+00    0    1.06e+00
2006 03 10  1835    53804   66900      0    1.52e+00    0    1.07e+00
2006 03 10  1840    53804   67200      0    1.51e+00    0    1.06e+00
2006 03 10  1845    53804   67500      0    1.49e+00    0    1.05e+00
2006 03 10  1850    53804   67800      0    1.50e+00    0    1.05e+00
2006 03 10  1855    53804   68100      0    1.53e+00    0    1.07e+00
2006 03 10  1900    53804   68400      0    1.52e+00    0    1.08e+00
2006 03 10  1905    53804   68700      0    1.48e+00    0    1.04e+00
2006 03 10  1910    53804   69000      0    1.52e+00    0    1.06e+00
2006 03 10  1915    53804   69300      0    1.51e+00    0    1.06e+00
2006 03 10  1920    53804   69600      0    1.52e+00    0    1.06e+00
2006 03 10  1925    53804   69900      0    1.53e+00    0    1.08e+00
2006 03 10  1930    53804   70200      0    1.52e+00    0    1.07e+00
2006 03 10  1935    53804   70500      0    1.51e+00    0    1.06e+00
2006 03 10  1940    53804   70800      0    1.53e+00    0    1.08e+00
2006 03 10  1945    53804   71100      0    1.52e+00    0    1.07e+00
2006 03 10  1950    53804   71400      0    1.51e+00    0    1.06e+00
2006 03 10  1955    53804   71700      0    1.49e+00    0    1.05e+00
2006 03 10  2000    53804   72000      0    1.52e+00    0    1.07e+00
2006 03 10  2005    53804   72300      0    1.49e+00    0    1.05e+00
2006 03 10  2010    53804   72600      0    1.51e+00    0    1.06e+00
2006 03 10  2015    53804   72900      0    1.55e+00    0    1.10e+00
2006 03 10  2020    53804   73200      0    1.53e+00    0    1.07e+00
2006 03 10  2025    53804   73500      0    1.54e+00    0    1.07e+00
2006 03 10  2030    53804   73800      0    1.51e+00    0    1.06e+00
2006 03 10  2035    53804   74100      0    1.49e+00    0    1.05e+00
2006 03 10  2040    53804   74400      0    1.45e+00    0    1.01e+00
2006 03 10  2045    53804   74700      0    1.52e+00    0    1.07e+00
2006 03 10  2050    53804   75000      0    1.51e+00    0    1.07e+00
2006 03 10  2055    53804   75300      0    1.53e+00    0    1.08e+00
2006 03 10  2100    53804   75600      0    1.51e+00    0    1.05e+00
2006 03 10  2105    53804   75900      0    1.49e+00    0    1.05e+00
2006 03 10  2110    53804   76200      0    1.51e+00    0    1.05e+00
2006 03 10  2115    53804   76500      0    1.50e+00    0    1.05e+00
2006 03 10  2120    53804   76800      0    1.52e+00    0    1.08e+00
2006 03 10  2125    53804   77100      0    1.51e+00    0    1.07e+00
2006 03 10  2130    53804   77400      0    1.52e+00    0    1.06e+00
2006 03 10  2135    53804   77700      0    1.53e+00    0    1.09e+00
2006 03 10  2140    53804   78000      0    1.49e+00    0    1.06e+00
2006 03 10  2145    53804   78300      0    1.50e+00    0    1.06e+00
2006 03 10  2150    53804   78600      0    1.52e+00    0    1.08e+00
2006 03 10  2155    53804   78900      0    1.53e+00    0    1.08e+00
2006 03 10  2200    53804   79200      0    1.54e+00    0    1.08e+00
2006 03 10  2205    53804   79500      0    1.53e+00    0    1.08e+00
2006 03 10  2210    53804   79800      0    1.50e+00    0    1.05e+00
2006 03 10  2215    53804   80100      0    1.48e+00    0    1.03e+00
2006 03 10  2220    53804   80400      0    1.53e+00    0    1.08e+00
2006 03 10  2225    53804   80700      0    1.53e+00    0    1.07e+00
2006 03 10  2230    53804   81000      0    1.51e+00    0    1.06e+00
2006 03 10  2235    53804   81300      0    1.53e+00    0    1.07e+00
2006 03 10  2240    53804   81600      0    1.50e+00    0    1.06e+00
2006 03 10  2245    53804   81900      0    1.48e+00    0    1.04e+00
2006 03 10  2250    53804   82200      0    1.50e+00    0    1.04e+00
2006 03 10  2255    53804   82500      0    1.50e+00    0    1.06e+00
2006 03 10  2300    53804   82800      0    1.51e+00    0    1.05e+00
2006 03 10  2305    53804   83100      0    1.55e+00    0    1.09e+00
2006 03 10  2310    53804   83400      0    1.50e+00    0    1.06e+00
2006 03 10  2315    53804   83700      0    1.50e+00    0    1.05e+00
2006 03 10  2320    53804   84000      0    1.50e+00    0    1.05e+00
2006 03 10  2325    53804   84300      0    1.49e+00    0    1.06e+00
2006 03 10  2330    53804   84600      0    1.55e+00    0    1.09e+00
2006 03 10  2335    53804   84900      0    1.54e+00    0    1.09e+00
2006 03 10  2340    53804   85200      0    1.50e+00    0    1.04e+00
2006 03 10  2345    53804   85500      0    1.49e+00    0    1.04e+00
2006 03 10  2350    53804   85800      0    1.52e+00    0    1.08e+00
2006 03 10  2355    53804   86100      0    1.53e+00    0    1.07e+00
