:Data_list: 20060322_ace_sis_5m.txt
:Created: 2006 Mar 23 0011 UT
# Prepared by the U.S. Dept. of Commerce, NOAA, Space Environment Center.
# Please send comments and suggestions to SEC.Webmaster@noaa.gov 
# 
# Units: proton flux p/cs2-sec-ster
# Status(S): 0 = nominal data, 1 to 8 = bad data record, 9 = no data
# Missing data values: -1.00e+05
# Source: ACE Satellite - Solar Isotope Spectrometer
#
# 5-minute averaged Real-time Integral Flux of High-energy Solar Protons
# 
#                 Modified Seconds
# UT Date   Time   Julian  of the      ---- Integral Proton Flux ----
# YR MO DA  HHMM     Day     Day       S    > 10 MeV    S    > 30 MeV
#--------------------------------------------------------------------
2006 03 22  0000    53816       0      0    1.52e+00    0    1.06e+00
2006 03 22  0005    53816     300      0    1.53e+00    0    1.07e+00
2006 03 22  0010    53816     600      0    1.53e+00    0    1.06e+00
2006 03 22  0015    53816     900      0    1.53e+00    0    1.09e+00
2006 03 22  0020    53816    1200      0    1.53e+00    0    1.07e+00
2006 03 22  0025    53816    1500      0    1.54e+00    0    1.07e+00
2006 03 22  0030    53816    1800      0    1.54e+00    0    1.07e+00
2006 03 22  0035    53816    2100      0    1.53e+00    0    1.08e+00
2006 03 22  0040    53816    2400      0    1.58e+00    0    1.11e+00
2006 03 22  0045    53816    2700      0    1.51e+00    0    1.08e+00
2006 03 22  0050    53816    3000      0    1.56e+00    0    1.10e+00
2006 03 22  0055    53816    3300      0    1.51e+00    0    1.07e+00
2006 03 22  0100    53816    3600      0    1.51e+00    0    1.07e+00
2006 03 22  0105    53816    3900      0    1.51e+00    0    1.06e+00
2006 03 22  0110    53816    4200      0    1.54e+00    0    1.10e+00
2006 03 22  0115    53816    4500      0    1.52e+00    0    1.06e+00
2006 03 22  0120    53816    4800      0    1.53e+00    0    1.06e+00
2006 03 22  0125    53816    5100      0    1.55e+00    0    1.09e+00
2006 03 22  0130    53816    5400      0    1.51e+00    0    1.06e+00
2006 03 22  0135    53816    5700      0    1.54e+00    0    1.08e+00
2006 03 22  0140    53816    6000      0    1.52e+00    0    1.07e+00
2006 03 22  0145    53816    6300      0    1.55e+00    0    1.09e+00
2006 03 22  0150    53816    6600      0    1.52e+00    0    1.09e+00
2006 03 22  0155    53816    6900      0    1.53e+00    0    1.08e+00
2006 03 22  0200    53816    7200      0    1.51e+00    0    1.07e+00
2006 03 22  0205    53816    7500      0    1.50e+00    0    1.05e+00
2006 03 22  0210    53816    7800      0    1.51e+00    0    1.06e+00
2006 03 22  0215    53816    8100      0    1.55e+00    0    1.08e+00
2006 03 22  0220    53816    8400      0    1.55e+00    0    1.09e+00
2006 03 22  0225    53816    8700      0    1.54e+00    0    1.07e+00
2006 03 22  0230    53816    9000      0    1.53e+00    0    1.08e+00
2006 03 22  0235    53816    9300      0    1.53e+00    0    1.08e+00
2006 03 22  0240    53816    9600      0    1.55e+00    0    1.09e+00
2006 03 22  0245    53816    9900      0    1.58e+00    0    1.11e+00
2006 03 22  0250    53816   10200      0    1.50e+00    0    1.06e+00
2006 03 22  0255    53816   10500      0    1.50e+00    0    1.06e+00
2006 03 22  0300    53816   10800      0    1.54e+00    0    1.09e+00
2006 03 22  0305    53816   11100      0    1.58e+00    0    1.11e+00
2006 03 22  0310    53816   11400      0    1.51e+00    0    1.06e+00
2006 03 22  0315    53816   11700      0    1.52e+00    0    1.07e+00
2006 03 22  0320    53816   12000      0    1.52e+00    0    1.05e+00
2006 03 22  0325    53816   12300      0    1.55e+00    0    1.09e+00
2006 03 22  0330    53816   12600      0    1.55e+00    0    1.09e+00
2006 03 22  0335    53816   12900      0    1.52e+00    0    1.06e+00
2006 03 22  0340    53816   13200      0    1.56e+00    0    1.11e+00
2006 03 22  0345    53816   13500      0    1.55e+00    0    1.08e+00
2006 03 22  0350    53816   13800      0    1.53e+00    0    1.09e+00
2006 03 22  0355    53816   14100      0    1.47e+00    0    1.02e+00
2006 03 22  0400    53816   14400      0    1.52e+00    0    1.06e+00
2006 03 22  0405    53816   14700      0    1.52e+00    0    1.07e+00
2006 03 22  0410    53816   15000      0    1.53e+00    0    1.08e+00
2006 03 22  0415    53816   15300      0    1.55e+00    0    1.08e+00
2006 03 22  0420    53816   15600      0    1.54e+00    0    1.08e+00
2006 03 22  0425    53816   15900      0    1.53e+00    0    1.08e+00
2006 03 22  0430    53816   16200      0    1.52e+00    0    1.06e+00
2006 03 22  0435    53816   16500      0    1.48e+00    0    1.04e+00
2006 03 22  0440    53816   16800      0    1.50e+00    0    1.05e+00
2006 03 22  0445    53816   17100      0    1.54e+00    0    1.07e+00
2006 03 22  0450    53816   17400      0    1.54e+00    0    1.07e+00
2006 03 22  0455    53816   17700      0    1.53e+00    0    1.08e+00
2006 03 22  0500    53816   18000      0    1.51e+00    0    1.05e+00
2006 03 22  0505    53816   18300      0    1.53e+00    0    1.08e+00
2006 03 22  0510    53816   18600      0    1.53e+00    0    1.08e+00
2006 03 22  0515    53816   18900      0    1.51e+00    0    1.05e+00
2006 03 22  0520    53816   19200      0    1.52e+00    0    1.07e+00
2006 03 22  0525    53816   19500      0    1.50e+00    0    1.06e+00
2006 03 22  0530    53816   19800      0    1.52e+00    0    1.06e+00
2006 03 22  0535    53816   20100      0    1.53e+00    0    1.07e+00
2006 03 22  0540    53816   20400      0    1.54e+00    0    1.09e+00
2006 03 22  0545    53816   20700      0    1.54e+00    0    1.08e+00
2006 03 22  0550    53816   21000      0    1.50e+00    0    1.07e+00
2006 03 22  0555    53816   21300      0    1.53e+00    0    1.07e+00
2006 03 22  0600    53816   21600      0    1.54e+00    0    1.08e+00
2006 03 22  0605    53816   21900      0    1.51e+00    0    1.05e+00
2006 03 22  0610    53816   22200      0    1.53e+00    0    1.08e+00
2006 03 22  0615    53816   22500      0    1.49e+00    0    1.04e+00
2006 03 22  0620    53816   22800      0    1.52e+00    0    1.06e+00
2006 03 22  0625    53816   23100      0    1.53e+00    0    1.07e+00
2006 03 22  0630    53816   23400      0    1.56e+00    0    1.10e+00
2006 03 22  0635    53816   23700      0    1.53e+00    0    1.08e+00
2006 03 22  0640    53816   24000      0    1.54e+00    0    1.09e+00
2006 03 22  0645    53816   24300      0    1.50e+00    0    1.04e+00
2006 03 22  0650    53816   24600      0    1.47e+00    0    1.04e+00
2006 03 22  0655    53816   24900      0    1.53e+00    0    1.08e+00
2006 03 22  0700    53816   25200      0    1.49e+00    0    1.05e+00
2006 03 22  0705    53816   25500      0    1.50e+00    0    1.06e+00
2006 03 22  0710    53816   25800      0    1.51e+00    0    1.05e+00
2006 03 22  0715    53816   26100      0    1.53e+00    0    1.08e+00
2006 03 22  0720    53816   26400      0    1.48e+00    0    1.04e+00
2006 03 22  0725    53816   26700      0    1.52e+00    0    1.07e+00
2006 03 22  0730    53816   27000      0    1.50e+00    0    1.05e+00
2006 03 22  0735    53816   27300      0    1.50e+00    0    1.05e+00
2006 03 22  0740    53816   27600      0    1.51e+00    0    1.06e+00
2006 03 22  0745    53816   27900      0    1.54e+00    0    1.08e+00
2006 03 22  0750    53816   28200      0    1.53e+00    0    1.09e+00
2006 03 22  0755    53816   28500      0    1.48e+00    0    1.05e+00
2006 03 22  0800    53816   28800      0    1.53e+00    0    1.09e+00
2006 03 22  0805    53816   29100      0    1.49e+00    0    1.05e+00
2006 03 22  0810    53816   29400      0    1.53e+00    0    1.08e+00
2006 03 22  0815    53816   29700      0    1.55e+00    0    1.08e+00
2006 03 22  0820    53816   30000      0    1.54e+00    0    1.09e+00
2006 03 22  0825    53816   30300      0    1.49e+00    0    1.05e+00
2006 03 22  0830    53816   30600      0    1.52e+00    0    1.07e+00
2006 03 22  0835    53816   30900      0    1.53e+00    0    1.08e+00
2006 03 22  0840    53816   31200      0    1.54e+00    0    1.08e+00
2006 03 22  0845    53816   31500      0    1.50e+00    0    1.04e+00
2006 03 22  0850    53816   31800      0    1.52e+00    0    1.06e+00
2006 03 22  0855    53816   32100      0    1.52e+00    0    1.07e+00
2006 03 22  0900    53816   32400      0    1.55e+00    0    1.09e+00
2006 03 22  0905    53816   32700      0    1.54e+00    0    1.08e+00
2006 03 22  0910    53816   33000      0    1.56e+00    0    1.08e+00
2006 03 22  0915    53816   33300      0    1.54e+00    0    1.08e+00
2006 03 22  0920    53816   33600      0    1.50e+00    0    1.04e+00
2006 03 22  0925    53816   33900      0    1.49e+00    0    1.05e+00
2006 03 22  0930    53816   34200      0    1.52e+00    0    1.06e+00
2006 03 22  0935    53816   34500      0    1.54e+00    0    1.08e+00
2006 03 22  0940    53816   34800      0    1.56e+00    0    1.10e+00
2006 03 22  0945    53816   35100      0    1.51e+00    0    1.07e+00
2006 03 22  0950    53816   35400      0    1.52e+00    0    1.07e+00
2006 03 22  0955    53816   35700      0    1.52e+00    0    1.06e+00
2006 03 22  1000    53816   36000      0    1.49e+00    0    1.04e+00
2006 03 22  1005    53816   36300      0    1.57e+00    0    1.12e+00
2006 03 22  1010    53816   36600      0    1.54e+00    0    1.09e+00
2006 03 22  1015    53816   36900      0    1.51e+00    0    1.07e+00
2006 03 22  1020    53816   37200      0    1.51e+00    0    1.06e+00
2006 03 22  1025    53816   37500      0    1.51e+00    0    1.05e+00
2006 03 22  1030    53816   37800      0    1.50e+00    0    1.04e+00
2006 03 22  1035    53816   38100      0    1.53e+00    0    1.07e+00
2006 03 22  1040    53816   38400      0    1.51e+00    0    1.06e+00
2006 03 22  1045    53816   38700      0    1.53e+00    0    1.07e+00
2006 03 22  1050    53816   39000      0    1.54e+00    0    1.10e+00
2006 03 22  1055    53816   39300      0    1.57e+00    0    1.11e+00
2006 03 22  1100    53816   39600      0    1.49e+00    0    1.04e+00
2006 03 22  1105    53816   39900      0    1.50e+00    0    1.04e+00
2006 03 22  1110    53816   40200      0    1.52e+00    0    1.06e+00
2006 03 22  1115    53816   40500      0    1.50e+00    0    1.06e+00
2006 03 22  1120    53816   40800      0    1.48e+00    0    1.04e+00
2006 03 22  1125    53816   41100      0    1.53e+00    0    1.07e+00
2006 03 22  1130    53816   41400      0    1.45e+00    0    1.01e+00
2006 03 22  1135    53816   41700      0    1.50e+00    0    1.05e+00
2006 03 22  1140    53816   42000      0    1.52e+00    0    1.07e+00
2006 03 22  1145    53816   42300      0    1.49e+00    0    1.04e+00
2006 03 22  1150    53816   42600      0    1.55e+00    0    1.08e+00
2006 03 22  1155    53816   42900      0    1.53e+00    0    1.07e+00
2006 03 22  1200    53816   43200      0    1.54e+00    0    1.08e+00
2006 03 22  1205    53816   43500      0    1.55e+00    0    1.09e+00
2006 03 22  1210    53816   43800      0    1.54e+00    0    1.09e+00
2006 03 22  1215    53816   44100      0    1.52e+00    0    1.08e+00
2006 03 22  1220    53816   44400      0    1.56e+00    0    1.09e+00
2006 03 22  1225    53816   44700      0    1.51e+00    0    1.06e+00
2006 03 22  1230    53816   45000      0    1.53e+00    0    1.07e+00
2006 03 22  1235    53816   45300      0    1.54e+00    0    1.09e+00
2006 03 22  1240    53816   45600      0    1.56e+00    0    1.10e+00
2006 03 22  1245    53816   45900      0    1.54e+00    0    1.09e+00
2006 03 22  1250    53816   46200      0    1.55e+00    0    1.10e+00
2006 03 22  1255    53816   46500      0    1.53e+00    0    1.08e+00
2006 03 22  1300    53816   46800      0    1.53e+00    0    1.07e+00
2006 03 22  1305    53816   47100      0    1.51e+00    0    1.07e+00
2006 03 22  1310    53816   47400      0    1.58e+00    0    1.11e+00
2006 03 22  1315    53816   47700      0    1.53e+00    0    1.06e+00
2006 03 22  1320    53816   48000      0    1.56e+00    0    1.10e+00
2006 03 22  1325    53816   48300      0    1.53e+00    0    1.07e+00
2006 03 22  1330    53816   48600      0    1.55e+00    0    1.09e+00
2006 03 22  1335    53816   48900      0    1.54e+00    0    1.08e+00
2006 03 22  1340    53816   49200      0    1.52e+00    0    1.06e+00
2006 03 22  1345    53816   49500      0    1.53e+00    0    1.08e+00
2006 03 22  1350    53816   49800      0    1.50e+00    0    1.05e+00
2006 03 22  1355    53816   50100      0    1.52e+00    0    1.05e+00
2006 03 22  1400    53816   50400      0    1.52e+00    0    1.07e+00
2006 03 22  1405    53816   50700      0    1.56e+00    0    1.09e+00
2006 03 22  1410    53816   51000      0    1.55e+00    0    1.08e+00
2006 03 22  1415    53816   51300      0    1.53e+00    0    1.06e+00
2006 03 22  1420    53816   51600      0    1.54e+00    0    1.09e+00
2006 03 22  1425    53816   51900      0    1.55e+00    0    1.09e+00
2006 03 22  1430    53816   52200      0    1.56e+00    0    1.11e+00
2006 03 22  1435    53816   52500      0    1.52e+00    0    1.06e+00
2006 03 22  1440    53816   52800      0    1.55e+00    0    1.09e+00
2006 03 22  1445    53816   53100      0    1.49e+00    0    1.04e+00
2006 03 22  1450    53816   53400      0    1.52e+00    0    1.05e+00
2006 03 22  1455    53816   53700      0    1.56e+00    0    1.10e+00
2006 03 22  1500    53816   54000      0    1.54e+00    0    1.08e+00
2006 03 22  1505    53816   54300      0    1.55e+00    0    1.10e+00
2006 03 22  1510    53816   54600      0    1.57e+00    0    1.11e+00
2006 03 22  1515    53816   54900      0    1.55e+00    0    1.08e+00
2006 03 22  1520    53816   55200      0    1.50e+00    0    1.06e+00
2006 03 22  1525    53816   55500      0    1.56e+00    0    1.09e+00
2006 03 22  1530    53816   55800      0    1.53e+00    0    1.07e+00
2006 03 22  1535    53816   56100      0    1.54e+00    0    1.07e+00
2006 03 22  1540    53816   56400      0    1.56e+00    0    1.09e+00
2006 03 22  1545    53816   56700      0    1.54e+00    0    1.09e+00
2006 03 22  1550    53816   57000      0    1.53e+00    0    1.09e+00
2006 03 22  1555    53816   57300      0    1.52e+00    0    1.06e+00
2006 03 22  1600    53816   57600      0    1.52e+00    0    1.07e+00
2006 03 22  1605    53816   57900      0    1.52e+00    0    1.07e+00
2006 03 22  1610    53816   58200      0    1.54e+00    0    1.09e+00
2006 03 22  1615    53816   58500      0    1.53e+00    0    1.06e+00
2006 03 22  1620    53816   58800      0    1.53e+00    0    1.07e+00
2006 03 22  1625    53816   59100      0    1.53e+00    0    1.08e+00
2006 03 22  1630    53816   59400      0    1.52e+00    0    1.06e+00
2006 03 22  1635    53816   59700      0    1.55e+00    0    1.11e+00
2006 03 22  1640    53816   60000      0    1.56e+00    0    1.10e+00
2006 03 22  1645    53816   60300      0    1.56e+00    0    1.10e+00
2006 03 22  1650    53816   60600      0    1.50e+00    0    1.05e+00
2006 03 22  1655    53816   60900      0    1.55e+00    0    1.08e+00
2006 03 22  1700    53816   61200      0    1.55e+00    0    1.09e+00
2006 03 22  1705    53816   61500      0    1.53e+00    0    1.07e+00
2006 03 22  1710    53816   61800      0    1.57e+00    0    1.09e+00
2006 03 22  1715    53816   62100      0    1.55e+00    0    1.09e+00
2006 03 22  1720    53816   62400      0    1.57e+00    0    1.10e+00
2006 03 22  1725    53816   62700      0    1.56e+00    0    1.09e+00
2006 03 22  1730    53816   63000      0    1.53e+00    0    1.08e+00
2006 03 22  1735    53816   63300      0    1.54e+00    0    1.08e+00
2006 03 22  1740    53816   63600      0    1.52e+00    0    1.07e+00
2006 03 22  1745    53816   63900      0    1.54e+00    0    1.07e+00
2006 03 22  1750    53816   64200      0    1.54e+00    0    1.07e+00
2006 03 22  1755    53816   64500      0    1.54e+00    0    1.08e+00
2006 03 22  1800    53816   64800      0    1.55e+00    0    1.09e+00
2006 03 22  1805    53816   65100      0    1.51e+00    0    1.07e+00
2006 03 22  1810    53816   65400      0    1.50e+00    0    1.05e+00
2006 03 22  1815    53816   65700      0    1.53e+00    0    1.08e+00
2006 03 22  1820    53816   66000      0    1.54e+00    0    1.08e+00
2006 03 22  1825    53816   66300      0    1.55e+00    0    1.09e+00
2006 03 22  1830    53816   66600      0    1.53e+00    0    1.08e+00
2006 03 22  1835    53816   66900      0    1.50e+00    0    1.06e+00
2006 03 22  1840    53816   67200      0    1.56e+00    0    1.10e+00
2006 03 22  1845    53816   67500      0    1.52e+00    0    1.07e+00
2006 03 22  1850    53816   67800      0    1.52e+00    0    1.06e+00
2006 03 22  1855    53816   68100      0    1.53e+00    0    1.08e+00
2006 03 22  1900    53816   68400      0    1.56e+00    0    1.09e+00
2006 03 22  1905    53816   68700      0    1.56e+00    0    1.09e+00
2006 03 22  1910    53816   69000      0    1.55e+00    0    1.10e+00
2006 03 22  1915    53816   69300      0    1.53e+00    0    1.07e+00
2006 03 22  1920    53816   69600      0    1.54e+00    0    1.10e+00
2006 03 22  1925    53816   69900      0    1.55e+00    0    1.09e+00
2006 03 22  1930    53816   70200      0    1.54e+00    0    1.07e+00
2006 03 22  1935    53816   70500      0    1.54e+00    0    1.08e+00
2006 03 22  1940    53816   70800      0    1.52e+00    0    1.07e+00
2006 03 22  1945    53816   71100      0    1.51e+00    0    1.05e+00
2006 03 22  1950    53816   71400      0    1.53e+00    0    1.07e+00
2006 03 22  1955    53816   71700      0    1.51e+00    0    1.07e+00
2006 03 22  2000    53816   72000      0    1.54e+00    0    1.07e+00
2006 03 22  2005    53816   72300      0    1.54e+00    0    1.09e+00
2006 03 22  2010    53816   72600      0    1.54e+00    0    1.09e+00
2006 03 22  2015    53816   72900      0    1.54e+00    0    1.07e+00
2006 03 22  2020    53816   73200      0    1.52e+00    0    1.08e+00
2006 03 22  2025    53816   73500      0    1.53e+00    0    1.07e+00
2006 03 22  2030    53816   73800      0    1.58e+00    0    1.11e+00
2006 03 22  2035    53816   74100      0    1.54e+00    0    1.10e+00
2006 03 22  2040    53816   74400      0    1.54e+00    0    1.09e+00
2006 03 22  2045    53816   74700      0    1.43e+00    0    1.01e+00
2006 03 22  2050    53816   75000      0    1.54e+00    0    1.09e+00
2006 03 22  2055    53816   75300      0    1.52e+00    0    1.06e+00
2006 03 22  2100    53816   75600      0    1.54e+00    0    1.06e+00
2006 03 22  2105    53816   75900      0    1.54e+00    0    1.09e+00
2006 03 22  2110    53816   76200      0    1.52e+00    0    1.06e+00
2006 03 22  2115    53816   76500      0    1.54e+00    0    1.07e+00
2006 03 22  2120    53816   76800      0    1.52e+00    0    1.07e+00
2006 03 22  2125    53816   77100      0    1.55e+00    0    1.09e+00
2006 03 22  2130    53816   77400      0    1.56e+00    0    1.09e+00
2006 03 22  2135    53816   77700      0    1.52e+00    0    1.07e+00
2006 03 22  2140    53816   78000      0    1.53e+00    0    1.08e+00
2006 03 22  2145    53816   78300      0    1.51e+00    0    1.07e+00
2006 03 22  2150    53816   78600      0    1.54e+00    0    1.08e+00
2006 03 22  2155    53816   78900      0    1.57e+00    0    1.10e+00
2006 03 22  2200    53816   79200      0    1.57e+00    0    1.11e+00
2006 03 22  2205    53816   79500      0    1.57e+00    0    1.10e+00
2006 03 22  2210    53816   79800      0    1.54e+00    0    1.09e+00
2006 03 22  2215    53816   80100      0    1.54e+00    0    1.09e+00
2006 03 22  2220    53816   80400      0    1.54e+00    0    1.08e+00
2006 03 22  2225    53816   80700      0    1.52e+00    0    1.06e+00
2006 03 22  2230    53816   81000      0    1.54e+00    0    1.08e+00
2006 03 22  2235    53816   81300      0    1.55e+00    0    1.08e+00
2006 03 22  2240    53816   81600      0    1.51e+00    0    1.06e+00
2006 03 22  2245    53816   81900      0    1.55e+00    0    1.09e+00
2006 03 22  2250    53816   82200      0    1.53e+00    0    1.07e+00
2006 03 22  2255    53816   82500      0    1.51e+00    0    1.06e+00
2006 03 22  2300    53816   82800      0    1.52e+00    0    1.07e+00
2006 03 22  2305    53816   83100      0    1.56e+00    0    1.09e+00
2006 03 22  2310    53816   83400      0    1.54e+00    0    1.08e+00
2006 03 22  2315    53816   83700      0    1.51e+00    0    1.06e+00
2006 03 22  2320    53816   84000      0    1.54e+00    0    1.08e+00
2006 03 22  2325    53816   84300      0    1.53e+00    0    1.07e+00
2006 03 22  2330    53816   84600      0    1.57e+00    0    1.10e+00
2006 03 22  2335    53816   84900      0    1.56e+00    0    1.09e+00
2006 03 22  2340    53816   85200      0    1.54e+00    0    1.07e+00
2006 03 22  2345    53816   85500      0    1.62e+00    0    1.15e+00
2006 03 22  2350    53816   85800      0    1.56e+00    0    1.11e+00
2006 03 22  2355    53816   86100      0    1.56e+00    0    1.09e+00
