:Data_list: 20060302_ace_sis_5m.txt
:Created: 2006 Mar 03 0011 UT
# Prepared by the U.S. Dept. of Commerce, NOAA, Space Environment Center.
# Please send comments and suggestions to SEC.Webmaster@noaa.gov 
# 
# Units: proton flux p/cs2-sec-ster
# Status(S): 0 = nominal data, 1 to 8 = bad data record, 9 = no data
# Missing data values: -1.00e+05
# Source: ACE Satellite - Solar Isotope Spectrometer
#
# 5-minute averaged Real-time Integral Flux of High-energy Solar Protons
# 
#                 Modified Seconds
# UT Date   Time   Julian  of the      ---- Integral Proton Flux ----
# YR MO DA  HHMM     Day     Day       S    > 10 MeV    S    > 30 MeV
#--------------------------------------------------------------------
2006 03 02  0000    53796       0      0    1.48e+00    0    1.04e+00
2006 03 02  0005    53796     300      0    1.52e+00    0    1.06e+00
2006 03 02  0010    53796     600      0    1.48e+00    0    1.03e+00
2006 03 02  0015    53796     900      0    1.49e+00    0    1.06e+00
2006 03 02  0020    53796    1200      0    1.50e+00    0    1.06e+00
2006 03 02  0025    53796    1500      0    1.49e+00    0    1.05e+00
2006 03 02  0030    53796    1800      0    1.51e+00    0    1.06e+00
2006 03 02  0035    53796    2100      0    1.48e+00    0    1.04e+00
2006 03 02  0040    53796    2400      0    1.47e+00    0    1.03e+00
2006 03 02  0045    53796    2700      0    1.48e+00    0    1.05e+00
2006 03 02  0050    53796    3000      0    1.54e+00    0    1.08e+00
2006 03 02  0055    53796    3300      0    1.51e+00    0    1.06e+00
2006 03 02  0100    53796    3600      0    1.48e+00    0    1.04e+00
2006 03 02  0105    53796    3900      0    1.48e+00    0    1.04e+00
2006 03 02  0110    53796    4200      0    1.50e+00    0    1.05e+00
2006 03 02  0115    53796    4500      0    1.50e+00    0    1.06e+00
2006 03 02  0120    53796    4800      0    1.50e+00    0    1.05e+00
2006 03 02  0125    53796    5100      0    1.52e+00    0    1.07e+00
2006 03 02  0130    53796    5400      0    1.48e+00    0    1.04e+00
2006 03 02  0135    53796    5700      0    1.47e+00    0    1.03e+00
2006 03 02  0140    53796    6000      0    1.49e+00    0    1.04e+00
2006 03 02  0145    53796    6300      0    1.48e+00    0    1.03e+00
2006 03 02  0150    53796    6600      0    1.49e+00    0    1.05e+00
2006 03 02  0155    53796    6900      0    1.49e+00    0    1.04e+00
2006 03 02  0200    53796    7200      0    1.51e+00    0    1.04e+00
2006 03 02  0205    53796    7500      0    1.47e+00    0    1.05e+00
2006 03 02  0210    53796    7800      0    1.48e+00    0    1.04e+00
2006 03 02  0215    53796    8100      0    1.51e+00    0    1.06e+00
2006 03 02  0220    53796    8400      0    1.51e+00    0    1.06e+00
2006 03 02  0225    53796    8700      0    1.49e+00    0    1.05e+00
2006 03 02  0230    53796    9000      0    1.51e+00    0    1.06e+00
2006 03 02  0235    53796    9300      0    1.52e+00    0    1.06e+00
2006 03 02  0240    53796    9600      0    1.52e+00    0    1.05e+00
2006 03 02  0245    53796    9900      0    1.51e+00    0    1.07e+00
2006 03 02  0250    53796   10200      0    1.49e+00    0    1.05e+00
2006 03 02  0255    53796   10500      0    1.60e+00    0    1.16e+00
2006 03 02  0300    53796   10800      0    1.51e+00    0    1.07e+00
2006 03 02  0305    53796   11100      0    1.51e+00    0    1.06e+00
2006 03 02  0310    53796   11400      0    1.51e+00    0    1.06e+00
2006 03 02  0315    53796   11700      0    1.50e+00    0    1.06e+00
2006 03 02  0320    53796   12000      0    1.48e+00    0    1.04e+00
2006 03 02  0325    53796   12300      0    1.52e+00    0    1.06e+00
2006 03 02  0330    53796   12600      0    1.51e+00    0    1.07e+00
2006 03 02  0335    53796   12900      0    1.53e+00    0    1.08e+00
2006 03 02  0340    53796   13200      0    1.53e+00    0    1.08e+00
2006 03 02  0345    53796   13500      0    1.52e+00    0    1.08e+00
2006 03 02  0350    53796   13800      0    1.50e+00    0    1.04e+00
2006 03 02  0355    53796   14100      0    1.52e+00    0    1.06e+00
2006 03 02  0400    53796   14400      0    1.54e+00    0    1.08e+00
2006 03 02  0405    53796   14700      0    1.50e+00    0    1.05e+00
2006 03 02  0410    53796   15000      0    1.51e+00    0    1.06e+00
2006 03 02  0415    53796   15300      0    1.54e+00    0    1.09e+00
2006 03 02  0420    53796   15600      0    1.51e+00    0    1.06e+00
2006 03 02  0425    53796   15900      0    1.53e+00    0    1.08e+00
2006 03 02  0430    53796   16200      0    1.49e+00    0    1.05e+00
2006 03 02  0435    53796   16500      0    1.53e+00    0    1.09e+00
2006 03 02  0440    53796   16800      0    1.51e+00    0    1.06e+00
2006 03 02  0445    53796   17100      0    1.53e+00    0    1.07e+00
2006 03 02  0450    53796   17400      0    1.52e+00    0    1.07e+00
2006 03 02  0455    53796   17700      0    1.52e+00    0    1.06e+00
2006 03 02  0500    53796   18000      0    1.52e+00    0    1.07e+00
2006 03 02  0505    53796   18300      0    1.48e+00    0    1.04e+00
2006 03 02  0510    53796   18600      0    1.49e+00    0    1.05e+00
2006 03 02  0515    53796   18900      0    1.49e+00    0    1.04e+00
2006 03 02  0520    53796   19200      0    1.49e+00    0    1.04e+00
2006 03 02  0525    53796   19500      0    1.46e+00    0    1.03e+00
2006 03 02  0530    53796   19800      0    1.50e+00    0    1.06e+00
2006 03 02  0535    53796   20100      0    1.49e+00    0    1.04e+00
2006 03 02  0540    53796   20400      0    1.50e+00    0    1.05e+00
2006 03 02  0545    53796   20700      0    1.50e+00    0    1.05e+00
2006 03 02  0550    53796   21000      0    1.50e+00    0    1.05e+00
2006 03 02  0555    53796   21300      0    1.48e+00    0    1.03e+00
2006 03 02  0600    53796   21600      0    1.47e+00    0    1.03e+00
2006 03 02  0605    53796   21900      0    1.53e+00    0    1.08e+00
2006 03 02  0610    53796   22200      0    1.49e+00    0    1.04e+00
2006 03 02  0615    53796   22500      0    1.50e+00    0    1.07e+00
2006 03 02  0620    53796   22800      0    1.52e+00    0    1.06e+00
2006 03 02  0625    53796   23100      0    1.54e+00    0    1.08e+00
2006 03 02  0630    53796   23400      0    1.48e+00    0    1.04e+00
2006 03 02  0635    53796   23700      0    1.53e+00    0    1.07e+00
2006 03 02  0640    53796   24000      0    1.48e+00    0    1.05e+00
2006 03 02  0645    53796   24300      0    1.51e+00    0    1.06e+00
2006 03 02  0650    53796   24600      0    1.50e+00    0    1.06e+00
2006 03 02  0655    53796   24900      0    1.52e+00    0    1.07e+00
2006 03 02  0700    53796   25200      0    1.51e+00    0    1.06e+00
2006 03 02  0705    53796   25500      0    1.53e+00    0    1.07e+00
2006 03 02  0710    53796   25800      0    1.50e+00    0    1.05e+00
2006 03 02  0715    53796   26100      0    1.50e+00    0    1.07e+00
2006 03 02  0720    53796   26400      0    1.50e+00    0    1.06e+00
2006 03 02  0725    53796   26700      0    1.51e+00    0    1.05e+00
2006 03 02  0730    53796   27000      0    1.48e+00    0    1.03e+00
2006 03 02  0735    53796   27300      0    1.48e+00    0    1.05e+00
2006 03 02  0740    53796   27600      0    1.47e+00    0    1.04e+00
2006 03 02  0745    53796   27900      0    1.54e+00    0    1.08e+00
2006 03 02  0750    53796   28200      0    1.50e+00    0    1.05e+00
2006 03 02  0755    53796   28500      0    1.48e+00    0    1.04e+00
2006 03 02  0800    53796   28800      0    1.47e+00    0    1.04e+00
2006 03 02  0805    53796   29100      0    1.50e+00    0    1.07e+00
2006 03 02  0810    53796   29400      0    1.52e+00    0    1.07e+00
2006 03 02  0815    53796   29700      0    1.49e+00    0    1.05e+00
2006 03 02  0820    53796   30000      0    1.48e+00    0    1.05e+00
2006 03 02  0825    53796   30300      0    1.51e+00    0    1.07e+00
2006 03 02  0830    53796   30600      0    1.48e+00    0    1.05e+00
2006 03 02  0835    53796   30900      0    1.48e+00    0    1.04e+00
2006 03 02  0840    53796   31200      0    1.50e+00    0    1.06e+00
2006 03 02  0845    53796   31500      0    1.50e+00    0    1.06e+00
2006 03 02  0850    53796   31800      0    1.52e+00    0    1.06e+00
2006 03 02  0855    53796   32100      0    1.48e+00    0    1.03e+00
2006 03 02  0900    53796   32400      0    1.52e+00    0    1.06e+00
2006 03 02  0905    53796   32700      0    1.50e+00    0    1.06e+00
2006 03 02  0910    53796   33000      0    1.52e+00    0    1.07e+00
2006 03 02  0915    53796   33300      0    1.50e+00    0    1.05e+00
2006 03 02  0920    53796   33600      0    1.53e+00    0    1.07e+00
2006 03 02  0925    53796   33900      0    1.49e+00    0    1.04e+00
2006 03 02  0930    53796   34200      0    1.50e+00    0    1.05e+00
2006 03 02  0935    53796   34500      0    1.50e+00    0    1.07e+00
2006 03 02  0940    53796   34800      0    1.50e+00    0    1.05e+00
2006 03 02  0945    53796   35100      0    1.54e+00    0    1.08e+00
2006 03 02  0950    53796   35400      0    1.50e+00    0    1.06e+00
2006 03 02  0955    53796   35700      0    1.52e+00    0    1.07e+00
2006 03 02  1000    53796   36000      0    1.51e+00    0    1.06e+00
2006 03 02  1005    53796   36300      0    1.53e+00    0    1.06e+00
2006 03 02  1010    53796   36600      0    1.49e+00    0    1.04e+00
2006 03 02  1015    53796   36900      0    1.51e+00    0    1.07e+00
2006 03 02  1020    53796   37200      0    1.52e+00    0    1.06e+00
2006 03 02  1025    53796   37500      0    1.50e+00    0    1.05e+00
2006 03 02  1030    53796   37800      0    1.48e+00    0    1.05e+00
2006 03 02  1035    53796   38100      0    1.50e+00    0    1.05e+00
2006 03 02  1040    53796   38400      0    1.54e+00    0    1.10e+00
2006 03 02  1045    53796   38700      0    1.49e+00    0    1.05e+00
2006 03 02  1050    53796   39000      0    1.50e+00    0    1.06e+00
2006 03 02  1055    53796   39300      0    1.51e+00    0    1.08e+00
2006 03 02  1100    53796   39600      0    1.49e+00    0    1.06e+00
2006 03 02  1105    53796   39900      0    1.51e+00    0    1.07e+00
2006 03 02  1110    53796   40200      0    1.51e+00    0    1.06e+00
2006 03 02  1115    53796   40500      0    1.50e+00    0    1.06e+00
2006 03 02  1120    53796   40800      0    1.49e+00    0    1.05e+00
2006 03 02  1125    53796   41100      0    1.49e+00    0    1.04e+00
2006 03 02  1130    53796   41400      0    1.49e+00    0    1.04e+00
2006 03 02  1135    53796   41700      0    1.49e+00    0    1.03e+00
2006 03 02  1140    53796   42000      0    1.52e+00    0    1.07e+00
2006 03 02  1145    53796   42300      0    1.53e+00    0    1.07e+00
2006 03 02  1150    53796   42600      0    1.55e+00    0    1.09e+00
2006 03 02  1155    53796   42900      0    1.51e+00    0    1.05e+00
2006 03 02  1200    53796   43200      0    1.50e+00    0    1.05e+00
2006 03 02  1205    53796   43500      0    1.52e+00    0    1.07e+00
2006 03 02  1210    53796   43800      0    1.49e+00    0    1.06e+00
2006 03 02  1215    53796   44100      0    1.50e+00    0    1.05e+00
2006 03 02  1220    53796   44400      0    1.53e+00    0    1.08e+00
2006 03 02  1225    53796   44700      0    1.52e+00    0    1.06e+00
2006 03 02  1230    53796   45000      0    1.51e+00    0    1.06e+00
2006 03 02  1235    53796   45300      0    1.50e+00    0    1.06e+00
2006 03 02  1240    53796   45600      0    1.51e+00    0    1.05e+00
2006 03 02  1245    53796   45900      0    1.51e+00    0    1.06e+00
2006 03 02  1250    53796   46200      0    1.52e+00    0    1.08e+00
2006 03 02  1255    53796   46500      0    1.50e+00    0    1.06e+00
2006 03 02  1300    53796   46800      0    1.49e+00    0    1.04e+00
2006 03 02  1305    53796   47100      0    1.47e+00    0    1.03e+00
2006 03 02  1310    53796   47400      0    1.51e+00    0    1.06e+00
2006 03 02  1315    53796   47700      0    1.50e+00    0    1.06e+00
2006 03 02  1320    53796   48000      0    1.51e+00    0    1.06e+00
2006 03 02  1325    53796   48300      0    1.51e+00    0    1.06e+00
2006 03 02  1330    53796   48600      0    1.50e+00    0    1.06e+00
2006 03 02  1335    53796   48900      0    1.51e+00    0    1.06e+00
2006 03 02  1340    53796   49200      0    1.46e+00    0    1.01e+00
2006 03 02  1345    53796   49500      0    1.54e+00    0    1.08e+00
2006 03 02  1350    53796   49800      0    1.51e+00    0    1.06e+00
2006 03 02  1355    53796   50100      0    1.54e+00    0    1.06e+00
2006 03 02  1400    53796   50400      0    1.50e+00    0    1.06e+00
2006 03 02  1405    53796   50700      0    1.50e+00    0    1.05e+00
2006 03 02  1410    53796   51000      0    1.50e+00    0    1.05e+00
2006 03 02  1415    53796   51300      0    1.55e+00    0    1.09e+00
2006 03 02  1420    53796   51600      0    1.55e+00    0    1.09e+00
2006 03 02  1425    53796   51900      0    1.52e+00    0    1.06e+00
2006 03 02  1430    53796   52200      0    1.54e+00    0    1.08e+00
2006 03 02  1435    53796   52500      0    1.50e+00    0    1.07e+00
2006 03 02  1440    53796   52800      0    1.47e+00    0    1.03e+00
2006 03 02  1445    53796   53100      0    1.47e+00    0    1.03e+00
2006 03 02  1450    53796   53400      0    1.49e+00    0    1.05e+00
2006 03 02  1455    53796   53700      0    1.49e+00    0    1.06e+00
2006 03 02  1500    53796   54000      0    1.49e+00    0    1.05e+00
2006 03 02  1505    53796   54300      0    1.49e+00    0    1.05e+00
2006 03 02  1510    53796   54600      0    1.52e+00    0    1.07e+00
2006 03 02  1515    53796   54900      0    1.50e+00    0    1.07e+00
2006 03 02  1520    53796   55200      0    1.51e+00    0    1.06e+00
2006 03 02  1525    53796   55500      0    1.47e+00    0    1.04e+00
2006 03 02  1530    53796   55800      0    1.48e+00    0    1.05e+00
2006 03 02  1535    53796   56100      0    1.49e+00    0    1.05e+00
2006 03 02  1540    53796   56400      0    1.48e+00    0    1.04e+00
2006 03 02  1545    53796   56700      0    1.51e+00    0    1.06e+00
2006 03 02  1550    53796   57000      0    1.52e+00    0    1.06e+00
2006 03 02  1555    53796   57300      0    1.47e+00    0    1.04e+00
2006 03 02  1600    53796   57600      0    1.49e+00    0    1.06e+00
2006 03 02  1605    53796   57900      0    1.50e+00    0    1.05e+00
2006 03 02  1610    53796   58200      0    1.52e+00    0    1.06e+00
2006 03 02  1615    53796   58500      0    1.51e+00    0    1.07e+00
2006 03 02  1620    53796   58800      0    1.48e+00    0    1.05e+00
2006 03 02  1625    53796   59100      0    1.53e+00    0    1.07e+00
2006 03 02  1630    53796   59400      0    1.49e+00    0    1.05e+00
2006 03 02  1635    53796   59700      0    1.49e+00    0    1.04e+00
2006 03 02  1640    53796   60000      0    1.48e+00    0    1.04e+00
2006 03 02  1645    53796   60300      0    1.48e+00    0    1.03e+00
2006 03 02  1650    53796   60600      0    1.49e+00    0    1.05e+00
2006 03 02  1655    53796   60900      0    1.49e+00    0    1.05e+00
2006 03 02  1700    53796   61200      0    1.49e+00    0    1.05e+00
2006 03 02  1705    53796   61500      0    1.48e+00    0    1.04e+00
2006 03 02  1710    53796   61800      0    1.50e+00    0    1.06e+00
2006 03 02  1715    53796   62100      0    1.48e+00    0    1.03e+00
2006 03 02  1720    53796   62400      0    1.49e+00    0    1.05e+00
2006 03 02  1725    53796   62700      0    1.51e+00    0    1.07e+00
2006 03 02  1730    53796   63000      0    1.50e+00    0    1.05e+00
2006 03 02  1735    53796   63300      0    1.48e+00    0    1.05e+00
2006 03 02  1740    53796   63600      0    1.48e+00    0    1.03e+00
2006 03 02  1745    53796   63900      0    1.53e+00    0    1.09e+00
2006 03 02  1750    53796   64200      0    1.50e+00    0    1.05e+00
2006 03 02  1755    53796   64500      0    1.53e+00    0    1.07e+00
2006 03 02  1800    53796   64800      0    1.50e+00    0    1.05e+00
2006 03 02  1805    53796   65100      0    1.48e+00    0    1.05e+00
2006 03 02  1810    53796   65400      0    1.50e+00    0    1.06e+00
2006 03 02  1815    53796   65700      0    1.49e+00    0    1.03e+00
2006 03 02  1820    53796   66000      0    1.47e+00    0    1.03e+00
2006 03 02  1825    53796   66300      0    1.51e+00    0    1.06e+00
2006 03 02  1830    53796   66600      0    1.50e+00    0    1.05e+00
2006 03 02  1835    53796   66900      0    1.48e+00    0    1.04e+00
2006 03 02  1840    53796   67200      0    1.51e+00    0    1.06e+00
2006 03 02  1845    53796   67500      0    1.48e+00    0    1.04e+00
2006 03 02  1850    53796   67800      0    1.49e+00    0    1.05e+00
2006 03 02  1855    53796   68100      0    1.51e+00    0    1.06e+00
2006 03 02  1900    53796   68400      0    1.48e+00    0    1.05e+00
2006 03 02  1905    53796   68700      0    1.49e+00    0    1.04e+00
2006 03 02  1910    53796   69000      0    1.45e+00    0    1.01e+00
2006 03 02  1915    53796   69300      0    1.50e+00    0    1.05e+00
2006 03 02  1920    53796   69600      0    1.49e+00    0    1.04e+00
2006 03 02  1925    53796   69900      0    1.50e+00    0    1.04e+00
2006 03 02  1930    53796   70200      0    1.51e+00    0    1.06e+00
2006 03 02  1935    53796   70500      0    1.51e+00    0    1.07e+00
2006 03 02  1940    53796   70800      0    1.48e+00    0    1.04e+00
2006 03 02  1945    53796   71100      0    1.51e+00    0    1.07e+00
2006 03 02  1950    53796   71400      0    1.45e+00    0    1.02e+00
2006 03 02  1955    53796   71700      0    1.46e+00    0    1.03e+00
2006 03 02  2000    53796   72000      0    1.47e+00    0    1.04e+00
2006 03 02  2005    53796   72300      0    1.50e+00    0    1.05e+00
2006 03 02  2010    53796   72600      0    1.50e+00    0    1.06e+00
2006 03 02  2015    53796   72900      0    1.53e+00    0    1.06e+00
2006 03 02  2020    53796   73200      0    1.50e+00    0    1.06e+00
2006 03 02  2025    53796   73500      0    1.48e+00    0    1.04e+00
2006 03 02  2030    53796   73800      0    1.52e+00    0    1.07e+00
2006 03 02  2035    53796   74100      0    1.49e+00    0    1.05e+00
2006 03 02  2040    53796   74400      0    1.49e+00    0    1.05e+00
2006 03 02  2045    53796   74700      0    1.52e+00    0    1.08e+00
2006 03 02  2050    53796   75000      0    1.51e+00    0    1.06e+00
2006 03 02  2055    53796   75300      0    1.50e+00    0    1.05e+00
2006 03 02  2100    53796   75600      0    1.51e+00    0    1.07e+00
2006 03 02  2105    53796   75900      0    1.50e+00    0    1.05e+00
2006 03 02  2110    53796   76200      0    1.49e+00    0    1.04e+00
2006 03 02  2115    53796   76500      0    1.48e+00    0    1.05e+00
2006 03 02  2120    53796   76800      0    1.51e+00    0    1.06e+00
2006 03 02  2125    53796   77100      0    1.48e+00    0    1.04e+00
2006 03 02  2130    53796   77400      0    1.53e+00    0    1.08e+00
2006 03 02  2135    53796   77700      0    1.49e+00    0    1.05e+00
2006 03 02  2140    53796   78000      0    1.48e+00    0    1.05e+00
2006 03 02  2145    53796   78300      0    1.50e+00    0    1.05e+00
2006 03 02  2150    53796   78600      0    1.50e+00    0    1.06e+00
2006 03 02  2155    53796   78900      0    1.51e+00    0    1.06e+00
2006 03 02  2200    53796   79200      0    1.50e+00    0    1.06e+00
2006 03 02  2205    53796   79500      0    1.47e+00    0    1.03e+00
2006 03 02  2210    53796   79800      0    1.51e+00    0    1.07e+00
2006 03 02  2215    53796   80100      0    1.50e+00    0    1.06e+00
2006 03 02  2220    53796   80400      0    1.48e+00    0    1.04e+00
2006 03 02  2225    53796   80700      0    1.50e+00    0    1.06e+00
2006 03 02  2230    53796   81000      0    1.51e+00    0    1.06e+00
2006 03 02  2235    53796   81300      0    1.46e+00    0    1.02e+00
2006 03 02  2240    53796   81600      0    1.47e+00    0    1.03e+00
2006 03 02  2245    53796   81900      0    1.50e+00    0    1.05e+00
2006 03 02  2250    53796   82200      0    1.50e+00    0    1.05e+00
2006 03 02  2255    53796   82500      0    1.49e+00    0    1.04e+00
2006 03 02  2300    53796   82800      0    1.57e+00    0    1.10e+00
2006 03 02  2305    53796   83100      0    1.49e+00    0    1.04e+00
2006 03 02  2310    53796   83400      0    1.50e+00    0    1.05e+00
2006 03 02  2315    53796   83700      0    1.45e+00    0    1.02e+00
2006 03 02  2320    53796   84000      0    1.49e+00    0    1.05e+00
2006 03 02  2325    53796   84300      0    1.51e+00    0    1.06e+00
2006 03 02  2330    53796   84600      0    1.47e+00    0    1.04e+00
2006 03 02  2335    53796   84900      0    1.49e+00    0    1.05e+00
2006 03 02  2340    53796   85200      0    1.50e+00    0    1.06e+00
2006 03 02  2345    53796   85500      0    1.48e+00    0    1.04e+00
2006 03 02  2350    53796   85800      0    1.50e+00    0    1.07e+00
2006 03 02  2355    53796   86100      0    1.48e+00    0    1.05e+00
