:Data_list: 20060728_ace_sis_5m.txt
:Created: 2006 Jul 29 0011 UT
# Prepared by the U.S. Dept. of Commerce, NOAA, Space Environment Center.
# Please send comments and suggestions to SEC.Webmaster@noaa.gov 
# 
# Units: proton flux p/cs2-sec-ster
# Status(S): 0 = nominal data, 1 to 8 = bad data record, 9 = no data
# Missing data values: -1.00e+05
# Source: ACE Satellite - Solar Isotope Spectrometer
#
# 5-minute averaged Real-time Integral Flux of High-energy Solar Protons
# 
#                 Modified Seconds
# UT Date   Time   Julian  of the      ---- Integral Proton Flux ----
# YR MO DA  HHMM     Day     Day       S    > 10 MeV    S    > 30 MeV
#--------------------------------------------------------------------
2006 07 28  0000    53944       0      0    1.60e+00    0    1.12e+00
2006 07 28  0005    53944     300      0    1.60e+00    0    1.12e+00
2006 07 28  0010    53944     600      0    1.62e+00    0    1.13e+00
2006 07 28  0015    53944     900      0    1.60e+00    0    1.14e+00
2006 07 28  0020    53944    1200      0    1.56e+00    0    1.10e+00
2006 07 28  0025    53944    1500      0    1.58e+00    0    1.11e+00
2006 07 28  0030    53944    1800      0    1.60e+00    0    1.12e+00
2006 07 28  0035    53944    2100      0    1.61e+00    0    1.12e+00
2006 07 28  0040    53944    2400      0    1.60e+00    0    1.12e+00
2006 07 28  0045    53944    2700      0    1.54e+00    0    1.07e+00
2006 07 28  0050    53944    3000      0    1.60e+00    0    1.11e+00
2006 07 28  0055    53944    3300      0    1.55e+00    0    1.09e+00
2006 07 28  0100    53944    3600      0    1.59e+00    0    1.09e+00
2006 07 28  0105    53944    3900      0    1.63e+00    0    1.15e+00
2006 07 28  0110    53944    4200      0    1.59e+00    0    1.12e+00
2006 07 28  0115    53944    4500      0    1.59e+00    0    1.12e+00
2006 07 28  0120    53944    4800      0    1.60e+00    0    1.13e+00
2006 07 28  0125    53944    5100      0    1.61e+00    0    1.13e+00
2006 07 28  0130    53944    5400      0    1.59e+00    0    1.10e+00
2006 07 28  0135    53944    5700      0    1.57e+00    0    1.10e+00
2006 07 28  0140    53944    6000      0    1.57e+00    0    1.10e+00
2006 07 28  0145    53944    6300      0    1.60e+00    0    1.12e+00
2006 07 28  0150    53944    6600      0    1.59e+00    0    1.11e+00
2006 07 28  0155    53944    6900      0    1.59e+00    0    1.11e+00
2006 07 28  0200    53944    7200      0    1.61e+00    0    1.13e+00
2006 07 28  0205    53944    7500      0    1.58e+00    0    1.09e+00
2006 07 28  0210    53944    7800      0    1.65e+00    0    1.14e+00
2006 07 28  0215    53944    8100      0    1.60e+00    0    1.12e+00
2006 07 28  0220    53944    8400      0    1.60e+00    0    1.12e+00
2006 07 28  0225    53944    8700      0    1.61e+00    0    1.13e+00
2006 07 28  0230    53944    9000      0    1.59e+00    0    1.10e+00
2006 07 28  0235    53944    9300      0    1.58e+00    0    1.11e+00
2006 07 28  0240    53944    9600      0    1.58e+00    0    1.11e+00
2006 07 28  0245    53944    9900      0    1.58e+00    0    1.11e+00
2006 07 28  0250    53944   10200      0    1.60e+00    0    1.12e+00
2006 07 28  0255    53944   10500      0    1.60e+00    0    1.13e+00
2006 07 28  0300    53944   10800      0    1.58e+00    0    1.11e+00
2006 07 28  0305    53944   11100      0    1.60e+00    0    1.12e+00
2006 07 28  0310    53944   11400      0    1.57e+00    0    1.10e+00
2006 07 28  0315    53944   11700      0    1.60e+00    0    1.13e+00
2006 07 28  0320    53944   12000      0    1.61e+00    0    1.13e+00
2006 07 28  0325    53944   12300      0    1.62e+00    0    1.12e+00
2006 07 28  0330    53944   12600      0    1.56e+00    0    1.10e+00
2006 07 28  0335    53944   12900      0    1.61e+00    0    1.12e+00
2006 07 28  0340    53944   13200      0    1.62e+00    0    1.15e+00
2006 07 28  0345    53944   13500      0    1.57e+00    0    1.10e+00
2006 07 28  0350    53944   13800      0    1.54e+00    0    1.10e+00
2006 07 28  0355    53944   14100      0    1.59e+00    0    1.13e+00
2006 07 28  0400    53944   14400      0    1.62e+00    0    1.13e+00
2006 07 28  0405    53944   14700      0    1.64e+00    0    1.15e+00
2006 07 28  0410    53944   15000      0    1.59e+00    0    1.12e+00
2006 07 28  0415    53944   15300      0    1.60e+00    0    1.12e+00
2006 07 28  0420    53944   15600      0    1.62e+00    0    1.14e+00
2006 07 28  0425    53944   15900      0    1.58e+00    0    1.10e+00
2006 07 28  0430    53944   16200      0    1.61e+00    0    1.13e+00
2006 07 28  0435    53944   16500      0    1.62e+00    0    1.14e+00
2006 07 28  0440    53944   16800      0    1.57e+00    0    1.10e+00
2006 07 28  0445    53944   17100      0    1.62e+00    0    1.13e+00
2006 07 28  0450    53944   17400      0    1.61e+00    0    1.14e+00
2006 07 28  0455    53944   17700      0    1.60e+00    0    1.12e+00
2006 07 28  0500    53944   18000      0    1.59e+00    0    1.11e+00
2006 07 28  0505    53944   18300      0    1.57e+00    0    1.09e+00
2006 07 28  0510    53944   18600      0    1.65e+00    0    1.16e+00
2006 07 28  0515    53944   18900      0    1.62e+00    0    1.12e+00
2006 07 28  0520    53944   19200      0    1.62e+00    0    1.14e+00
2006 07 28  0525    53944   19500      0    1.61e+00    0    1.14e+00
2006 07 28  0530    53944   19800      0    1.59e+00    0    1.12e+00
2006 07 28  0535    53944   20100      0    1.64e+00    0    1.15e+00
2006 07 28  0540    53944   20400      0    1.59e+00    0    1.12e+00
2006 07 28  0545    53944   20700      0    1.62e+00    0    1.14e+00
2006 07 28  0550    53944   21000      0    1.61e+00    0    1.13e+00
2006 07 28  0555    53944   21300      0    1.59e+00    0    1.12e+00
2006 07 28  0600    53944   21600      0    1.61e+00    0    1.13e+00
2006 07 28  0605    53944   21900      0    1.60e+00    0    1.12e+00
2006 07 28  0610    53944   22200      0    1.63e+00    0    1.14e+00
2006 07 28  0615    53944   22500      0    1.62e+00    0    1.13e+00
2006 07 28  0620    53944   22800      0    1.61e+00    0    1.13e+00
2006 07 28  0625    53944   23100      0    1.59e+00    0    1.12e+00
2006 07 28  0630    53944   23400      0    1.60e+00    0    1.11e+00
2006 07 28  0635    53944   23700      0    1.61e+00    0    1.13e+00
2006 07 28  0640    53944   24000      0    1.60e+00    0    1.11e+00
2006 07 28  0645    53944   24300      0    1.61e+00    0    1.12e+00
2006 07 28  0650    53944   24600      0    1.63e+00    0    1.15e+00
2006 07 28  0655    53944   24900      0    1.60e+00    0    1.10e+00
2006 07 28  0700    53944   25200      0    1.53e+00    0    1.07e+00
2006 07 28  0705    53944   25500      0    1.57e+00    0    1.10e+00
2006 07 28  0710    53944   25800      0    1.57e+00    0    1.09e+00
2006 07 28  0715    53944   26100      0    1.57e+00    0    1.10e+00
2006 07 28  0720    53944   26400      0    1.63e+00    0    1.13e+00
2006 07 28  0725    53944   26700      0    1.62e+00    0    1.12e+00
2006 07 28  0730    53944   27000      0    1.59e+00    0    1.11e+00
2006 07 28  0735    53944   27300      0    1.62e+00    0    1.13e+00
2006 07 28  0740    53944   27600      0    1.62e+00    0    1.15e+00
2006 07 28  0745    53944   27900      0    1.60e+00    0    1.13e+00
2006 07 28  0750    53944   28200      0    1.64e+00    0    1.16e+00
2006 07 28  0755    53944   28500      0    1.64e+00    0    1.15e+00
2006 07 28  0800    53944   28800      0    1.62e+00    0    1.12e+00
2006 07 28  0805    53944   29100      0    1.65e+00    0    1.17e+00
2006 07 28  0810    53944   29400      0    1.60e+00    0    1.13e+00
2006 07 28  0815    53944   29700      0    1.63e+00    0    1.15e+00
2006 07 28  0820    53944   30000      0    1.64e+00    0    1.15e+00
2006 07 28  0825    53944   30300      0    1.62e+00    0    1.13e+00
2006 07 28  0830    53944   30600      0    1.58e+00    0    1.11e+00
2006 07 28  0835    53944   30900      0    1.65e+00    0    1.16e+00
2006 07 28  0840    53944   31200      0    1.57e+00    0    1.10e+00
2006 07 28  0845    53944   31500      0    1.57e+00    0    1.11e+00
2006 07 28  0850    53944   31800      0    1.61e+00    0    1.12e+00
2006 07 28  0855    53944   32100      0    1.63e+00    0    1.15e+00
2006 07 28  0900    53944   32400      0    1.64e+00    0    1.15e+00
2006 07 28  0905    53944   32700      0    1.62e+00    0    1.13e+00
2006 07 28  0910    53944   33000      0    1.62e+00    0    1.15e+00
2006 07 28  0915    53944   33300      0    1.61e+00    0    1.12e+00
2006 07 28  0920    53944   33600      0    1.60e+00    0    1.11e+00
2006 07 28  0925    53944   33900      0    1.60e+00    0    1.13e+00
2006 07 28  0930    53944   34200      0    1.59e+00    0    1.12e+00
2006 07 28  0935    53944   34500      0    1.66e+00    0    1.17e+00
2006 07 28  0940    53944   34800      0    1.64e+00    0    1.15e+00
2006 07 28  0945    53944   35100      0    1.58e+00    0    1.11e+00
2006 07 28  0950    53944   35400      0    1.60e+00    0    1.12e+00
2006 07 28  0955    53944   35700      0    1.59e+00    0    1.12e+00
2006 07 28  1000    53944   36000      0    1.62e+00    0    1.14e+00
2006 07 28  1005    53944   36300      0    1.60e+00    0    1.11e+00
2006 07 28  1010    53944   36600      0    1.62e+00    0    1.12e+00
2006 07 28  1015    53944   36900      0    1.60e+00    0    1.12e+00
2006 07 28  1020    53944   37200      0    1.60e+00    0    1.13e+00
2006 07 28  1025    53944   37500      0    1.59e+00    0    1.12e+00
2006 07 28  1030    53944   37800      0    1.59e+00    0    1.11e+00
2006 07 28  1035    53944   38100      0    1.63e+00    0    1.14e+00
2006 07 28  1040    53944   38400      0    1.60e+00    0    1.13e+00
2006 07 28  1045    53944   38700      0    1.56e+00    0    1.09e+00
2006 07 28  1050    53944   39000      0    1.61e+00    0    1.12e+00
2006 07 28  1055    53944   39300      0    1.59e+00    0    1.11e+00
2006 07 28  1100    53944   39600      0    1.56e+00    0    1.10e+00
2006 07 28  1105    53944   39900      0    1.58e+00    0    1.12e+00
2006 07 28  1110    53944   40200      0    1.60e+00    0    1.11e+00
2006 07 28  1115    53944   40500      0    1.59e+00    0    1.11e+00
2006 07 28  1120    53944   40800      0    1.61e+00    0    1.14e+00
2006 07 28  1125    53944   41100      0    1.56e+00    0    1.10e+00
2006 07 28  1130    53944   41400      0    1.61e+00    0    1.12e+00
2006 07 28  1135    53944   41700      0    1.60e+00    0    1.13e+00
2006 07 28  1140    53944   42000      0    1.58e+00    0    1.11e+00
2006 07 28  1145    53944   42300      0    1.59e+00    0    1.13e+00
2006 07 28  1150    53944   42600      0    1.57e+00    0    1.08e+00
2006 07 28  1155    53944   42900      0    1.58e+00    0    1.11e+00
2006 07 28  1200    53944   43200      0    1.58e+00    0    1.11e+00
2006 07 28  1205    53944   43500      0    1.60e+00    0    1.12e+00
2006 07 28  1210    53944   43800      0    1.59e+00    0    1.12e+00
2006 07 28  1215    53944   44100      0    1.57e+00    0    1.10e+00
2006 07 28  1220    53944   44400      0    1.59e+00    0    1.10e+00
2006 07 28  1225    53944   44700      0    1.62e+00    0    1.13e+00
2006 07 28  1230    53944   45000      0    1.62e+00    0    1.13e+00
2006 07 28  1235    53944   45300      0    1.57e+00    0    1.10e+00
2006 07 28  1240    53944   45600      0    1.59e+00    0    1.10e+00
2006 07 28  1245    53944   45900      0    1.58e+00    0    1.11e+00
2006 07 28  1250    53944   46200      0    1.63e+00    0    1.15e+00
2006 07 28  1255    53944   46500      0    1.59e+00    0    1.11e+00
2006 07 28  1300    53944   46800      0    1.59e+00    0    1.12e+00
2006 07 28  1305    53944   47100      0    1.61e+00    0    1.14e+00
2006 07 28  1310    53944   47400      0    1.57e+00    0    1.10e+00
2006 07 28  1315    53944   47700      0    1.57e+00    0    1.11e+00
2006 07 28  1320    53944   48000      0    1.59e+00    0    1.12e+00
2006 07 28  1325    53944   48300      0    1.58e+00    0    1.11e+00
2006 07 28  1330    53944   48600      0    1.62e+00    0    1.13e+00
2006 07 28  1335    53944   48900      0    1.61e+00    0    1.13e+00
2006 07 28  1340    53944   49200      0    1.60e+00    0    1.12e+00
2006 07 28  1345    53944   49500      0    1.56e+00    0    1.09e+00
2006 07 28  1350    53944   49800      0    1.63e+00    0    1.14e+00
2006 07 28  1355    53944   50100      0    1.57e+00    0    1.09e+00
2006 07 28  1400    53944   50400      0    1.61e+00    0    1.13e+00
2006 07 28  1405    53944   50700      0    1.60e+00    0    1.12e+00
2006 07 28  1410    53944   51000      0    1.54e+00    0    1.09e+00
2006 07 28  1415    53944   51300      0    1.61e+00    0    1.14e+00
2006 07 28  1420    53944   51600      0    1.56e+00    0    1.10e+00
2006 07 28  1425    53944   51900      0    1.61e+00    0    1.14e+00
2006 07 28  1430    53944   52200      0    1.59e+00    0    1.11e+00
2006 07 28  1435    53944   52500      0    1.62e+00    0    1.14e+00
2006 07 28  1440    53944   52800      0    1.60e+00    0    1.12e+00
2006 07 28  1445    53944   53100      0    1.58e+00    0    1.11e+00
2006 07 28  1450    53944   53400      0    1.59e+00    0    1.12e+00
2006 07 28  1455    53944   53700      0    1.57e+00    0    1.11e+00
2006 07 28  1500    53944   54000      0    1.60e+00    0    1.13e+00
2006 07 28  1505    53944   54300      0    1.60e+00    0    1.13e+00
2006 07 28  1510    53944   54600      0    1.63e+00    0    1.15e+00
2006 07 28  1515    53944   54900      0    1.60e+00    0    1.13e+00
2006 07 28  1520    53944   55200      0    1.58e+00    0    1.11e+00
2006 07 28  1525    53944   55500      0    1.60e+00    0    1.13e+00
2006 07 28  1530    53944   55800      0    1.60e+00    0    1.12e+00
2006 07 28  1535    53944   56100      0    1.58e+00    0    1.11e+00
2006 07 28  1540    53944   56400      0    1.59e+00    0    1.12e+00
2006 07 28  1545    53944   56700      0    1.59e+00    0    1.12e+00
2006 07 28  1550    53944   57000      0    1.61e+00    0    1.13e+00
2006 07 28  1555    53944   57300      0    1.62e+00    0    1.15e+00
2006 07 28  1600    53944   57600      0    1.60e+00    0    1.13e+00
2006 07 28  1605    53944   57900      0    1.62e+00    0    1.14e+00
2006 07 28  1610    53944   58200      0    1.60e+00    0    1.12e+00
2006 07 28  1615    53944   58500      0    1.61e+00    0    1.12e+00
2006 07 28  1620    53944   58800      0    1.63e+00    0    1.15e+00
2006 07 28  1625    53944   59100      0    1.57e+00    0    1.10e+00
2006 07 28  1630    53944   59400      0    1.61e+00    0    1.13e+00
2006 07 28  1635    53944   59700      0    1.64e+00    0    1.15e+00
2006 07 28  1640    53944   60000      0    1.61e+00    0    1.14e+00
2006 07 28  1645    53944   60300      0    1.63e+00    0    1.14e+00
2006 07 28  1650    53944   60600      0    1.61e+00    0    1.12e+00
2006 07 28  1655    53944   60900      0    1.62e+00    0    1.14e+00
2006 07 28  1700    53944   61200      0    1.56e+00    0    1.09e+00
2006 07 28  1705    53944   61500      0    1.62e+00    0    1.14e+00
2006 07 28  1710    53944   61800      0    1.63e+00    0    1.14e+00
2006 07 28  1715    53944   62100      0    1.63e+00    0    1.14e+00
2006 07 28  1720    53944   62400      0    1.61e+00    0    1.13e+00
2006 07 28  1725    53944   62700      0    1.60e+00    0    1.12e+00
2006 07 28  1730    53944   63000      0    1.64e+00    0    1.15e+00
2006 07 28  1735    53944   63300      0    1.59e+00    0    1.11e+00
2006 07 28  1740    53944   63600      0    1.61e+00    0    1.13e+00
2006 07 28  1745    53944   63900      0    1.60e+00    0    1.11e+00
2006 07 28  1750    53944   64200      0    1.64e+00    0    1.14e+00
2006 07 28  1755    53944   64500      0    1.61e+00    0    1.12e+00
2006 07 28  1800    53944   64800      0    1.62e+00    0    1.14e+00
2006 07 28  1805    53944   65100      0    1.58e+00    0    1.11e+00
2006 07 28  1810    53944   65400      0    1.62e+00    0    1.13e+00
2006 07 28  1815    53944   65700      0    1.63e+00    0    1.14e+00
2006 07 28  1820    53944   66000      0    1.59e+00    0    1.11e+00
2006 07 28  1825    53944   66300      0    1.60e+00    0    1.12e+00
2006 07 28  1830    53944   66600      0    1.63e+00    0    1.15e+00
2006 07 28  1835    53944   66900      0    1.64e+00    0    1.15e+00
2006 07 28  1840    53944   67200      0    1.60e+00    0    1.12e+00
2006 07 28  1845    53944   67500      0    1.58e+00    0    1.10e+00
2006 07 28  1850    53944   67800      0    1.62e+00    0    1.14e+00
2006 07 28  1855    53944   68100      0    1.58e+00    0    1.10e+00
2006 07 28  1900    53944   68400      0    1.62e+00    0    1.14e+00
2006 07 28  1905    53944   68700      0    1.62e+00    0    1.14e+00
2006 07 28  1910    53944   69000      0    1.62e+00    0    1.14e+00
2006 07 28  1915    53944   69300      0    1.57e+00    0    1.10e+00
2006 07 28  1920    53944   69600      0    1.59e+00    0    1.11e+00
2006 07 28  1925    53944   69900      0    1.59e+00    0    1.12e+00
2006 07 28  1930    53944   70200      0    1.61e+00    0    1.13e+00
2006 07 28  1935    53944   70500      0    1.62e+00    0    1.13e+00
2006 07 28  1940    53944   70800      0    1.61e+00    0    1.14e+00
2006 07 28  1945    53944   71100      0    1.60e+00    0    1.13e+00
2006 07 28  1950    53944   71400      0    1.62e+00    0    1.14e+00
2006 07 28  1955    53944   71700      0    1.62e+00    0    1.13e+00
2006 07 28  2000    53944   72000      0    1.61e+00    0    1.12e+00
2006 07 28  2005    53944   72300      0    1.60e+00    0    1.13e+00
2006 07 28  2010    53944   72600      0    1.62e+00    0    1.12e+00
2006 07 28  2015    53944   72900      0    1.60e+00    0    1.11e+00
2006 07 28  2020    53944   73200      0    1.59e+00    0    1.12e+00
2006 07 28  2025    53944   73500      0    1.64e+00    0    1.14e+00
2006 07 28  2030    53944   73800      0    1.62e+00    0    1.12e+00
2006 07 28  2035    53944   74100      0    1.58e+00    0    1.10e+00
2006 07 28  2040    53944   74400      0    1.61e+00    0    1.11e+00
2006 07 28  2045    53944   74700      0    1.60e+00    0    1.12e+00
2006 07 28  2050    53944   75000      0    1.63e+00    0    1.15e+00
2006 07 28  2055    53944   75300      0    1.61e+00    0    1.12e+00
2006 07 28  2100    53944   75600      0    1.60e+00    0    1.13e+00
2006 07 28  2105    53944   75900      0    1.61e+00    0    1.12e+00
2006 07 28  2110    53944   76200      0    1.62e+00    0    1.13e+00
2006 07 28  2115    53944   76500      0    1.62e+00    0    1.13e+00
2006 07 28  2120    53944   76800      0    1.63e+00    0    1.14e+00
2006 07 28  2125    53944   77100      0    1.61e+00    0    1.13e+00
2006 07 28  2130    53944   77400      0    1.53e+00    0    1.07e+00
2006 07 28  2135    53944   77700      0    1.62e+00    0    1.14e+00
2006 07 28  2140    53944   78000      0    1.61e+00    0    1.12e+00
2006 07 28  2145    53944   78300      0    1.60e+00    0    1.14e+00
2006 07 28  2150    53944   78600      0    1.61e+00    0    1.13e+00
2006 07 28  2155    53944   78900      0    1.59e+00    0    1.11e+00
2006 07 28  2200    53944   79200      0    1.59e+00    0    1.12e+00
2006 07 28  2205    53944   79500      0    1.58e+00    0    1.11e+00
2006 07 28  2210    53944   79800      0    1.61e+00    0    1.12e+00
2006 07 28  2215    53944   80100      0    1.63e+00    0    1.14e+00
2006 07 28  2220    53944   80400      0    1.60e+00    0    1.13e+00
2006 07 28  2225    53944   80700      0    1.60e+00    0    1.12e+00
2006 07 28  2230    53944   81000      0    1.65e+00    0    1.16e+00
2006 07 28  2235    53944   81300      0    1.62e+00    0    1.14e+00
2006 07 28  2240    53944   81600      0    1.61e+00    0    1.12e+00
2006 07 28  2245    53944   81900      0    1.57e+00    0    1.10e+00
2006 07 28  2250    53944   82200      0    1.62e+00    0    1.13e+00
2006 07 28  2255    53944   82500      0    1.61e+00    0    1.14e+00
2006 07 28  2300    53944   82800      0    1.63e+00    0    1.15e+00
2006 07 28  2305    53944   83100      0    1.58e+00    0    1.11e+00
2006 07 28  2310    53944   83400      0    1.62e+00    0    1.14e+00
2006 07 28  2315    53944   83700      0    1.62e+00    0    1.14e+00
2006 07 28  2320    53944   84000      0    1.60e+00    0    1.12e+00
2006 07 28  2325    53944   84300      0    1.63e+00    0    1.14e+00
2006 07 28  2330    53944   84600      0    1.64e+00    0    1.14e+00
2006 07 28  2335    53944   84900      0    1.58e+00    0    1.10e+00
2006 07 28  2340    53944   85200      0    1.64e+00    0    1.15e+00
2006 07 28  2345    53944   85500      0    1.60e+00    0    1.13e+00
2006 07 28  2350    53944   85800      0    1.62e+00    0    1.12e+00
2006 07 28  2355    53944   86100      0    1.61e+00    0    1.13e+00
