:Data_list: 20060603_ace_sis_5m.txt
:Created: 2006 Jun 04 0011 UT
# Prepared by the U.S. Dept. of Commerce, NOAA, Space Environment Center.
# Please send comments and suggestions to SEC.Webmaster@noaa.gov 
# 
# Units: proton flux p/cs2-sec-ster
# Status(S): 0 = nominal data, 1 to 8 = bad data record, 9 = no data
# Missing data values: -1.00e+05
# Source: ACE Satellite - Solar Isotope Spectrometer
#
# 5-minute averaged Real-time Integral Flux of High-energy Solar Protons
# 
#                 Modified Seconds
# UT Date   Time   Julian  of the      ---- Integral Proton Flux ----
# YR MO DA  HHMM     Day     Day       S    > 10 MeV    S    > 30 MeV
#--------------------------------------------------------------------
2006 06 03  0000    53889       0      0    1.63e+00    0    1.12e+00
2006 06 03  0005    53889     300      0    1.58e+00    0    1.10e+00
2006 06 03  0010    53889     600      0    1.64e+00    0    1.16e+00
2006 06 03  0015    53889     900      0    1.63e+00    0    1.14e+00
2006 06 03  0020    53889    1200      0    1.60e+00    0    1.11e+00
2006 06 03  0025    53889    1500      0    1.60e+00    0    1.12e+00
2006 06 03  0030    53889    1800      0    1.62e+00    0    1.13e+00
2006 06 03  0035    53889    2100      0    1.58e+00    0    1.11e+00
2006 06 03  0040    53889    2400      0    1.61e+00    0    1.13e+00
2006 06 03  0045    53889    2700      0    1.63e+00    0    1.14e+00
2006 06 03  0050    53889    3000      0    1.65e+00    0    1.16e+00
2006 06 03  0055    53889    3300      0    1.67e+00    0    1.17e+00
2006 06 03  0100    53889    3600      0    1.63e+00    0    1.14e+00
2006 06 03  0105    53889    3900      0    1.61e+00    0    1.13e+00
2006 06 03  0110    53889    4200      0    1.65e+00    0    1.16e+00
2006 06 03  0115    53889    4500      0    1.63e+00    0    1.14e+00
2006 06 03  0120    53889    4800      0    1.62e+00    0    1.13e+00
2006 06 03  0125    53889    5100      0    1.60e+00    0    1.13e+00
2006 06 03  0130    53889    5400      0    1.59e+00    0    1.11e+00
2006 06 03  0135    53889    5700      0    1.64e+00    0    1.15e+00
2006 06 03  0140    53889    6000      0    1.64e+00    0    1.15e+00
2006 06 03  0145    53889    6300      0    1.63e+00    0    1.13e+00
2006 06 03  0150    53889    6600      0    1.62e+00    0    1.13e+00
2006 06 03  0155    53889    6900      0    1.58e+00    0    1.11e+00
2006 06 03  0200    53889    7200      0    1.59e+00    0    1.13e+00
2006 06 03  0205    53889    7500      0    1.62e+00    0    1.13e+00
2006 06 03  0210    53889    7800      0    1.65e+00    0    1.17e+00
2006 06 03  0215    53889    8100      0    1.59e+00    0    1.12e+00
2006 06 03  0220    53889    8400      0    1.62e+00    0    1.13e+00
2006 06 03  0225    53889    8700      0    1.61e+00    0    1.14e+00
2006 06 03  0230    53889    9000      0    1.62e+00    0    1.12e+00
2006 06 03  0235    53889    9300      0    1.62e+00    0    1.15e+00
2006 06 03  0240    53889    9600      0    1.64e+00    0    1.16e+00
2006 06 03  0245    53889    9900      0    1.60e+00    0    1.12e+00
2006 06 03  0250    53889   10200      0    1.62e+00    0    1.14e+00
2006 06 03  0255    53889   10500      0    1.61e+00    0    1.14e+00
2006 06 03  0300    53889   10800      0    1.62e+00    0    1.14e+00
2006 06 03  0305    53889   11100      0    1.61e+00    0    1.12e+00
2006 06 03  0310    53889   11400      0    1.64e+00    0    1.15e+00
2006 06 03  0315    53889   11700      0    1.63e+00    0    1.14e+00
2006 06 03  0320    53889   12000      0    1.62e+00    0    1.14e+00
2006 06 03  0325    53889   12300      0    1.60e+00    0    1.13e+00
2006 06 03  0330    53889   12600      0    1.64e+00    0    1.14e+00
2006 06 03  0335    53889   12900      0    1.63e+00    0    1.15e+00
2006 06 03  0340    53889   13200      0    1.63e+00    0    1.14e+00
2006 06 03  0345    53889   13500      0    1.62e+00    0    1.14e+00
2006 06 03  0350    53889   13800      0    1.63e+00    0    1.13e+00
2006 06 03  0355    53889   14100      0    1.62e+00    0    1.14e+00
2006 06 03  0400    53889   14400      0    1.63e+00    0    1.15e+00
2006 06 03  0405    53889   14700      0    1.63e+00    0    1.15e+00
2006 06 03  0410    53889   15000      0    1.69e+00    0    1.18e+00
2006 06 03  0415    53889   15300      0    1.60e+00    0    1.11e+00
2006 06 03  0420    53889   15600      0    1.58e+00    0    1.11e+00
2006 06 03  0425    53889   15900      0    1.64e+00    0    1.14e+00
2006 06 03  0430    53889   16200      0    1.64e+00    0    1.14e+00
2006 06 03  0435    53889   16500      0    1.63e+00    0    1.14e+00
2006 06 03  0440    53889   16800      0    1.62e+00    0    1.14e+00
2006 06 03  0445    53889   17100      0    1.56e+00    0    1.09e+00
2006 06 03  0450    53889   17400      0    1.60e+00    0    1.13e+00
2006 06 03  0455    53889   17700      0    1.62e+00    0    1.14e+00
2006 06 03  0500    53889   18000      0    1.59e+00    0    1.12e+00
2006 06 03  0505    53889   18300      0    1.60e+00    0    1.12e+00
2006 06 03  0510    53889   18600      0    1.62e+00    0    1.14e+00
2006 06 03  0515    53889   18900      0    1.61e+00    0    1.12e+00
2006 06 03  0520    53889   19200      0    1.59e+00    0    1.12e+00
2006 06 03  0525    53889   19500      0    1.60e+00    0    1.12e+00
2006 06 03  0530    53889   19800      0    1.61e+00    0    1.12e+00
2006 06 03  0535    53889   20100      0    1.63e+00    0    1.14e+00
2006 06 03  0540    53889   20400      0    1.64e+00    0    1.14e+00
2006 06 03  0545    53889   20700      0    1.61e+00    0    1.12e+00
2006 06 03  0550    53889   21000      0    1.60e+00    0    1.11e+00
2006 06 03  0555    53889   21300      0    1.61e+00    0    1.12e+00
2006 06 03  0600    53889   21600      0    1.63e+00    0    1.15e+00
2006 06 03  0605    53889   21900      0    1.62e+00    0    1.14e+00
2006 06 03  0610    53889   22200      0    1.61e+00    0    1.13e+00
2006 06 03  0615    53889   22500      0    1.57e+00    0    1.09e+00
2006 06 03  0620    53889   22800      0    1.57e+00    0    1.10e+00
2006 06 03  0625    53889   23100      0    1.58e+00    0    1.11e+00
2006 06 03  0630    53889   23400      0    1.60e+00    0    1.14e+00
2006 06 03  0635    53889   23700      0    1.64e+00    0    1.15e+00
2006 06 03  0640    53889   24000      0    1.61e+00    0    1.13e+00
2006 06 03  0645    53889   24300      0    1.61e+00    0    1.14e+00
2006 06 03  0650    53889   24600      0    1.62e+00    0    1.13e+00
2006 06 03  0655    53889   24900      0    1.61e+00    0    1.13e+00
2006 06 03  0700    53889   25200      0    1.59e+00    0    1.11e+00
2006 06 03  0705    53889   25500      0    1.63e+00    0    1.14e+00
2006 06 03  0710    53889   25800      0    1.64e+00    0    1.15e+00
2006 06 03  0715    53889   26100      0    1.60e+00    0    1.12e+00
2006 06 03  0720    53889   26400      0    1.62e+00    0    1.14e+00
2006 06 03  0725    53889   26700      0    1.62e+00    0    1.13e+00
2006 06 03  0730    53889   27000      0    1.62e+00    0    1.14e+00
2006 06 03  0735    53889   27300      0    1.62e+00    0    1.14e+00
2006 06 03  0740    53889   27600      0    1.64e+00    0    1.15e+00
2006 06 03  0745    53889   27900      0    1.60e+00    0    1.12e+00
2006 06 03  0750    53889   28200      0    1.62e+00    0    1.13e+00
2006 06 03  0755    53889   28500      0    1.58e+00    0    1.10e+00
2006 06 03  0800    53889   28800      0    1.62e+00    0    1.14e+00
2006 06 03  0805    53889   29100      0    1.63e+00    0    1.14e+00
2006 06 03  0810    53889   29400      0    1.61e+00    0    1.13e+00
2006 06 03  0815    53889   29700      0    1.60e+00    0    1.13e+00
2006 06 03  0820    53889   30000      0    1.61e+00    0    1.13e+00
2006 06 03  0825    53889   30300      0    1.61e+00    0    1.14e+00
2006 06 03  0830    53889   30600      0    1.64e+00    0    1.14e+00
2006 06 03  0835    53889   30900      0    1.59e+00    0    1.11e+00
2006 06 03  0840    53889   31200      0    1.62e+00    0    1.14e+00
2006 06 03  0845    53889   31500      0    1.59e+00    0    1.13e+00
2006 06 03  0850    53889   31800      0    1.58e+00    0    1.12e+00
2006 06 03  0855    53889   32100      0    1.63e+00    0    1.14e+00
2006 06 03  0900    53889   32400      0    1.61e+00    0    1.12e+00
2006 06 03  0905    53889   32700      0    1.63e+00    0    1.13e+00
2006 06 03  0910    53889   33000      0    1.61e+00    0    1.13e+00
2006 06 03  0915    53889   33300      0    1.64e+00    0    1.14e+00
2006 06 03  0920    53889   33600      0    1.64e+00    0    1.17e+00
2006 06 03  0925    53889   33900      0    1.59e+00    0    1.12e+00
2006 06 03  0930    53889   34200      0    1.62e+00    0    1.13e+00
2006 06 03  0935    53889   34500      0    1.60e+00    0    1.12e+00
2006 06 03  0940    53889   34800      0    1.63e+00    0    1.14e+00
2006 06 03  0945    53889   35100      0    1.62e+00    0    1.14e+00
2006 06 03  0950    53889   35400      0    1.63e+00    0    1.14e+00
2006 06 03  0955    53889   35700      0    1.64e+00    0    1.14e+00
2006 06 03  1000    53889   36000      0    1.61e+00    0    1.13e+00
2006 06 03  1005    53889   36300      0    1.61e+00    0    1.14e+00
2006 06 03  1010    53889   36600      0    1.59e+00    0    1.11e+00
2006 06 03  1015    53889   36900      0    1.62e+00    0    1.15e+00
2006 06 03  1020    53889   37200      0    1.52e+00    0    1.06e+00
2006 06 03  1025    53889   37500      0    1.60e+00    0    1.12e+00
2006 06 03  1030    53889   37800      0    1.63e+00    0    1.14e+00
2006 06 03  1035    53889   38100      0    1.62e+00    0    1.12e+00
2006 06 03  1040    53889   38400      0    1.63e+00    0    1.15e+00
2006 06 03  1045    53889   38700      0    1.62e+00    0    1.14e+00
2006 06 03  1050    53889   39000      0    1.60e+00    0    1.12e+00
2006 06 03  1055    53889   39300      0    1.60e+00    0    1.12e+00
2006 06 03  1100    53889   39600      0    1.63e+00    0    1.14e+00
2006 06 03  1105    53889   39900      0    1.61e+00    0    1.13e+00
2006 06 03  1110    53889   40200      0    1.60e+00    0    1.12e+00
2006 06 03  1115    53889   40500      0    1.64e+00    0    1.14e+00
2006 06 03  1120    53889   40800      0    1.61e+00    0    1.13e+00
2006 06 03  1125    53889   41100      0    1.60e+00    0    1.13e+00
2006 06 03  1130    53889   41400      0    1.61e+00    0    1.13e+00
2006 06 03  1135    53889   41700      0    1.60e+00    0    1.12e+00
2006 06 03  1140    53889   42000      0    1.61e+00    0    1.12e+00
2006 06 03  1145    53889   42300      0    1.64e+00    0    1.16e+00
2006 06 03  1150    53889   42600      0    1.64e+00    0    1.15e+00
2006 06 03  1155    53889   42900      0    1.63e+00    0    1.13e+00
2006 06 03  1200    53889   43200      0    1.65e+00    0    1.16e+00
2006 06 03  1205    53889   43500      0    1.63e+00    0    1.13e+00
2006 06 03  1210    53889   43800      0    1.63e+00    0    1.14e+00
2006 06 03  1215    53889   44100      0    1.64e+00    0    1.16e+00
2006 06 03  1220    53889   44400      0    1.60e+00    0    1.12e+00
2006 06 03  1225    53889   44700      0    1.60e+00    0    1.12e+00
2006 06 03  1230    53889   45000      0    1.59e+00    0    1.13e+00
2006 06 03  1235    53889   45300      0    1.61e+00    0    1.13e+00
2006 06 03  1240    53889   45600      0    1.61e+00    0    1.14e+00
2006 06 03  1245    53889   45900      0    1.59e+00    0    1.12e+00
2006 06 03  1250    53889   46200      0    1.58e+00    0    1.11e+00
2006 06 03  1255    53889   46500      0    1.57e+00    0    1.11e+00
2006 06 03  1300    53889   46800      0    1.60e+00    0    1.12e+00
2006 06 03  1305    53889   47100      0    1.61e+00    0    1.13e+00
2006 06 03  1310    53889   47400      0    1.61e+00    0    1.12e+00
2006 06 03  1315    53889   47700      0    1.61e+00    0    1.12e+00
2006 06 03  1320    53889   48000      0    1.60e+00    0    1.13e+00
2006 06 03  1325    53889   48300      0    1.61e+00    0    1.14e+00
2006 06 03  1330    53889   48600      0    1.62e+00    0    1.15e+00
2006 06 03  1335    53889   48900      0    1.66e+00    0    1.17e+00
2006 06 03  1340    53889   49200      0    1.62e+00    0    1.15e+00
2006 06 03  1345    53889   49500      0    1.62e+00    0    1.14e+00
2006 06 03  1350    53889   49800      0    1.62e+00    0    1.13e+00
2006 06 03  1355    53889   50100      0    1.64e+00    0    1.15e+00
2006 06 03  1400    53889   50400      0    1.67e+00    0    1.16e+00
2006 06 03  1405    53889   50700      0    1.64e+00    0    1.15e+00
2006 06 03  1410    53889   51000      0    1.61e+00    0    1.13e+00
2006 06 03  1415    53889   51300      0    1.61e+00    0    1.11e+00
2006 06 03  1420    53889   51600      0    1.62e+00    0    1.13e+00
2006 06 03  1425    53889   51900      0    1.61e+00    0    1.13e+00
2006 06 03  1430    53889   52200      0    1.63e+00    0    1.14e+00
2006 06 03  1435    53889   52500      0    1.59e+00    0    1.11e+00
2006 06 03  1440    53889   52800      0    1.61e+00    0    1.14e+00
2006 06 03  1445    53889   53100      0    1.62e+00    0    1.13e+00
2006 06 03  1450    53889   53400      0    1.64e+00    0    1.16e+00
2006 06 03  1455    53889   53700      0    1.60e+00    0    1.14e+00
2006 06 03  1500    53889   54000      0    1.60e+00    0    1.13e+00
2006 06 03  1505    53889   54300      0    1.62e+00    0    1.14e+00
2006 06 03  1510    53889   54600      0    1.66e+00    0    1.18e+00
2006 06 03  1515    53889   54900      0    1.67e+00    0    1.18e+00
2006 06 03  1520    53889   55200      0    1.63e+00    0    1.15e+00
2006 06 03  1525    53889   55500      0    1.61e+00    0    1.14e+00
2006 06 03  1530    53889   55800      0    1.63e+00    0    1.14e+00
2006 06 03  1535    53889   56100      0    1.63e+00    0    1.14e+00
2006 06 03  1540    53889   56400      0    1.62e+00    0    1.14e+00
2006 06 03  1545    53889   56700      0    1.64e+00    0    1.16e+00
2006 06 03  1550    53889   57000      0    1.61e+00    0    1.12e+00
2006 06 03  1555    53889   57300      0    1.59e+00    0    1.11e+00
2006 06 03  1600    53889   57600      0    1.64e+00    0    1.15e+00
2006 06 03  1605    53889   57900      0    1.61e+00    0    1.14e+00
2006 06 03  1610    53889   58200      0    1.63e+00    0    1.15e+00
2006 06 03  1615    53889   58500      0    1.62e+00    0    1.13e+00
2006 06 03  1620    53889   58800      0    1.66e+00    0    1.17e+00
2006 06 03  1625    53889   59100      0    1.64e+00    0    1.15e+00
2006 06 03  1630    53889   59400      0    1.61e+00    0    1.13e+00
2006 06 03  1635    53889   59700      0    1.62e+00    0    1.12e+00
2006 06 03  1640    53889   60000      0    1.59e+00    0    1.11e+00
2006 06 03  1645    53889   60300      0    1.65e+00    0    1.15e+00
2006 06 03  1650    53889   60600      0    1.60e+00    0    1.11e+00
2006 06 03  1655    53889   60900      0    1.64e+00    0    1.17e+00
2006 06 03  1700    53889   61200      0    1.65e+00    0    1.14e+00
2006 06 03  1705    53889   61500      0    1.62e+00    0    1.14e+00
2006 06 03  1710    53889   61800      0    1.60e+00    0    1.12e+00
2006 06 03  1715    53889   62100      0    1.64e+00    0    1.16e+00
2006 06 03  1720    53889   62400      0    1.60e+00    0    1.12e+00
2006 06 03  1725    53889   62700      0    1.63e+00    0    1.14e+00
2006 06 03  1730    53889   63000      0    1.63e+00    0    1.15e+00
2006 06 03  1735    53889   63300      0    1.62e+00    0    1.14e+00
2006 06 03  1740    53889   63600      0    1.64e+00    0    1.16e+00
2006 06 03  1745    53889   63900      0    1.63e+00    0    1.14e+00
2006 06 03  1750    53889   64200      0    1.65e+00    0    1.16e+00
2006 06 03  1755    53889   64500      0    1.64e+00    0    1.15e+00
2006 06 03  1800    53889   64800      0    1.61e+00    0    1.12e+00
2006 06 03  1805    53889   65100      0    1.61e+00    0    1.13e+00
2006 06 03  1810    53889   65400      0    1.59e+00    0    1.12e+00
2006 06 03  1815    53889   65700      0    1.66e+00    0    1.17e+00
2006 06 03  1820    53889   66000      0    1.64e+00    0    1.15e+00
2006 06 03  1825    53889   66300      0    1.66e+00    0    1.17e+00
2006 06 03  1830    53889   66600      0    1.62e+00    0    1.15e+00
2006 06 03  1835    53889   66900      0    1.59e+00    0    1.13e+00
2006 06 03  1840    53889   67200      0    1.64e+00    0    1.14e+00
2006 06 03  1845    53889   67500      0    1.62e+00    0    1.14e+00
2006 06 03  1850    53889   67800      0    1.64e+00    0    1.16e+00
2006 06 03  1855    53889   68100      0    1.65e+00    0    1.15e+00
2006 06 03  1900    53889   68400      0    1.54e+00    0    1.08e+00
2006 06 03  1905    53889   68700      0    1.63e+00    0    1.14e+00
2006 06 03  1910    53889   69000      0    1.63e+00    0    1.14e+00
2006 06 03  1915    53889   69300      0    1.66e+00    0    1.16e+00
2006 06 03  1920    53889   69600      0    1.65e+00    0    1.15e+00
2006 06 03  1925    53889   69900      0    1.63e+00    0    1.14e+00
2006 06 03  1930    53889   70200      0    1.62e+00    0    1.12e+00
2006 06 03  1935    53889   70500      0    1.62e+00    0    1.14e+00
2006 06 03  1940    53889   70800      0    1.78e+00    0    1.29e+00
2006 06 03  1945    53889   71100      0    1.62e+00    0    1.13e+00
2006 06 03  1950    53889   71400      0    1.65e+00    0    1.17e+00
2006 06 03  1955    53889   71700      0    1.64e+00    0    1.15e+00
2006 06 03  2000    53889   72000      0    1.62e+00    0    1.13e+00
2006 06 03  2005    53889   72300      0    1.64e+00    0    1.16e+00
2006 06 03  2010    53889   72600      0    1.66e+00    0    1.14e+00
2006 06 03  2015    53889   72900      0    1.60e+00    0    1.14e+00
2006 06 03  2020    53889   73200      0    1.64e+00    0    1.15e+00
2006 06 03  2025    53889   73500      0    1.60e+00    0    1.12e+00
2006 06 03  2030    53889   73800      0    1.64e+00    0    1.15e+00
2006 06 03  2035    53889   74100      0    1.64e+00    0    1.16e+00
2006 06 03  2040    53889   74400      0    1.62e+00    0    1.14e+00
2006 06 03  2045    53889   74700      0    1.62e+00    0    1.13e+00
2006 06 03  2050    53889   75000      0    1.62e+00    0    1.15e+00
2006 06 03  2055    53889   75300      0    1.61e+00    0    1.13e+00
2006 06 03  2100    53889   75600      0    1.63e+00    0    1.16e+00
2006 06 03  2105    53889   75900      0    1.63e+00    0    1.15e+00
2006 06 03  2110    53889   76200      0    1.65e+00    0    1.16e+00
2006 06 03  2115    53889   76500      0    1.65e+00    0    1.14e+00
2006 06 03  2120    53889   76800      0    1.63e+00    0    1.13e+00
2006 06 03  2125    53889   77100      0    1.64e+00    0    1.15e+00
2006 06 03  2130    53889   77400      0    1.61e+00    0    1.14e+00
2006 06 03  2135    53889   77700      0    1.65e+00    0    1.16e+00
2006 06 03  2140    53889   78000      0    1.59e+00    0    1.11e+00
2006 06 03  2145    53889   78300      0    1.66e+00    0    1.17e+00
2006 06 03  2150    53889   78600      0    1.64e+00    0    1.14e+00
2006 06 03  2155    53889   78900      0    1.63e+00    0    1.14e+00
2006 06 03  2200    53889   79200      0    1.62e+00    0    1.13e+00
2006 06 03  2205    53889   79500      0    1.60e+00    0    1.13e+00
2006 06 03  2210    53889   79800      0    1.65e+00    0    1.15e+00
2006 06 03  2215    53889   80100      0    1.63e+00    0    1.14e+00
2006 06 03  2220    53889   80400      0    1.60e+00    0    1.13e+00
2006 06 03  2225    53889   80700      0    1.64e+00    0    1.15e+00
2006 06 03  2230    53889   81000      0    1.64e+00    0    1.15e+00
2006 06 03  2235    53889   81300      0    1.62e+00    0    1.14e+00
2006 06 03  2240    53889   81600      0    1.61e+00    0    1.14e+00
2006 06 03  2245    53889   81900      0    1.59e+00    0    1.11e+00
2006 06 03  2250    53889   82200      0    1.65e+00    0    1.15e+00
2006 06 03  2255    53889   82500      0    1.64e+00    0    1.15e+00
2006 06 03  2300    53889   82800      0    1.62e+00    0    1.14e+00
2006 06 03  2305    53889   83100      0    1.61e+00    0    1.11e+00
2006 06 03  2310    53889   83400      0    1.64e+00    0    1.14e+00
2006 06 03  2315    53889   83700      0    1.61e+00    0    1.13e+00
2006 06 03  2320    53889   84000      0    1.64e+00    0    1.13e+00
2006 06 03  2325    53889   84300      0    1.64e+00    0    1.14e+00
2006 06 03  2330    53889   84600      0    1.61e+00    0    1.13e+00
2006 06 03  2335    53889   84900      0    1.66e+00    0    1.16e+00
2006 06 03  2340    53889   85200      0    1.65e+00    0    1.16e+00
2006 06 03  2345    53889   85500      0    1.62e+00    0    1.13e+00
2006 06 03  2350    53889   85800      0    1.62e+00    0    1.14e+00
2006 06 03  2355    53889   86100      0    1.65e+00    0    1.16e+00
