:Data_list: 20060408_ace_sis_5m.txt
:Created: 2006 Apr 09 0011 UT
# Prepared by the U.S. Dept. of Commerce, NOAA, Space Environment Center.
# Please send comments and suggestions to SEC.Webmaster@noaa.gov 
# 
# Units: proton flux p/cs2-sec-ster
# Status(S): 0 = nominal data, 1 to 8 = bad data record, 9 = no data
# Missing data values: -1.00e+05
# Source: ACE Satellite - Solar Isotope Spectrometer
#
# 5-minute averaged Real-time Integral Flux of High-energy Solar Protons
# 
#                 Modified Seconds
# UT Date   Time   Julian  of the      ---- Integral Proton Flux ----
# YR MO DA  HHMM     Day     Day       S    > 10 MeV    S    > 30 MeV
#--------------------------------------------------------------------
2006 04 08  0000    53833       0      0    1.57e+00    0    1.11e+00
2006 04 08  0005    53833     300      0    1.55e+00    0    1.09e+00
2006 04 08  0010    53833     600      0    1.56e+00    0    1.10e+00
2006 04 08  0015    53833     900      0    1.56e+00    0    1.11e+00
2006 04 08  0020    53833    1200      0    1.55e+00    0    1.09e+00
2006 04 08  0025    53833    1500      0    1.58e+00    0    1.10e+00
2006 04 08  0030    53833    1800      0    1.56e+00    0    1.10e+00
2006 04 08  0035    53833    2100      0    1.57e+00    0    1.10e+00
2006 04 08  0040    53833    2400      0    1.59e+00    0    1.12e+00
2006 04 08  0045    53833    2700      0    1.54e+00    0    1.08e+00
2006 04 08  0050    53833    3000      0    1.57e+00    0    1.11e+00
2006 04 08  0055    53833    3300      0    1.56e+00    0    1.10e+00
2006 04 08  0100    53833    3600      0    1.58e+00    0    1.10e+00
2006 04 08  0105    53833    3900      0    1.60e+00    0    1.12e+00
2006 04 08  0110    53833    4200      0    1.55e+00    0    1.09e+00
2006 04 08  0115    53833    4500      0    1.54e+00    0    1.08e+00
2006 04 08  0120    53833    4800      0    1.57e+00    0    1.12e+00
2006 04 08  0125    53833    5100      0    1.55e+00    0    1.08e+00
2006 04 08  0130    53833    5400      0    1.59e+00    0    1.12e+00
2006 04 08  0135    53833    5700      0    1.54e+00    0    1.08e+00
2006 04 08  0140    53833    6000      0    1.55e+00    0    1.09e+00
2006 04 08  0145    53833    6300      0    1.56e+00    0    1.09e+00
2006 04 08  0150    53833    6600      0    1.55e+00    0    1.08e+00
2006 04 08  0155    53833    6900      0    1.56e+00    0    1.09e+00
2006 04 08  0200    53833    7200      0    1.56e+00    0    1.09e+00
2006 04 08  0205    53833    7500      0    1.58e+00    0    1.10e+00
2006 04 08  0210    53833    7800      0    1.58e+00    0    1.11e+00
2006 04 08  0215    53833    8100      0    1.53e+00    0    1.08e+00
2006 04 08  0220    53833    8400      0    1.60e+00    0    1.12e+00
2006 04 08  0225    53833    8700      0    1.57e+00    0    1.09e+00
2006 04 08  0230    53833    9000      0    1.56e+00    0    1.09e+00
2006 04 08  0235    53833    9300      0    1.56e+00    0    1.10e+00
2006 04 08  0240    53833    9600      0    1.54e+00    0    1.09e+00
2006 04 08  0245    53833    9900      0    1.55e+00    0    1.09e+00
2006 04 08  0250    53833   10200      0    1.58e+00    0    1.09e+00
2006 04 08  0255    53833   10500      0    1.60e+00    0    1.12e+00
2006 04 08  0300    53833   10800      0    1.60e+00    0    1.12e+00
2006 04 08  0305    53833   11100      0    1.55e+00    0    1.08e+00
2006 04 08  0310    53833   11400      0    1.53e+00    0    1.06e+00
2006 04 08  0315    53833   11700      0    1.54e+00    0    1.07e+00
2006 04 08  0320    53833   12000      0    1.59e+00    0    1.11e+00
2006 04 08  0325    53833   12300      0    1.54e+00    0    1.08e+00
2006 04 08  0330    53833   12600      0    1.54e+00    0    1.06e+00
2006 04 08  0335    53833   12900      0    1.55e+00    0    1.09e+00
2006 04 08  0340    53833   13200      0    1.59e+00    0    1.11e+00
2006 04 08  0345    53833   13500      0    1.53e+00    0    1.08e+00
2006 04 08  0350    53833   13800      0    1.54e+00    0    1.07e+00
2006 04 08  0355    53833   14100      0    1.59e+00    0    1.12e+00
2006 04 08  0400    53833   14400      0    1.57e+00    0    1.10e+00
2006 04 08  0405    53833   14700      0    1.58e+00    0    1.11e+00
2006 04 08  0410    53833   15000      0    1.55e+00    0    1.10e+00
2006 04 08  0415    53833   15300      0    1.57e+00    0    1.11e+00
2006 04 08  0420    53833   15600      0    1.58e+00    0    1.10e+00
2006 04 08  0425    53833   15900      0    1.59e+00    0    1.13e+00
2006 04 08  0430    53833   16200      0    1.58e+00    0    1.13e+00
2006 04 08  0435    53833   16500      0    1.59e+00    0    1.11e+00
2006 04 08  0440    53833   16800      0    1.55e+00    0    1.09e+00
2006 04 08  0445    53833   17100      0    1.56e+00    0    1.10e+00
2006 04 08  0450    53833   17400      0    1.58e+00    0    1.11e+00
2006 04 08  0455    53833   17700      0    1.57e+00    0    1.10e+00
2006 04 08  0500    53833   18000      0    1.57e+00    0    1.11e+00
2006 04 08  0505    53833   18300      0    1.55e+00    0    1.09e+00
2006 04 08  0510    53833   18600      0    1.55e+00    0    1.07e+00
2006 04 08  0515    53833   18900      0    1.53e+00    0    1.07e+00
2006 04 08  0520    53833   19200      0    1.55e+00    0    1.08e+00
2006 04 08  0525    53833   19500      0    1.55e+00    0    1.09e+00
2006 04 08  0530    53833   19800      0    1.58e+00    0    1.13e+00
2006 04 08  0535    53833   20100      0    1.52e+00    0    1.06e+00
2006 04 08  0540    53833   20400      0    1.53e+00    0    1.06e+00
2006 04 08  0545    53833   20700      0    1.58e+00    0    1.12e+00
2006 04 08  0550    53833   21000      0    1.55e+00    0    1.08e+00
2006 04 08  0555    53833   21300      0    1.55e+00    0    1.09e+00
2006 04 08  0600    53833   21600      0    1.53e+00    0    1.06e+00
2006 04 08  0605    53833   21900      0    1.57e+00    0    1.11e+00
2006 04 08  0610    53833   22200      0    1.56e+00    0    1.09e+00
2006 04 08  0615    53833   22500      0    1.55e+00    0    1.10e+00
2006 04 08  0620    53833   22800      0    1.53e+00    0    1.06e+00
2006 04 08  0625    53833   23100      0    1.58e+00    0    1.12e+00
2006 04 08  0630    53833   23400      0    1.59e+00    0    1.13e+00
2006 04 08  0635    53833   23700      0    1.53e+00    0    1.08e+00
2006 04 08  0640    53833   24000      0    1.52e+00    0    1.06e+00
2006 04 08  0645    53833   24300      0    1.57e+00    0    1.09e+00
2006 04 08  0650    53833   24600      0    1.56e+00    0    1.10e+00
2006 04 08  0655    53833   24900      0    1.53e+00    0    1.08e+00
2006 04 08  0700    53833   25200      0    1.53e+00    0    1.09e+00
2006 04 08  0705    53833   25500      0    1.56e+00    0    1.09e+00
2006 04 08  0710    53833   25800      0    1.59e+00    0    1.12e+00
2006 04 08  0715    53833   26100      0    1.57e+00    0    1.09e+00
2006 04 08  0720    53833   26400      0    1.51e+00    0    1.05e+00
2006 04 08  0725    53833   26700      0    1.59e+00    0    1.11e+00
2006 04 08  0730    53833   27000      0    1.58e+00    0    1.12e+00
2006 04 08  0735    53833   27300      0    1.56e+00    0    1.09e+00
2006 04 08  0740    53833   27600      0    1.58e+00    0    1.10e+00
2006 04 08  0745    53833   27900      0    1.53e+00    0    1.07e+00
2006 04 08  0750    53833   28200      0    1.57e+00    0    1.11e+00
2006 04 08  0755    53833   28500      0    1.53e+00    0    1.07e+00
2006 04 08  0800    53833   28800      0    1.58e+00    0    1.12e+00
2006 04 08  0805    53833   29100      0    1.56e+00    0    1.10e+00
2006 04 08  0810    53833   29400      0    1.57e+00    0    1.10e+00
2006 04 08  0815    53833   29700      0    1.54e+00    0    1.07e+00
2006 04 08  0820    53833   30000      0    1.53e+00    0    1.08e+00
2006 04 08  0825    53833   30300      0    1.53e+00    0    1.07e+00
2006 04 08  0830    53833   30600      0    1.52e+00    0    1.06e+00
2006 04 08  0835    53833   30900      0    1.52e+00    0    1.06e+00
2006 04 08  0840    53833   31200      0    1.55e+00    0    1.08e+00
2006 04 08  0845    53833   31500      0    1.54e+00    0    1.09e+00
2006 04 08  0850    53833   31800      0    1.56e+00    0    1.10e+00
2006 04 08  0855    53833   32100      0    1.57e+00    0    1.09e+00
2006 04 08  0900    53833   32400      0    1.55e+00    0    1.09e+00
2006 04 08  0905    53833   32700      0    1.54e+00    0    1.08e+00
2006 04 08  0910    53833   33000      0    1.56e+00    0    1.10e+00
2006 04 08  0915    53833   33300      0    1.55e+00    0    1.09e+00
2006 04 08  0920    53833   33600      0    1.54e+00    0    1.08e+00
2006 04 08  0925    53833   33900      0    1.56e+00    0    1.09e+00
2006 04 08  0930    53833   34200      0    1.54e+00    0    1.08e+00
2006 04 08  0935    53833   34500      0    1.52e+00    0    1.06e+00
2006 04 08  0940    53833   34800      0    1.52e+00    0    1.07e+00
2006 04 08  0945    53833   35100      0    1.57e+00    0    1.10e+00
2006 04 08  0950    53833   35400      0    1.53e+00    0    1.06e+00
2006 04 08  0955    53833   35700      0    1.56e+00    0    1.10e+00
2006 04 08  1000    53833   36000      0    1.55e+00    0    1.08e+00
2006 04 08  1005    53833   36300      0    1.54e+00    0    1.06e+00
2006 04 08  1010    53833   36600      0    1.55e+00    0    1.09e+00
2006 04 08  1015    53833   36900      0    1.58e+00    0    1.12e+00
2006 04 08  1020    53833   37200      0    1.54e+00    0    1.08e+00
2006 04 08  1025    53833   37500      0    1.55e+00    0    1.09e+00
2006 04 08  1030    53833   37800      0    1.57e+00    0    1.10e+00
2006 04 08  1035    53833   38100      0    1.56e+00    0    1.11e+00
2006 04 08  1040    53833   38400      0    1.53e+00    0    1.08e+00
2006 04 08  1045    53833   38700      0    1.55e+00    0    1.08e+00
2006 04 08  1050    53833   39000      0    1.56e+00    0    1.10e+00
2006 04 08  1055    53833   39300      0    1.55e+00    0    1.09e+00
2006 04 08  1100    53833   39600      0    1.57e+00    0    1.09e+00
2006 04 08  1105    53833   39900      0    1.55e+00    0    1.09e+00
2006 04 08  1110    53833   40200      0    1.57e+00    0    1.11e+00
2006 04 08  1115    53833   40500      0    1.55e+00    0    1.10e+00
2006 04 08  1120    53833   40800      0    1.54e+00    0    1.09e+00
2006 04 08  1125    53833   41100      0    1.57e+00    0    1.10e+00
2006 04 08  1130    53833   41400      0    1.52e+00    0    1.05e+00
2006 04 08  1135    53833   41700      0    1.54e+00    0    1.08e+00
2006 04 08  1140    53833   42000      0    1.55e+00    0    1.09e+00
2006 04 08  1145    53833   42300      0    1.58e+00    0    1.12e+00
2006 04 08  1150    53833   42600      0    1.53e+00    0    1.07e+00
2006 04 08  1155    53833   42900      0    1.54e+00    0    1.07e+00
2006 04 08  1200    53833   43200      0    1.55e+00    0    1.10e+00
2006 04 08  1205    53833   43500      0    1.58e+00    0    1.12e+00
2006 04 08  1210    53833   43800      0    1.57e+00    0    1.11e+00
2006 04 08  1215    53833   44100      0    1.55e+00    0    1.09e+00
2006 04 08  1220    53833   44400      0    1.54e+00    0    1.07e+00
2006 04 08  1225    53833   44700      0    1.55e+00    0    1.08e+00
2006 04 08  1230    53833   45000      0    1.56e+00    0    1.09e+00
2006 04 08  1235    53833   45300      0    1.53e+00    0    1.07e+00
2006 04 08  1240    53833   45600      0    1.59e+00    0    1.12e+00
2006 04 08  1245    53833   45900      0    1.53e+00    0    1.07e+00
2006 04 08  1250    53833   46200      0    1.54e+00    0    1.08e+00
2006 04 08  1255    53833   46500      0    1.53e+00    0    1.07e+00
2006 04 08  1300    53833   46800      0    1.57e+00    0    1.12e+00
2006 04 08  1305    53833   47100      0    1.55e+00    0    1.09e+00
2006 04 08  1310    53833   47400      0    1.52e+00    0    1.06e+00
2006 04 08  1315    53833   47700      0    1.55e+00    0    1.09e+00
2006 04 08  1320    53833   48000      0    1.57e+00    0    1.11e+00
2006 04 08  1325    53833   48300      0    1.58e+00    0    1.11e+00
2006 04 08  1330    53833   48600      0    1.56e+00    0    1.09e+00
2006 04 08  1335    53833   48900      0    1.57e+00    0    1.10e+00
2006 04 08  1340    53833   49200      0    1.59e+00    0    1.10e+00
2006 04 08  1345    53833   49500      0    1.58e+00    0    1.11e+00
2006 04 08  1350    53833   49800      0    1.54e+00    0    1.07e+00
2006 04 08  1355    53833   50100      0    1.56e+00    0    1.09e+00
2006 04 08  1400    53833   50400      0    1.55e+00    0    1.08e+00
2006 04 08  1405    53833   50700      0    1.60e+00    0    1.11e+00
2006 04 08  1410    53833   51000      0    1.53e+00    0    1.07e+00
2006 04 08  1415    53833   51300      0    1.56e+00    0    1.09e+00
2006 04 08  1420    53833   51600      0    1.56e+00    0    1.10e+00
2006 04 08  1425    53833   51900      0    1.57e+00    0    1.10e+00
2006 04 08  1430    53833   52200      0    1.58e+00    0    1.12e+00
2006 04 08  1435    53833   52500      0    1.55e+00    0    1.09e+00
2006 04 08  1440    53833   52800      0    1.57e+00    0    1.10e+00
2006 04 08  1445    53833   53100      0    1.54e+00    0    1.08e+00
2006 04 08  1450    53833   53400      0    1.54e+00    0    1.08e+00
2006 04 08  1455    53833   53700      0    1.53e+00    0    1.07e+00
2006 04 08  1500    53833   54000      0    1.54e+00    0    1.09e+00
2006 04 08  1505    53833   54300      0    1.59e+00    0    1.12e+00
2006 04 08  1510    53833   54600      0    1.55e+00    0    1.07e+00
2006 04 08  1515    53833   54900      0    1.54e+00    0    1.08e+00
2006 04 08  1520    53833   55200      0    1.55e+00    0    1.09e+00
2006 04 08  1525    53833   55500      0    1.60e+00    0    1.12e+00
2006 04 08  1530    53833   55800      0    1.60e+00    0    1.13e+00
2006 04 08  1535    53833   56100      0    1.59e+00    0    1.11e+00
2006 04 08  1540    53833   56400      0    1.54e+00    0    1.08e+00
2006 04 08  1545    53833   56700      0    1.58e+00    0    1.11e+00
2006 04 08  1550    53833   57000      0    1.53e+00    0    1.08e+00
2006 04 08  1555    53833   57300      0    1.52e+00    0    1.07e+00
2006 04 08  1600    53833   57600      0    1.59e+00    0    1.12e+00
2006 04 08  1605    53833   57900      0    1.57e+00    0    1.10e+00
2006 04 08  1610    53833   58200      0    1.57e+00    0    1.11e+00
2006 04 08  1615    53833   58500      0    1.57e+00    0    1.09e+00
2006 04 08  1620    53833   58800      0    1.58e+00    0    1.10e+00
2006 04 08  1625    53833   59100      0    1.60e+00    0    1.12e+00
2006 04 08  1630    53833   59400      0    1.56e+00    0    1.09e+00
2006 04 08  1635    53833   59700      0    1.57e+00    0    1.10e+00
2006 04 08  1640    53833   60000      0    1.60e+00    0    1.13e+00
2006 04 08  1645    53833   60300      0    1.61e+00    0    1.13e+00
2006 04 08  1650    53833   60600      0    1.59e+00    0    1.12e+00
2006 04 08  1655    53833   60900      0    1.58e+00    0    1.11e+00
2006 04 08  1700    53833   61200      0    1.61e+00    0    1.14e+00
2006 04 08  1705    53833   61500      0    1.59e+00    0    1.12e+00
2006 04 08  1710    53833   61800      0    1.53e+00    0    1.07e+00
2006 04 08  1715    53833   62100      0    1.55e+00    0    1.08e+00
2006 04 08  1720    53833   62400      0    1.57e+00    0    1.10e+00
2006 04 08  1725    53833   62700      0    1.58e+00    0    1.10e+00
2006 04 08  1730    53833   63000      0    1.59e+00    0    1.12e+00
2006 04 08  1735    53833   63300      0    1.60e+00    0    1.13e+00
2006 04 08  1740    53833   63600      0    1.58e+00    0    1.10e+00
2006 04 08  1745    53833   63900      0    1.58e+00    0    1.10e+00
2006 04 08  1750    53833   64200      0    1.54e+00    0    1.08e+00
2006 04 08  1755    53833   64500      0    1.56e+00    0    1.09e+00
2006 04 08  1800    53833   64800      0    1.56e+00    0    1.09e+00
2006 04 08  1805    53833   65100      0    1.59e+00    0    1.12e+00
2006 04 08  1810    53833   65400      0    1.55e+00    0    1.10e+00
2006 04 08  1815    53833   65700      0    1.61e+00    0    1.13e+00
2006 04 08  1820    53833   66000      0    1.52e+00    0    1.07e+00
2006 04 08  1825    53833   66300      0    1.57e+00    0    1.10e+00
2006 04 08  1830    53833   66600      0    1.59e+00    0    1.12e+00
2006 04 08  1835    53833   66900      0    1.57e+00    0    1.09e+00
2006 04 08  1840    53833   67200      0    1.54e+00    0    1.06e+00
2006 04 08  1845    53833   67500      0    1.57e+00    0    1.11e+00
2006 04 08  1850    53833   67800      0    1.52e+00    0    1.07e+00
2006 04 08  1855    53833   68100      0    1.58e+00    0    1.11e+00
2006 04 08  1900    53833   68400      0    1.61e+00    0    1.12e+00
2006 04 08  1905    53833   68700      0    1.60e+00    0    1.12e+00
2006 04 08  1910    53833   69000      0    1.60e+00    0    1.13e+00
2006 04 08  1915    53833   69300      0    1.57e+00    0    1.11e+00
2006 04 08  1920    53833   69600      0    1.56e+00    0    1.09e+00
2006 04 08  1925    53833   69900      0    1.60e+00    0    1.13e+00
2006 04 08  1930    53833   70200      0    1.58e+00    0    1.11e+00
2006 04 08  1935    53833   70500      0    1.59e+00    0    1.11e+00
2006 04 08  1940    53833   70800      0    1.58e+00    0    1.09e+00
2006 04 08  1945    53833   71100      0    1.61e+00    0    1.14e+00
2006 04 08  1950    53833   71400      0    1.60e+00    0    1.12e+00
2006 04 08  1955    53833   71700      0    1.60e+00    0    1.12e+00
2006 04 08  2000    53833   72000      0    1.61e+00    0    1.12e+00
2006 04 08  2005    53833   72300      0    1.55e+00    0    1.09e+00
2006 04 08  2010    53833   72600      0    1.56e+00    0    1.09e+00
2006 04 08  2015    53833   72900      0    1.60e+00    0    1.12e+00
2006 04 08  2020    53833   73200      0    1.57e+00    0    1.09e+00
2006 04 08  2025    53833   73500      0    1.59e+00    0    1.11e+00
2006 04 08  2030    53833   73800      0    1.55e+00    0    1.08e+00
2006 04 08  2035    53833   74100      0    1.58e+00    0    1.11e+00
2006 04 08  2040    53833   74400      0    1.58e+00    0    1.10e+00
2006 04 08  2045    53833   74700      0    1.60e+00    0    1.14e+00
2006 04 08  2050    53833   75000      0    1.58e+00    0    1.12e+00
2006 04 08  2055    53833   75300      0    1.57e+00    0    1.09e+00
2006 04 08  2100    53833   75600      0    1.57e+00    0    1.10e+00
2006 04 08  2105    53833   75900      0    1.56e+00    0    1.10e+00
2006 04 08  2110    53833   76200      0    1.54e+00    0    1.08e+00
2006 04 08  2115    53833   76500      0    1.54e+00    0    1.08e+00
2006 04 08  2120    53833   76800      0    1.58e+00    0    1.10e+00
2006 04 08  2125    53833   77100      0    1.56e+00    0    1.09e+00
2006 04 08  2130    53833   77400      0    1.56e+00    0    1.10e+00
2006 04 08  2135    53833   77700      0    1.56e+00    0    1.09e+00
2006 04 08  2140    53833   78000      0    1.55e+00    0    1.08e+00
2006 04 08  2145    53833   78300      0    1.59e+00    0    1.13e+00
2006 04 08  2150    53833   78600      0    1.53e+00    0    1.07e+00
2006 04 08  2155    53833   78900      0    1.55e+00    0    1.09e+00
2006 04 08  2200    53833   79200      0    1.55e+00    0    1.09e+00
2006 04 08  2205    53833   79500      0    1.55e+00    0    1.08e+00
2006 04 08  2210    53833   79800      0    1.57e+00    0    1.10e+00
2006 04 08  2215    53833   80100      0    1.57e+00    0    1.10e+00
2006 04 08  2220    53833   80400      0    1.56e+00    0    1.09e+00
2006 04 08  2225    53833   80700      0    1.57e+00    0    1.10e+00
2006 04 08  2230    53833   81000      0    1.54e+00    0    1.09e+00
2006 04 08  2235    53833   81300      0    1.57e+00    0    1.10e+00
2006 04 08  2240    53833   81600      0    1.57e+00    0    1.09e+00
2006 04 08  2245    53833   81900      0    1.55e+00    0    1.09e+00
2006 04 08  2250    53833   82200      0    1.54e+00    0    1.09e+00
2006 04 08  2255    53833   82500      0    1.54e+00    0    1.08e+00
2006 04 08  2300    53833   82800      0    1.59e+00    0    1.11e+00
2006 04 08  2305    53833   83100      0    1.56e+00    0    1.09e+00
2006 04 08  2310    53833   83400      0    1.58e+00    0    1.11e+00
2006 04 08  2315    53833   83700      0    1.59e+00    0    1.11e+00
2006 04 08  2320    53833   84000      0    1.54e+00    0    1.07e+00
2006 04 08  2325    53833   84300      0    1.57e+00    0    1.10e+00
2006 04 08  2330    53833   84600      0    1.57e+00    0    1.10e+00
2006 04 08  2335    53833   84900      0    1.52e+00    0    1.06e+00
2006 04 08  2340    53833   85200      0    1.58e+00    0    1.12e+00
2006 04 08  2345    53833   85500      0    1.60e+00    0    1.13e+00
2006 04 08  2350    53833   85800      0    1.54e+00    0    1.08e+00
2006 04 08  2355    53833   86100      0    1.54e+00    0    1.07e+00
