:Data_list: 20060309_ace_sis_5m.txt
:Created: 2006 Mar 10 0011 UT
# Prepared by the U.S. Dept. of Commerce, NOAA, Space Environment Center.
# Please send comments and suggestions to SEC.Webmaster@noaa.gov 
# 
# Units: proton flux p/cs2-sec-ster
# Status(S): 0 = nominal data, 1 to 8 = bad data record, 9 = no data
# Missing data values: -1.00e+05
# Source: ACE Satellite - Solar Isotope Spectrometer
#
# 5-minute averaged Real-time Integral Flux of High-energy Solar Protons
# 
#                 Modified Seconds
# UT Date   Time   Julian  of the      ---- Integral Proton Flux ----
# YR MO DA  HHMM     Day     Day       S    > 10 MeV    S    > 30 MeV
#--------------------------------------------------------------------
2006 03 09  0000    53803       0      0    1.53e+00    0    1.07e+00
2006 03 09  0005    53803     300      0    1.54e+00    0    1.08e+00
2006 03 09  0010    53803     600      0    1.53e+00    0    1.08e+00
2006 03 09  0015    53803     900      0    1.55e+00    0    1.09e+00
2006 03 09  0020    53803    1200      0    1.52e+00    0    1.08e+00
2006 03 09  0025    53803    1500      0    1.51e+00    0    1.06e+00
2006 03 09  0030    53803    1800      0    1.52e+00    0    1.06e+00
2006 03 09  0035    53803    2100      0    1.52e+00    0    1.07e+00
2006 03 09  0040    53803    2400      0    1.55e+00    0    1.09e+00
2006 03 09  0045    53803    2700      0    1.57e+00    0    1.10e+00
2006 03 09  0050    53803    3000      0    1.50e+00    0    1.06e+00
2006 03 09  0055    53803    3300      0    1.54e+00    0    1.08e+00
2006 03 09  0100    53803    3600      0    1.54e+00    0    1.08e+00
2006 03 09  0105    53803    3900      0    1.48e+00    0    1.04e+00
2006 03 09  0110    53803    4200      0    1.55e+00    0    1.09e+00
2006 03 09  0115    53803    4500      0    1.53e+00    0    1.07e+00
2006 03 09  0120    53803    4800      0    1.55e+00    0    1.09e+00
2006 03 09  0125    53803    5100      0    1.56e+00    0    1.10e+00
2006 03 09  0130    53803    5400      0    1.52e+00    0    1.06e+00
2006 03 09  0135    53803    5700      0    1.52e+00    0    1.07e+00
2006 03 09  0140    53803    6000      0    1.53e+00    0    1.08e+00
2006 03 09  0145    53803    6300      0    1.55e+00    0    1.09e+00
2006 03 09  0150    53803    6600      0    1.52e+00    0    1.06e+00
2006 03 09  0155    53803    6900      0    1.59e+00    0    1.11e+00
2006 03 09  0200    53803    7200      0    1.52e+00    0    1.06e+00
2006 03 09  0205    53803    7500      0    1.54e+00    0    1.08e+00
2006 03 09  0210    53803    7800      0    1.58e+00    0    1.12e+00
2006 03 09  0215    53803    8100      0    1.54e+00    0    1.09e+00
2006 03 09  0220    53803    8400      0    1.52e+00    0    1.07e+00
2006 03 09  0225    53803    8700      0    1.51e+00    0    1.07e+00
2006 03 09  0230    53803    9000      0    1.51e+00    0    1.06e+00
2006 03 09  0235    53803    9300      0    1.51e+00    0    1.06e+00
2006 03 09  0240    53803    9600      0    1.55e+00    0    1.08e+00
2006 03 09  0245    53803    9900      0    1.53e+00    0    1.08e+00
2006 03 09  0250    53803   10200      0    1.54e+00    0    1.08e+00
2006 03 09  0255    53803   10500      0    1.56e+00    0    1.10e+00
2006 03 09  0300    53803   10800      0    1.54e+00    0    1.08e+00
2006 03 09  0305    53803   11100      0    1.57e+00    0    1.10e+00
2006 03 09  0310    53803   11400      0    1.58e+00    0    1.10e+00
2006 03 09  0315    53803   11700      0    1.56e+00    0    1.09e+00
2006 03 09  0320    53803   12000      0    1.54e+00    0    1.08e+00
2006 03 09  0325    53803   12300      0    1.54e+00    0    1.09e+00
2006 03 09  0330    53803   12600      0    1.53e+00    0    1.08e+00
2006 03 09  0335    53803   12900      0    1.53e+00    0    1.08e+00
2006 03 09  0340    53803   13200      0    1.52e+00    0    1.06e+00
2006 03 09  0345    53803   13500      0    1.56e+00    0    1.08e+00
2006 03 09  0350    53803   13800      0    1.54e+00    0    1.08e+00
2006 03 09  0355    53803   14100      0    1.52e+00    0    1.08e+00
2006 03 09  0400    53803   14400      0    1.54e+00    0    1.07e+00
2006 03 09  0405    53803   14700      0    1.57e+00    0    1.10e+00
2006 03 09  0410    53803   15000      0    1.58e+00    0    1.10e+00
2006 03 09  0415    53803   15300      0    1.53e+00    0    1.08e+00
2006 03 09  0420    53803   15600      0    1.57e+00    0    1.09e+00
2006 03 09  0425    53803   15900      0    1.53e+00    0    1.08e+00
2006 03 09  0430    53803   16200      0    1.54e+00    0    1.09e+00
2006 03 09  0435    53803   16500      0    1.54e+00    0    1.08e+00
2006 03 09  0440    53803   16800      0    1.53e+00    0    1.07e+00
2006 03 09  0445    53803   17100      0    1.52e+00    0    1.08e+00
2006 03 09  0450    53803   17400      0    1.57e+00    0    1.11e+00
2006 03 09  0455    53803   17700      0    1.56e+00    0    1.10e+00
2006 03 09  0500    53803   18000      0    1.56e+00    0    1.10e+00
2006 03 09  0505    53803   18300      0    1.56e+00    0    1.09e+00
2006 03 09  0510    53803   18600      0    1.56e+00    0    1.10e+00
2006 03 09  0515    53803   18900      0    1.53e+00    0    1.07e+00
2006 03 09  0520    53803   19200      0    1.54e+00    0    1.08e+00
2006 03 09  0525    53803   19500      0    1.53e+00    0    1.08e+00
2006 03 09  0530    53803   19800      0    1.54e+00    0    1.08e+00
2006 03 09  0535    53803   20100      0    1.53e+00    0    1.07e+00
2006 03 09  0540    53803   20400      0    1.56e+00    0    1.09e+00
2006 03 09  0545    53803   20700      0    1.55e+00    0    1.08e+00
2006 03 09  0550    53803   21000      0    1.51e+00    0    1.07e+00
2006 03 09  0555    53803   21300      0    1.55e+00    0    1.09e+00
2006 03 09  0600    53803   21600      0    1.54e+00    0    1.08e+00
2006 03 09  0605    53803   21900      0    1.50e+00    0    1.05e+00
2006 03 09  0610    53803   22200      0    1.54e+00    0    1.08e+00
2006 03 09  0615    53803   22500      0    1.52e+00    0    1.06e+00
2006 03 09  0620    53803   22800      0    1.53e+00    0    1.08e+00
2006 03 09  0625    53803   23100      0    1.54e+00    0    1.08e+00
2006 03 09  0630    53803   23400      0    1.50e+00    0    1.04e+00
2006 03 09  0635    53803   23700      0    1.54e+00    0    1.07e+00
2006 03 09  0640    53803   24000      0    1.52e+00    0    1.07e+00
2006 03 09  0645    53803   24300      0    1.52e+00    0    1.06e+00
2006 03 09  0650    53803   24600      0    1.53e+00    0    1.07e+00
2006 03 09  0655    53803   24900      0    1.53e+00    0    1.06e+00
2006 03 09  0700    53803   25200      0    1.51e+00    0    1.06e+00
2006 03 09  0705    53803   25500      0    1.51e+00    0    1.07e+00
2006 03 09  0710    53803   25800      0    1.50e+00    0    1.06e+00
2006 03 09  0715    53803   26100      0    1.53e+00    0    1.08e+00
2006 03 09  0720    53803   26400      0    1.55e+00    0    1.07e+00
2006 03 09  0725    53803   26700      0    1.50e+00    0    1.06e+00
2006 03 09  0730    53803   27000      0    1.49e+00    0    1.05e+00
2006 03 09  0735    53803   27300      0    1.54e+00    0    1.08e+00
2006 03 09  0740    53803   27600      0    1.53e+00    0    1.09e+00
2006 03 09  0745    53803   27900      0    1.50e+00    0    1.05e+00
2006 03 09  0750    53803   28200      0    1.51e+00    0    1.05e+00
2006 03 09  0755    53803   28500      0    1.51e+00    0    1.05e+00
2006 03 09  0800    53803   28800      0    1.53e+00    0    1.07e+00
2006 03 09  0805    53803   29100      0    1.53e+00    0    1.06e+00
2006 03 09  0810    53803   29400      0    1.51e+00    0    1.05e+00
2006 03 09  0815    53803   29700      0    1.55e+00    0    1.07e+00
2006 03 09  0820    53803   30000      0    1.52e+00    0    1.07e+00
2006 03 09  0825    53803   30300      0    1.51e+00    0    1.06e+00
2006 03 09  0830    53803   30600      0    1.51e+00    0    1.07e+00
2006 03 09  0835    53803   30900      0    1.51e+00    0    1.06e+00
2006 03 09  0840    53803   31200      0    1.53e+00    0    1.08e+00
2006 03 09  0845    53803   31500      0    1.50e+00    0    1.05e+00
2006 03 09  0850    53803   31800      0    1.53e+00    0    1.07e+00
2006 03 09  0855    53803   32100      0    1.55e+00    0    1.09e+00
2006 03 09  0900    53803   32400      0    1.52e+00    0    1.08e+00
2006 03 09  0905    53803   32700      0    1.52e+00    0    1.07e+00
2006 03 09  0910    53803   33000      0    1.55e+00    0    1.08e+00
2006 03 09  0915    53803   33300      0    1.49e+00    0    1.04e+00
2006 03 09  0920    53803   33600      0    1.53e+00    0    1.08e+00
2006 03 09  0925    53803   33900      0    1.50e+00    0    1.04e+00
2006 03 09  0930    53803   34200      0    1.51e+00    0    1.06e+00
2006 03 09  0935    53803   34500      0    1.53e+00    0    1.07e+00
2006 03 09  0940    53803   34800      0    1.51e+00    0    1.06e+00
2006 03 09  0945    53803   35100      0    1.54e+00    0    1.09e+00
2006 03 09  0950    53803   35400      0    1.54e+00    0    1.07e+00
2006 03 09  0955    53803   35700      0    1.55e+00    0    1.07e+00
2006 03 09  1000    53803   36000      0    1.52e+00    0    1.06e+00
2006 03 09  1005    53803   36300      0    1.56e+00    0    1.09e+00
2006 03 09  1010    53803   36600      0    1.51e+00    0    1.05e+00
2006 03 09  1015    53803   36900      0    1.54e+00    0    1.09e+00
2006 03 09  1020    53803   37200      0    1.53e+00    0    1.07e+00
2006 03 09  1025    53803   37500      0    1.50e+00    0    1.05e+00
2006 03 09  1030    53803   37800      0    1.53e+00    0    1.08e+00
2006 03 09  1035    53803   38100      0    1.50e+00    0    1.05e+00
2006 03 09  1040    53803   38400      0    1.54e+00    0    1.08e+00
2006 03 09  1045    53803   38700      0    1.53e+00    0    1.08e+00
2006 03 09  1050    53803   39000      0    1.50e+00    0    1.05e+00
2006 03 09  1055    53803   39300      0    1.55e+00    0    1.09e+00
2006 03 09  1100    53803   39600      0    1.55e+00    0    1.08e+00
2006 03 09  1105    53803   39900      0    1.52e+00    0    1.07e+00
2006 03 09  1110    53803   40200      0    1.55e+00    0    1.09e+00
2006 03 09  1115    53803   40500      0    1.50e+00    0    1.05e+00
2006 03 09  1120    53803   40800      0    1.52e+00    0    1.07e+00
2006 03 09  1125    53803   41100      0    1.54e+00    0    1.09e+00
2006 03 09  1130    53803   41400      0    1.51e+00    0    1.06e+00
2006 03 09  1135    53803   41700      0    1.51e+00    0    1.05e+00
2006 03 09  1140    53803   42000      0    1.51e+00    0    1.06e+00
2006 03 09  1145    53803   42300      0    1.52e+00    0    1.07e+00
2006 03 09  1150    53803   42600      0    1.48e+00    0    1.04e+00
2006 03 09  1155    53803   42900      0    1.54e+00    0    1.07e+00
2006 03 09  1200    53803   43200      0    1.53e+00    0    1.08e+00
2006 03 09  1205    53803   43500      0    1.53e+00    0    1.07e+00
2006 03 09  1210    53803   43800      0    1.52e+00    0    1.07e+00
2006 03 09  1215    53803   44100      0    1.50e+00    0    1.05e+00
2006 03 09  1220    53803   44400      0    1.54e+00    0    1.07e+00
2006 03 09  1225    53803   44700      0    1.52e+00    0    1.07e+00
2006 03 09  1230    53803   45000      0    1.52e+00    0    1.06e+00
2006 03 09  1235    53803   45300      0    1.53e+00    0    1.06e+00
2006 03 09  1240    53803   45600      0    1.51e+00    0    1.05e+00
2006 03 09  1245    53803   45900      0    1.50e+00    0    1.05e+00
2006 03 09  1250    53803   46200      0    1.51e+00    0    1.06e+00
2006 03 09  1255    53803   46500      0    1.50e+00    0    1.05e+00
2006 03 09  1300    53803   46800      0    1.52e+00    0    1.06e+00
2006 03 09  1305    53803   47100      0    1.51e+00    0    1.07e+00
2006 03 09  1310    53803   47400      0    1.51e+00    0    1.06e+00
2006 03 09  1315    53803   47700      0    1.53e+00    0    1.08e+00
2006 03 09  1320    53803   48000      0    1.53e+00    0    1.07e+00
2006 03 09  1325    53803   48300      0    1.54e+00    0    1.08e+00
2006 03 09  1330    53803   48600      0    1.50e+00    0    1.04e+00
2006 03 09  1335    53803   48900      0    1.52e+00    0    1.07e+00
2006 03 09  1340    53803   49200      0    1.50e+00    0    1.06e+00
2006 03 09  1345    53803   49500      0    1.50e+00    0    1.06e+00
2006 03 09  1350    53803   49800      0    1.52e+00    0    1.06e+00
2006 03 09  1355    53803   50100      0    1.53e+00    0    1.07e+00
2006 03 09  1400    53803   50400      0    1.53e+00    0    1.08e+00
2006 03 09  1405    53803   50700      0    1.54e+00    0    1.08e+00
2006 03 09  1410    53803   51000      0    1.52e+00    0    1.05e+00
2006 03 09  1415    53803   51300      0    1.53e+00    0    1.08e+00
2006 03 09  1420    53803   51600      0    1.54e+00    0    1.09e+00
2006 03 09  1425    53803   51900      0    1.53e+00    0    1.07e+00
2006 03 09  1430    53803   52200      0    1.52e+00    0    1.07e+00
2006 03 09  1435    53803   52500      0    1.52e+00    0    1.07e+00
2006 03 09  1440    53803   52800      0    1.55e+00    0    1.07e+00
2006 03 09  1445    53803   53100      0    1.52e+00    0    1.07e+00
2006 03 09  1450    53803   53400      0    1.54e+00    0    1.07e+00
2006 03 09  1455    53803   53700      0    1.53e+00    0    1.07e+00
2006 03 09  1500    53803   54000      0    1.52e+00    0    1.06e+00
2006 03 09  1505    53803   54300      0    1.54e+00    0    1.09e+00
2006 03 09  1510    53803   54600      0    1.53e+00    0    1.08e+00
2006 03 09  1515    53803   54900      0    1.51e+00    0    1.05e+00
2006 03 09  1520    53803   55200      0    1.53e+00    0    1.08e+00
2006 03 09  1525    53803   55500      0    1.52e+00    0    1.07e+00
2006 03 09  1530    53803   55800      0    1.51e+00    0    1.06e+00
2006 03 09  1535    53803   56100      0    1.56e+00    0    1.10e+00
2006 03 09  1540    53803   56400      0    1.54e+00    0    1.09e+00
2006 03 09  1545    53803   56700      0    1.51e+00    0    1.06e+00
2006 03 09  1550    53803   57000      0    1.52e+00    0    1.05e+00
2006 03 09  1555    53803   57300      0    1.56e+00    0    1.09e+00
2006 03 09  1600    53803   57600      0    1.53e+00    0    1.07e+00
2006 03 09  1605    53803   57900      0    1.56e+00    0    1.10e+00
2006 03 09  1610    53803   58200      0    1.52e+00    0    1.07e+00
2006 03 09  1615    53803   58500      0    1.52e+00    0    1.07e+00
2006 03 09  1620    53803   58800      0    1.52e+00    0    1.07e+00
2006 03 09  1625    53803   59100      0    1.54e+00    0    1.08e+00
2006 03 09  1630    53803   59400      0    1.50e+00    0    1.04e+00
2006 03 09  1635    53803   59700      0    1.50e+00    0    1.06e+00
2006 03 09  1640    53803   60000      0    1.54e+00    0    1.08e+00
2006 03 09  1645    53803   60300      0    1.53e+00    0    1.07e+00
2006 03 09  1650    53803   60600      0    1.55e+00    0    1.11e+00
2006 03 09  1655    53803   60900      0    1.52e+00    0    1.07e+00
2006 03 09  1700    53803   61200      0    1.56e+00    0    1.09e+00
2006 03 09  1705    53803   61500      0    1.51e+00    0    1.06e+00
2006 03 09  1710    53803   61800      0    1.53e+00    0    1.06e+00
2006 03 09  1715    53803   62100      0    1.53e+00    0    1.07e+00
2006 03 09  1720    53803   62400      0    1.52e+00    0    1.08e+00
2006 03 09  1725    53803   62700      0    1.55e+00    0    1.09e+00
2006 03 09  1730    53803   63000      0    1.54e+00    0    1.06e+00
2006 03 09  1735    53803   63300      0    1.54e+00    0    1.08e+00
2006 03 09  1740    53803   63600      0    1.53e+00    0    1.06e+00
2006 03 09  1745    53803   63900      0    1.46e+00    0    1.02e+00
2006 03 09  1750    53803   64200      0    1.52e+00    0    1.07e+00
2006 03 09  1755    53803   64500      0    1.54e+00    0    1.09e+00
2006 03 09  1800    53803   64800      0    1.52e+00    0    1.06e+00
2006 03 09  1805    53803   65100      0    1.55e+00    0    1.10e+00
2006 03 09  1810    53803   65400      0    1.52e+00    0    1.07e+00
2006 03 09  1815    53803   65700      0    1.54e+00    0    1.09e+00
2006 03 09  1820    53803   66000      0    1.51e+00    0    1.07e+00
2006 03 09  1825    53803   66300      0    1.55e+00    0    1.08e+00
2006 03 09  1830    53803   66600      0    1.52e+00    0    1.08e+00
2006 03 09  1835    53803   66900      0    1.56e+00    0    1.11e+00
2006 03 09  1840    53803   67200      0    1.50e+00    0    1.05e+00
2006 03 09  1845    53803   67500      0    1.53e+00    0    1.08e+00
2006 03 09  1850    53803   67800      0    1.52e+00    0    1.07e+00
2006 03 09  1855    53803   68100      0    1.55e+00    0    1.08e+00
2006 03 09  1900    53803   68400      0    1.52e+00    0    1.07e+00
2006 03 09  1905    53803   68700      0    1.52e+00    0    1.07e+00
2006 03 09  1910    53803   69000      0    1.50e+00    0    1.05e+00
2006 03 09  1915    53803   69300      0    1.53e+00    0    1.08e+00
2006 03 09  1920    53803   69600      0    1.52e+00    0    1.06e+00
2006 03 09  1925    53803   69900      0    1.50e+00    0    1.05e+00
2006 03 09  1930    53803   70200      0    1.56e+00    0    1.10e+00
2006 03 09  1935    53803   70500      0    1.44e+00    0    1.01e+00
2006 03 09  1940    53803   70800      0    1.55e+00    0    1.09e+00
2006 03 09  1945    53803   71100      0    1.55e+00    0    1.10e+00
2006 03 09  1950    53803   71400      0    1.55e+00    0    1.09e+00
2006 03 09  1955    53803   71700      0    1.57e+00    0    1.12e+00
2006 03 09  2000    53803   72000      0    1.50e+00    0    1.04e+00
2006 03 09  2005    53803   72300      0    1.52e+00    0    1.06e+00
2006 03 09  2010    53803   72600      0    1.52e+00    0    1.07e+00
2006 03 09  2015    53803   72900      0    1.52e+00    0    1.06e+00
2006 03 09  2020    53803   73200      0    1.54e+00    0    1.10e+00
2006 03 09  2025    53803   73500      0    1.53e+00    0    1.07e+00
2006 03 09  2030    53803   73800      0    1.53e+00    0    1.07e+00
2006 03 09  2035    53803   74100      0    1.55e+00    0    1.09e+00
2006 03 09  2040    53803   74400      0    1.52e+00    0    1.06e+00
2006 03 09  2045    53803   74700      0    1.53e+00    0    1.09e+00
2006 03 09  2050    53803   75000      0    1.52e+00    0    1.07e+00
2006 03 09  2055    53803   75300      0    1.55e+00    0    1.09e+00
2006 03 09  2100    53803   75600      0    1.49e+00    0    1.05e+00
2006 03 09  2105    53803   75900      0    1.51e+00    0    1.06e+00
2006 03 09  2110    53803   76200      0    1.55e+00    0    1.10e+00
2006 03 09  2115    53803   76500      0    1.52e+00    0    1.06e+00
2006 03 09  2120    53803   76800      0    1.54e+00    0    1.08e+00
2006 03 09  2125    53803   77100      0    1.53e+00    0    1.07e+00
2006 03 09  2130    53803   77400      0    1.50e+00    0    1.05e+00
2006 03 09  2135    53803   77700      0    1.51e+00    0    1.06e+00
2006 03 09  2140    53803   78000      0    1.51e+00    0    1.05e+00
2006 03 09  2145    53803   78300      0    1.54e+00    0    1.08e+00
2006 03 09  2150    53803   78600      0    1.50e+00    0    1.06e+00
2006 03 09  2155    53803   78900      0    1.53e+00    0    1.08e+00
2006 03 09  2200    53803   79200      0    1.52e+00    0    1.07e+00
2006 03 09  2205    53803   79500      0    1.57e+00    0    1.11e+00
2006 03 09  2210    53803   79800      0    1.48e+00    0    1.04e+00
2006 03 09  2215    53803   80100      0    1.52e+00    0    1.07e+00
2006 03 09  2220    53803   80400      0    1.51e+00    0    1.07e+00
2006 03 09  2225    53803   80700      0    1.52e+00    0    1.06e+00
2006 03 09  2230    53803   81000      0    1.54e+00    0    1.09e+00
2006 03 09  2235    53803   81300      0    1.47e+00    0    1.03e+00
2006 03 09  2240    53803   81600      0    1.47e+00    0    1.02e+00
2006 03 09  2245    53803   81900      0    1.52e+00    0    1.07e+00
2006 03 09  2250    53803   82200      0    1.50e+00    0    1.05e+00
2006 03 09  2255    53803   82500      0    1.55e+00    0    1.09e+00
2006 03 09  2300    53803   82800      0    1.51e+00    0    1.06e+00
2006 03 09  2305    53803   83100      0    1.51e+00    0    1.05e+00
2006 03 09  2310    53803   83400      0    1.48e+00    0    1.03e+00
2006 03 09  2315    53803   83700      0    1.55e+00    0    1.10e+00
2006 03 09  2320    53803   84000      0    1.53e+00    0    1.09e+00
2006 03 09  2325    53803   84300      0    1.51e+00    0    1.05e+00
2006 03 09  2330    53803   84600      0    1.51e+00    0    1.06e+00
2006 03 09  2335    53803   84900      0    1.54e+00    0    1.09e+00
2006 03 09  2340    53803   85200      0    1.53e+00    0    1.07e+00
2006 03 09  2345    53803   85500      0    1.53e+00    0    1.06e+00
2006 03 09  2350    53803   85800      0    1.51e+00    0    1.07e+00
2006 03 09  2355    53803   86100      0    1.55e+00    0    1.09e+00
