:Data_list: 20060327_ace_sis_5m.txt
:Created: 2006 Mar 28 0011 UT
# Prepared by the U.S. Dept. of Commerce, NOAA, Space Environment Center.
# Please send comments and suggestions to SEC.Webmaster@noaa.gov 
# 
# Units: proton flux p/cs2-sec-ster
# Status(S): 0 = nominal data, 1 to 8 = bad data record, 9 = no data
# Missing data values: -1.00e+05
# Source: ACE Satellite - Solar Isotope Spectrometer
#
# 5-minute averaged Real-time Integral Flux of High-energy Solar Protons
# 
#                 Modified Seconds
# UT Date   Time   Julian  of the      ---- Integral Proton Flux ----
# YR MO DA  HHMM     Day     Day       S    > 10 MeV    S    > 30 MeV
#--------------------------------------------------------------------
2006 03 27  0000    53821       0      0    1.52e+00    0    1.07e+00
2006 03 27  0005    53821     300      0    1.51e+00    0    1.07e+00
2006 03 27  0010    53821     600      0    1.52e+00    0    1.06e+00
2006 03 27  0015    53821     900      0    1.51e+00    0    1.07e+00
2006 03 27  0020    53821    1200      0    1.53e+00    0    1.08e+00
2006 03 27  0025    53821    1500      0    1.50e+00    0    1.05e+00
2006 03 27  0030    53821    1800      0    1.54e+00    0    1.08e+00
2006 03 27  0035    53821    2100      0    1.52e+00    0    1.06e+00
2006 03 27  0040    53821    2400      0    1.52e+00    0    1.07e+00
2006 03 27  0045    53821    2700      0    1.51e+00    0    1.06e+00
2006 03 27  0050    53821    3000      0    1.57e+00    0    1.11e+00
2006 03 27  0055    53821    3300      0    1.55e+00    0    1.08e+00
2006 03 27  0100    53821    3600      0    1.53e+00    0    1.07e+00
2006 03 27  0105    53821    3900      0    1.52e+00    0    1.06e+00
2006 03 27  0110    53821    4200      0    1.54e+00    0    1.08e+00
2006 03 27  0115    53821    4500      0    1.52e+00    0    1.07e+00
2006 03 27  0120    53821    4800      0    1.50e+00    0    1.06e+00
2006 03 27  0125    53821    5100      0    1.55e+00    0    1.09e+00
2006 03 27  0130    53821    5400      0    1.54e+00    0    1.08e+00
2006 03 27  0135    53821    5700      0    1.56e+00    0    1.11e+00
2006 03 27  0140    53821    6000      0    1.54e+00    0    1.07e+00
2006 03 27  0145    53821    6300      0    1.54e+00    0    1.08e+00
2006 03 27  0150    53821    6600      0    1.53e+00    0    1.07e+00
2006 03 27  0155    53821    6900      0    1.52e+00    0    1.07e+00
2006 03 27  0200    53821    7200      0    1.53e+00    0    1.08e+00
2006 03 27  0205    53821    7500      0    1.55e+00    0    1.09e+00
2006 03 27  0210    53821    7800      0    1.54e+00    0    1.08e+00
2006 03 27  0215    53821    8100      0    1.56e+00    0    1.10e+00
2006 03 27  0220    53821    8400      0    1.52e+00    0    1.06e+00
2006 03 27  0225    53821    8700      0    1.50e+00    0    1.04e+00
2006 03 27  0230    53821    9000      0    1.55e+00    0    1.09e+00
2006 03 27  0235    53821    9300      0    1.52e+00    0    1.07e+00
2006 03 27  0240    53821    9600      0    1.53e+00    0    1.07e+00
2006 03 27  0245    53821    9900      0    1.52e+00    0    1.06e+00
2006 03 27  0250    53821   10200      0    1.53e+00    0    1.08e+00
2006 03 27  0255    53821   10500      0    1.52e+00    0    1.07e+00
2006 03 27  0300    53821   10800      0    1.51e+00    0    1.06e+00
2006 03 27  0305    53821   11100      0    1.51e+00    0    1.05e+00
2006 03 27  0310    53821   11400      0    1.50e+00    0    1.04e+00
2006 03 27  0315    53821   11700      0    1.51e+00    0    1.06e+00
2006 03 27  0320    53821   12000      0    1.52e+00    0    1.06e+00
2006 03 27  0325    53821   12300      0    1.52e+00    0    1.06e+00
2006 03 27  0330    53821   12600      0    1.50e+00    0    1.05e+00
2006 03 27  0335    53821   12900      0    1.52e+00    0    1.07e+00
2006 03 27  0340    53821   13200      0    1.51e+00    0    1.06e+00
2006 03 27  0345    53821   13500      0    1.55e+00    0    1.09e+00
2006 03 27  0350    53821   13800      0    1.55e+00    0    1.08e+00
2006 03 27  0355    53821   14100      0    1.54e+00    0    1.07e+00
2006 03 27  0400    53821   14400      0    1.58e+00    0    1.12e+00
2006 03 27  0405    53821   14700      0    1.52e+00    0    1.07e+00
2006 03 27  0410    53821   15000      0    1.51e+00    0    1.06e+00
2006 03 27  0415    53821   15300      0    1.53e+00    0    1.07e+00
2006 03 27  0420    53821   15600      0    1.52e+00    0    1.06e+00
2006 03 27  0425    53821   15900      0    1.52e+00    0    1.07e+00
2006 03 27  0430    53821   16200      0    1.53e+00    0    1.07e+00
2006 03 27  0435    53821   16500      0    1.53e+00    0    1.07e+00
2006 03 27  0440    53821   16800      0    1.54e+00    0    1.08e+00
2006 03 27  0445    53821   17100      0    1.55e+00    0    1.10e+00
2006 03 27  0450    53821   17400      0    1.50e+00    0    1.05e+00
2006 03 27  0455    53821   17700      0    1.55e+00    0    1.08e+00
2006 03 27  0500    53821   18000      0    1.55e+00    0    1.09e+00
2006 03 27  0505    53821   18300      0    1.58e+00    0    1.10e+00
2006 03 27  0510    53821   18600      0    1.45e+00    0    1.01e+00
2006 03 27  0515    53821   18900      0    1.53e+00    0    1.07e+00
2006 03 27  0520    53821   19200      0    1.54e+00    0    1.07e+00
2006 03 27  0525    53821   19500      0    1.57e+00    0    1.10e+00
2006 03 27  0530    53821   19800      0    1.52e+00    0    1.06e+00
2006 03 27  0535    53821   20100      0    1.57e+00    0    1.10e+00
2006 03 27  0540    53821   20400      0    1.53e+00    0    1.07e+00
2006 03 27  0545    53821   20700      0    1.56e+00    0    1.10e+00
2006 03 27  0550    53821   21000      0    1.56e+00    0    1.08e+00
2006 03 27  0555    53821   21300      0    1.55e+00    0    1.09e+00
2006 03 27  0600    53821   21600      0    1.55e+00    0    1.09e+00
2006 03 27  0605    53821   21900      0    1.54e+00    0    1.08e+00
2006 03 27  0610    53821   22200      0    1.60e+00    0    1.12e+00
2006 03 27  0615    53821   22500      0    1.54e+00    0    1.07e+00
2006 03 27  0620    53821   22800      0    1.51e+00    0    1.07e+00
2006 03 27  0625    53821   23100      0    1.51e+00    0    1.05e+00
2006 03 27  0630    53821   23400      0    1.53e+00    0    1.07e+00
2006 03 27  0635    53821   23700      0    1.53e+00    0    1.06e+00
2006 03 27  0640    53821   24000      0    1.52e+00    0    1.07e+00
2006 03 27  0645    53821   24300      0    1.55e+00    0    1.09e+00
2006 03 27  0650    53821   24600      0    1.53e+00    0    1.07e+00
2006 03 27  0655    53821   24900      0    1.56e+00    0    1.10e+00
2006 03 27  0700    53821   25200      0    1.54e+00    0    1.07e+00
2006 03 27  0705    53821   25500      0    1.54e+00    0    1.08e+00
2006 03 27  0710    53821   25800      0    1.53e+00    0    1.07e+00
2006 03 27  0715    53821   26100      0    1.56e+00    0    1.09e+00
2006 03 27  0720    53821   26400      0    1.54e+00    0    1.07e+00
2006 03 27  0725    53821   26700      0    1.53e+00    0    1.07e+00
2006 03 27  0730    53821   27000      0    1.54e+00    0    1.07e+00
2006 03 27  0735    53821   27300      0    1.50e+00    0    1.05e+00
2006 03 27  0740    53821   27600      0    1.53e+00    0    1.07e+00
2006 03 27  0745    53821   27900      0    1.52e+00    0    1.07e+00
2006 03 27  0750    53821   28200      0    1.53e+00    0    1.08e+00
2006 03 27  0755    53821   28500      0    1.56e+00    0    1.11e+00
2006 03 27  0800    53821   28800      0    1.53e+00    0    1.08e+00
2006 03 27  0805    53821   29100      0    1.54e+00    0    1.09e+00
2006 03 27  0810    53821   29400      0    1.54e+00    0    1.07e+00
2006 03 27  0815    53821   29700      0    1.52e+00    0    1.08e+00
2006 03 27  0820    53821   30000      0    1.55e+00    0    1.10e+00
2006 03 27  0825    53821   30300      0    1.53e+00    0    1.07e+00
2006 03 27  0830    53821   30600      0    1.57e+00    0    1.09e+00
2006 03 27  0835    53821   30900      0    1.55e+00    0    1.09e+00
2006 03 27  0840    53821   31200      0    1.54e+00    0    1.08e+00
2006 03 27  0845    53821   31500      0    1.58e+00    0    1.10e+00
2006 03 27  0850    53821   31800      0    1.52e+00    0    1.07e+00
2006 03 27  0855    53821   32100      0    1.52e+00    0    1.06e+00
2006 03 27  0900    53821   32400      0    1.55e+00    0    1.07e+00
2006 03 27  0905    53821   32700      0    1.52e+00    0    1.07e+00
2006 03 27  0910    53821   33000      0    1.51e+00    0    1.07e+00
2006 03 27  0915    53821   33300      0    1.55e+00    0    1.08e+00
2006 03 27  0920    53821   33600      0    1.53e+00    0    1.07e+00
2006 03 27  0925    53821   33900      0    1.55e+00    0    1.09e+00
2006 03 27  0930    53821   34200      0    1.53e+00    0    1.07e+00
2006 03 27  0935    53821   34500      0    1.55e+00    0    1.09e+00
2006 03 27  0940    53821   34800      0    1.59e+00    0    1.11e+00
2006 03 27  0945    53821   35100      0    1.54e+00    0    1.08e+00
2006 03 27  0950    53821   35400      0    1.57e+00    0    1.09e+00
2006 03 27  0955    53821   35700      0    1.55e+00    0    1.08e+00
2006 03 27  1000    53821   36000      0    1.54e+00    0    1.08e+00
2006 03 27  1005    53821   36300      0    1.55e+00    0    1.10e+00
2006 03 27  1010    53821   36600      0    1.54e+00    0    1.09e+00
2006 03 27  1015    53821   36900      0    1.54e+00    0    1.07e+00
2006 03 27  1020    53821   37200      0    1.56e+00    0    1.10e+00
2006 03 27  1025    53821   37500      0    1.56e+00    0    1.10e+00
2006 03 27  1030    53821   37800      0    1.54e+00    0    1.08e+00
2006 03 27  1035    53821   38100      0    1.54e+00    0    1.08e+00
2006 03 27  1040    53821   38400      0    1.53e+00    0    1.08e+00
2006 03 27  1045    53821   38700      0    1.56e+00    0    1.10e+00
2006 03 27  1050    53821   39000      0    1.54e+00    0    1.08e+00
2006 03 27  1055    53821   39300      0    1.53e+00    0    1.07e+00
2006 03 27  1100    53821   39600      0    1.57e+00    0    1.11e+00
2006 03 27  1105    53821   39900      0    1.55e+00    0    1.09e+00
2006 03 27  1110    53821   40200      0    1.52e+00    0    1.08e+00
2006 03 27  1115    53821   40500      0    1.53e+00    0    1.08e+00
2006 03 27  1120    53821   40800      0    1.56e+00    0    1.09e+00
2006 03 27  1125    53821   41100      0    1.57e+00    0    1.10e+00
2006 03 27  1130    53821   41400      0    1.57e+00    0    1.11e+00
2006 03 27  1135    53821   41700      0    1.54e+00    0    1.07e+00
2006 03 27  1140    53821   42000      0    1.57e+00    0    1.09e+00
2006 03 27  1145    53821   42300      0    1.55e+00    0    1.09e+00
2006 03 27  1150    53821   42600      0    1.53e+00    0    1.07e+00
2006 03 27  1155    53821   42900      0    1.54e+00    0    1.08e+00
2006 03 27  1200    53821   43200      0    1.50e+00    0    1.05e+00
2006 03 27  1205    53821   43500      0    1.54e+00    0    1.09e+00
2006 03 27  1210    53821   43800      0    1.55e+00    0    1.08e+00
2006 03 27  1215    53821   44100      0    1.53e+00    0    1.07e+00
2006 03 27  1220    53821   44400      0    1.55e+00    0    1.09e+00
2006 03 27  1225    53821   44700      0    1.56e+00    0    1.10e+00
2006 03 27  1230    53821   45000      0    1.54e+00    0    1.09e+00
2006 03 27  1235    53821   45300      0    1.54e+00    0    1.09e+00
2006 03 27  1240    53821   45600      0    1.52e+00    0    1.06e+00
2006 03 27  1245    53821   45900      0    1.59e+00    0    1.12e+00
2006 03 27  1250    53821   46200      0    1.55e+00    0    1.09e+00
2006 03 27  1255    53821   46500      0    1.56e+00    0    1.09e+00
2006 03 27  1300    53821   46800      0    1.56e+00    0    1.09e+00
2006 03 27  1305    53821   47100      0    1.54e+00    0    1.09e+00
2006 03 27  1310    53821   47400      0    1.60e+00    0    1.12e+00
2006 03 27  1315    53821   47700      0    1.53e+00    0    1.06e+00
2006 03 27  1320    53821   48000      0    1.57e+00    0    1.10e+00
2006 03 27  1325    53821   48300      0    1.55e+00    0    1.10e+00
2006 03 27  1330    53821   48600      0    1.54e+00    0    1.07e+00
2006 03 27  1335    53821   48900      0    1.53e+00    0    1.08e+00
2006 03 27  1340    53821   49200      0    1.56e+00    0    1.09e+00
2006 03 27  1345    53821   49500      0    1.57e+00    0    1.09e+00
2006 03 27  1350    53821   49800      0    1.54e+00    0    1.08e+00
2006 03 27  1355    53821   50100      0    1.59e+00    0    1.13e+00
2006 03 27  1400    53821   50400      0    1.56e+00    0    1.09e+00
2006 03 27  1405    53821   50700      0    1.60e+00    0    1.12e+00
2006 03 27  1410    53821   51000      0    1.56e+00    0    1.09e+00
2006 03 27  1415    53821   51300      0    1.60e+00    0    1.11e+00
2006 03 27  1420    53821   51600      0    1.59e+00    0    1.12e+00
2006 03 27  1425    53821   51900      0    1.53e+00    0    1.07e+00
2006 03 27  1430    53821   52200      0    1.59e+00    0    1.12e+00
2006 03 27  1435    53821   52500      0    1.57e+00    0    1.09e+00
2006 03 27  1440    53821   52800      0    1.58e+00    0    1.10e+00
2006 03 27  1445    53821   53100      0    1.57e+00    0    1.10e+00
2006 03 27  1450    53821   53400      0    1.48e+00    0    1.04e+00
2006 03 27  1455    53821   53700      0    1.55e+00    0    1.10e+00
2006 03 27  1500    53821   54000      0    1.56e+00    0    1.09e+00
2006 03 27  1505    53821   54300      0    1.54e+00    0    1.09e+00
2006 03 27  1510    53821   54600      0    1.54e+00    0    1.07e+00
2006 03 27  1515    53821   54900      0    1.55e+00    0    1.08e+00
2006 03 27  1520    53821   55200      0    1.57e+00    0    1.10e+00
2006 03 27  1525    53821   55500      0    1.59e+00    0    1.11e+00
2006 03 27  1530    53821   55800      0    1.58e+00    0    1.11e+00
2006 03 27  1535    53821   56100      0    1.57e+00    0    1.10e+00
2006 03 27  1540    53821   56400      0    1.56e+00    0    1.10e+00
2006 03 27  1545    53821   56700      0    1.56e+00    0    1.09e+00
2006 03 27  1550    53821   57000      0    1.52e+00    0    1.08e+00
2006 03 27  1555    53821   57300      0    1.55e+00    0    1.09e+00
2006 03 27  1600    53821   57600      0    1.57e+00    0    1.10e+00
2006 03 27  1605    53821   57900      0    1.52e+00    0    1.06e+00
2006 03 27  1610    53821   58200      0    1.56e+00    0    1.10e+00
2006 03 27  1615    53821   58500      0    1.55e+00    0    1.08e+00
2006 03 27  1620    53821   58800      0    1.55e+00    0    1.09e+00
2006 03 27  1625    53821   59100      0    1.56e+00    0    1.09e+00
2006 03 27  1630    53821   59400      0    1.58e+00    0    1.11e+00
2006 03 27  1635    53821   59700      0    1.56e+00    0    1.09e+00
2006 03 27  1640    53821   60000      0    1.55e+00    0    1.10e+00
2006 03 27  1645    53821   60300      0    1.54e+00    0    1.07e+00
2006 03 27  1650    53821   60600      0    1.53e+00    0    1.08e+00
2006 03 27  1655    53821   60900      0    1.58e+00    0    1.11e+00
2006 03 27  1700    53821   61200      0    1.55e+00    0    1.09e+00
2006 03 27  1705    53821   61500      0    1.57e+00    0    1.10e+00
2006 03 27  1710    53821   61800      0    1.55e+00    0    1.08e+00
2006 03 27  1715    53821   62100      0    1.54e+00    0    1.09e+00
2006 03 27  1720    53821   62400      0    1.52e+00    0    1.07e+00
2006 03 27  1725    53821   62700      0    1.58e+00    0    1.10e+00
2006 03 27  1730    53821   63000      0    1.58e+00    0    1.11e+00
2006 03 27  1735    53821   63300      0    1.55e+00    0    1.09e+00
2006 03 27  1740    53821   63600      0    1.51e+00    0    1.06e+00
2006 03 27  1745    53821   63900      0    1.56e+00    0    1.10e+00
2006 03 27  1750    53821   64200      0    1.53e+00    0    1.08e+00
2006 03 27  1755    53821   64500      0    1.54e+00    0    1.07e+00
2006 03 27  1800    53821   64800      0    1.54e+00    0    1.08e+00
2006 03 27  1805    53821   65100      0    1.55e+00    0    1.09e+00
2006 03 27  1810    53821   65400      0    1.56e+00    0    1.09e+00
2006 03 27  1815    53821   65700      0    1.56e+00    0    1.09e+00
2006 03 27  1820    53821   66000      0    1.56e+00    0    1.10e+00
2006 03 27  1825    53821   66300      0    1.54e+00    0    1.08e+00
2006 03 27  1830    53821   66600      0    1.55e+00    0    1.09e+00
2006 03 27  1835    53821   66900      0    1.54e+00    0    1.09e+00
2006 03 27  1840    53821   67200      0    1.55e+00    0    1.08e+00
2006 03 27  1845    53821   67500      0    1.57e+00    0    1.10e+00
2006 03 27  1850    53821   67800      0    1.55e+00    0    1.08e+00
2006 03 27  1855    53821   68100      0    1.55e+00    0    1.09e+00
2006 03 27  1900    53821   68400      0    1.55e+00    0    1.09e+00
2006 03 27  1905    53821   68700      0    1.56e+00    0    1.10e+00
2006 03 27  1910    53821   69000      0    1.53e+00    0    1.07e+00
2006 03 27  1915    53821   69300      0    1.53e+00    0    1.07e+00
2006 03 27  1920    53821   69600      0    1.56e+00    0    1.10e+00
2006 03 27  1925    53821   69900      0    1.54e+00    0    1.07e+00
2006 03 27  1930    53821   70200      0    1.57e+00    0    1.10e+00
2006 03 27  1935    53821   70500      0    1.54e+00    0    1.09e+00
2006 03 27  1940    53821   70800      0    1.51e+00    0    1.06e+00
2006 03 27  1945    53821   71100      0    1.55e+00    0    1.09e+00
2006 03 27  1950    53821   71400      0    1.55e+00    0    1.09e+00
2006 03 27  1955    53821   71700      0    1.55e+00    0    1.10e+00
2006 03 27  2000    53821   72000      0    1.54e+00    0    1.08e+00
2006 03 27  2005    53821   72300      0    1.54e+00    0    1.08e+00
2006 03 27  2010    53821   72600      0    1.55e+00    0    1.09e+00
2006 03 27  2015    53821   72900      0    1.54e+00    0    1.08e+00
2006 03 27  2020    53821   73200      0    1.53e+00    0    1.08e+00
2006 03 27  2025    53821   73500      0    1.54e+00    0    1.08e+00
2006 03 27  2030    53821   73800      0    1.54e+00    0    1.08e+00
2006 03 27  2035    53821   74100      0    1.55e+00    0    1.08e+00
2006 03 27  2040    53821   74400      0    1.57e+00    0    1.10e+00
2006 03 27  2045    53821   74700      0    1.58e+00    0    1.11e+00
2006 03 27  2050    53821   75000      0    1.55e+00    0    1.09e+00
2006 03 27  2055    53821   75300      0    1.53e+00    0    1.06e+00
2006 03 27  2100    53821   75600      0    1.56e+00    0    1.10e+00
2006 03 27  2105    53821   75900      0    1.56e+00    0    1.09e+00
2006 03 27  2110    53821   76200      0    1.53e+00    0    1.08e+00
2006 03 27  2115    53821   76500      0    1.56e+00    0    1.09e+00
2006 03 27  2120    53821   76800      0    1.56e+00    0    1.09e+00
2006 03 27  2125    53821   77100      0    1.57e+00    0    1.10e+00
2006 03 27  2130    53821   77400      0    1.57e+00    0    1.10e+00
2006 03 27  2135    53821   77700      0    1.51e+00    0    1.05e+00
2006 03 27  2140    53821   78000      0    1.55e+00    0    1.08e+00
2006 03 27  2145    53821   78300      0    1.55e+00    0    1.08e+00
2006 03 27  2150    53821   78600      0    1.58e+00    0    1.11e+00
2006 03 27  2155    53821   78900      0    1.54e+00    0    1.07e+00
2006 03 27  2200    53821   79200      0    1.55e+00    0    1.08e+00
2006 03 27  2205    53821   79500      0    1.57e+00    0    1.10e+00
2006 03 27  2210    53821   79800      0    1.56e+00    0    1.08e+00
2006 03 27  2215    53821   80100      0    1.61e+00    0    1.13e+00
2006 03 27  2220    53821   80400      0    1.55e+00    0    1.10e+00
2006 03 27  2225    53821   80700      0    1.55e+00    0    1.09e+00
2006 03 27  2230    53821   81000      0    1.52e+00    0    1.06e+00
2006 03 27  2235    53821   81300      0    1.55e+00    0    1.09e+00
2006 03 27  2240    53821   81600      0    1.51e+00    0    1.07e+00
2006 03 27  2245    53821   81900      0    1.55e+00    0    1.08e+00
2006 03 27  2250    53821   82200      0    1.56e+00    0    1.09e+00
2006 03 27  2255    53821   82500      0    1.55e+00    0    1.08e+00
2006 03 27  2300    53821   82800      0    1.54e+00    0    1.07e+00
2006 03 27  2305    53821   83100      0    1.54e+00    0    1.08e+00
2006 03 27  2310    53821   83400      0    1.54e+00    0    1.08e+00
2006 03 27  2315    53821   83700      0    1.53e+00    0    1.07e+00
2006 03 27  2320    53821   84000      0    1.56e+00    0    1.09e+00
2006 03 27  2325    53821   84300      0    1.55e+00    0    1.09e+00
2006 03 27  2330    53821   84600      0    1.57e+00    0    1.11e+00
2006 03 27  2335    53821   84900      0    1.54e+00    0    1.09e+00
2006 03 27  2340    53821   85200      0    1.50e+00    0    1.05e+00
2006 03 27  2345    53821   85500      0    1.54e+00    0    1.08e+00
2006 03 27  2350    53821   85800      0    1.54e+00    0    1.09e+00
2006 03 27  2355    53821   86100      0    1.56e+00    0    1.09e+00
