:Data_list: 20060814_ace_sis_5m.txt
:Created: 2006 Aug 15 0011 UT
# Prepared by the U.S. Dept. of Commerce, NOAA, Space Environment Center.
# Please send comments and suggestions to SEC.Webmaster@noaa.gov 
# 
# Units: proton flux p/cs2-sec-ster
# Status(S): 0 = nominal data, 1 to 8 = bad data record, 9 = no data
# Missing data values: -1.00e+05
# Source: ACE Satellite - Solar Isotope Spectrometer
#
# 5-minute averaged Real-time Integral Flux of High-energy Solar Protons
# 
#                 Modified Seconds
# UT Date   Time   Julian  of the      ---- Integral Proton Flux ----
# YR MO DA  HHMM     Day     Day       S    > 10 MeV    S    > 30 MeV
#--------------------------------------------------------------------
2006 08 14  0000    53961       0      0    1.66e+00    0    1.16e+00
2006 08 14  0005    53961     300      0    1.68e+00    0    1.18e+00
2006 08 14  0010    53961     600      0    1.68e+00    0    1.19e+00
2006 08 14  0015    53961     900      0    1.66e+00    0    1.17e+00
2006 08 14  0020    53961    1200      0    1.70e+00    0    1.18e+00
2006 08 14  0025    53961    1500      0    1.72e+00    0    1.20e+00
2006 08 14  0030    53961    1800      0    1.71e+00    0    1.21e+00
2006 08 14  0035    53961    2100      0    1.71e+00    0    1.19e+00
2006 08 14  0040    53961    2400      0    1.67e+00    0    1.17e+00
2006 08 14  0045    53961    2700      0    1.70e+00    0    1.20e+00
2006 08 14  0050    53961    3000      0    1.64e+00    0    1.15e+00
2006 08 14  0055    53961    3300      0    1.69e+00    0    1.18e+00
2006 08 14  0100    53961    3600      0    1.65e+00    0    1.18e+00
2006 08 14  0105    53961    3900      0    1.72e+00    0    1.21e+00
2006 08 14  0110    53961    4200      0    1.71e+00    0    1.20e+00
2006 08 14  0115    53961    4500      0    1.69e+00    0    1.20e+00
2006 08 14  0120    53961    4800      0    1.69e+00    0    1.19e+00
2006 08 14  0125    53961    5100      0    1.70e+00    0    1.19e+00
2006 08 14  0130    53961    5400      0    1.66e+00    0    1.16e+00
2006 08 14  0135    53961    5700      0    1.69e+00    0    1.19e+00
2006 08 14  0140    53961    6000      0    1.69e+00    0    1.18e+00
2006 08 14  0145    53961    6300      0    1.71e+00    0    1.20e+00
2006 08 14  0150    53961    6600      0    1.70e+00    0    1.18e+00
2006 08 14  0155    53961    6900      0    1.70e+00    0    1.20e+00
2006 08 14  0200    53961    7200      0    1.67e+00    0    1.17e+00
2006 08 14  0205    53961    7500      0    1.70e+00    0    1.19e+00
2006 08 14  0210    53961    7800      0    1.66e+00    0    1.16e+00
2006 08 14  0215    53961    8100      0    1.69e+00    0    1.19e+00
2006 08 14  0220    53961    8400      0    1.68e+00    0    1.18e+00
2006 08 14  0225    53961    8700      0    1.66e+00    0    1.15e+00
2006 08 14  0230    53961    9000      0    1.69e+00    0    1.20e+00
2006 08 14  0235    53961    9300      0    1.68e+00    0    1.19e+00
2006 08 14  0240    53961    9600      0    1.69e+00    0    1.20e+00
2006 08 14  0245    53961    9900      0    1.68e+00    0    1.17e+00
2006 08 14  0250    53961   10200      0    1.71e+00    0    1.21e+00
2006 08 14  0255    53961   10500      0    1.69e+00    0    1.17e+00
2006 08 14  0300    53961   10800      0    1.61e+00    0    1.13e+00
2006 08 14  0305    53961   11100      0    1.65e+00    0    1.15e+00
2006 08 14  0310    53961   11400      0    1.65e+00    0    1.15e+00
2006 08 14  0315    53961   11700      0    1.65e+00    0    1.15e+00
2006 08 14  0320    53961   12000      0    1.70e+00    0    1.20e+00
2006 08 14  0325    53961   12300      0    1.67e+00    0    1.17e+00
2006 08 14  0330    53961   12600      0    1.71e+00    0    1.20e+00
2006 08 14  0335    53961   12900      0    1.72e+00    0    1.21e+00
2006 08 14  0340    53961   13200      0    1.64e+00    0    1.14e+00
2006 08 14  0345    53961   13500      0    1.68e+00    0    1.17e+00
2006 08 14  0350    53961   13800      0    1.68e+00    0    1.18e+00
2006 08 14  0355    53961   14100      0    1.69e+00    0    1.18e+00
2006 08 14  0400    53961   14400      0    1.70e+00    0    1.20e+00
2006 08 14  0405    53961   14700      0    1.69e+00    0    1.18e+00
2006 08 14  0410    53961   15000      0    1.71e+00    0    1.20e+00
2006 08 14  0415    53961   15300      0    1.67e+00    0    1.17e+00
2006 08 14  0420    53961   15600      0    1.67e+00    0    1.17e+00
2006 08 14  0425    53961   15900      0    1.66e+00    0    1.17e+00
2006 08 14  0430    53961   16200      0    1.66e+00    0    1.15e+00
2006 08 14  0435    53961   16500      0    1.69e+00    0    1.18e+00
2006 08 14  0440    53961   16800      0    1.75e+00    0    1.22e+00
2006 08 14  0445    53961   17100      0    1.67e+00    0    1.16e+00
2006 08 14  0450    53961   17400      0    1.71e+00    0    1.19e+00
2006 08 14  0455    53961   17700      0    1.69e+00    0    1.18e+00
2006 08 14  0500    53961   18000      0    1.68e+00    0    1.18e+00
2006 08 14  0505    53961   18300      0    1.68e+00    0    1.18e+00
2006 08 14  0510    53961   18600      0    1.70e+00    0    1.18e+00
2006 08 14  0515    53961   18900      0    1.67e+00    0    1.17e+00
2006 08 14  0520    53961   19200      0    1.69e+00    0    1.19e+00
2006 08 14  0525    53961   19500      0    1.72e+00    0    1.21e+00
2006 08 14  0530    53961   19800      0    1.64e+00    0    1.16e+00
2006 08 14  0535    53961   20100      0    1.66e+00    0    1.16e+00
2006 08 14  0540    53961   20400      0    1.69e+00    0    1.19e+00
2006 08 14  0545    53961   20700      0    1.66e+00    0    1.17e+00
2006 08 14  0550    53961   21000      0    1.68e+00    0    1.17e+00
2006 08 14  0555    53961   21300      0    1.69e+00    0    1.17e+00
2006 08 14  0600    53961   21600      0    1.67e+00    0    1.18e+00
2006 08 14  0605    53961   21900      0    1.71e+00    0    1.20e+00
2006 08 14  0610    53961   22200      0    1.68e+00    0    1.18e+00
2006 08 14  0615    53961   22500      0    1.67e+00    0    1.16e+00
2006 08 14  0620    53961   22800      0    1.69e+00    0    1.19e+00
2006 08 14  0625    53961   23100      0    1.66e+00    0    1.16e+00
2006 08 14  0630    53961   23400      0    1.67e+00    0    1.17e+00
2006 08 14  0635    53961   23700      0    1.70e+00    0    1.20e+00
2006 08 14  0640    53961   24000      0    1.67e+00    0    1.16e+00
2006 08 14  0645    53961   24300      0    1.68e+00    0    1.17e+00
2006 08 14  0650    53961   24600      0    1.68e+00    0    1.16e+00
2006 08 14  0655    53961   24900      0    1.68e+00    0    1.19e+00
2006 08 14  0700    53961   25200      0    1.70e+00    0    1.19e+00
2006 08 14  0705    53961   25500      0    1.66e+00    0    1.16e+00
2006 08 14  0710    53961   25800      0    1.65e+00    0    1.15e+00
2006 08 14  0715    53961   26100      0    1.66e+00    0    1.17e+00
2006 08 14  0720    53961   26400      0    1.68e+00    0    1.19e+00
2006 08 14  0725    53961   26700      0    1.71e+00    0    1.20e+00
2006 08 14  0730    53961   27000      0    1.70e+00    0    1.19e+00
2006 08 14  0735    53961   27300      0    1.71e+00    0    1.20e+00
2006 08 14  0740    53961   27600      0    1.71e+00    0    1.19e+00
2006 08 14  0745    53961   27900      0    1.68e+00    0    1.18e+00
2006 08 14  0750    53961   28200      0    1.68e+00    0    1.18e+00
2006 08 14  0755    53961   28500      0    1.68e+00    0    1.18e+00
2006 08 14  0800    53961   28800      0    1.68e+00    0    1.17e+00
2006 08 14  0805    53961   29100      0    1.69e+00    0    1.18e+00
2006 08 14  0810    53961   29400      0    1.69e+00    0    1.19e+00
2006 08 14  0815    53961   29700      0    1.68e+00    0    1.18e+00
2006 08 14  0820    53961   30000      0    1.70e+00    0    1.20e+00
2006 08 14  0825    53961   30300      0    1.68e+00    0    1.18e+00
2006 08 14  0830    53961   30600      0    1.70e+00    0    1.19e+00
2006 08 14  0835    53961   30900      0    1.68e+00    0    1.17e+00
2006 08 14  0840    53961   31200      0    1.71e+00    0    1.20e+00
2006 08 14  0845    53961   31500      0    1.72e+00    0    1.21e+00
2006 08 14  0850    53961   31800      0    1.68e+00    0    1.17e+00
2006 08 14  0855    53961   32100      0    1.70e+00    0    1.20e+00
2006 08 14  0900    53961   32400      0    1.70e+00    0    1.19e+00
2006 08 14  0905    53961   32700      0    1.70e+00    0    1.18e+00
2006 08 14  0910    53961   33000      0    1.67e+00    0    1.17e+00
2006 08 14  0915    53961   33300      0    1.73e+00    0    1.21e+00
2006 08 14  0920    53961   33600      0    1.70e+00    0    1.18e+00
2006 08 14  0925    53961   33900      0    1.67e+00    0    1.17e+00
2006 08 14  0930    53961   34200      0    1.67e+00    0    1.18e+00
2006 08 14  0935    53961   34500      0    1.67e+00    0    1.18e+00
2006 08 14  0940    53961   34800      0    1.69e+00    0    1.19e+00
2006 08 14  0945    53961   35100      0    1.70e+00    0    1.19e+00
2006 08 14  0950    53961   35400      0    1.65e+00    0    1.16e+00
2006 08 14  0955    53961   35700      0    1.67e+00    0    1.18e+00
2006 08 14  1000    53961   36000      0    1.70e+00    0    1.19e+00
2006 08 14  1005    53961   36300      0    1.67e+00    0    1.16e+00
2006 08 14  1010    53961   36600      0    1.67e+00    0    1.17e+00
2006 08 14  1015    53961   36900      0    1.68e+00    0    1.17e+00
2006 08 14  1020    53961   37200      0    1.70e+00    0    1.19e+00
2006 08 14  1025    53961   37500      0    1.72e+00    0    1.21e+00
2006 08 14  1030    53961   37800      0    1.70e+00    0    1.19e+00
2006 08 14  1035    53961   38100      0    1.67e+00    0    1.17e+00
2006 08 14  1040    53961   38400      0    1.69e+00    0    1.18e+00
2006 08 14  1045    53961   38700      0    1.67e+00    0    1.17e+00
2006 08 14  1050    53961   39000      0    1.70e+00    0    1.21e+00
2006 08 14  1055    53961   39300      0    1.67e+00    0    1.17e+00
2006 08 14  1100    53961   39600      0    1.69e+00    0    1.19e+00
2006 08 14  1105    53961   39900      0    1.70e+00    0    1.18e+00
2006 08 14  1110    53961   40200      0    1.71e+00    0    1.20e+00
2006 08 14  1115    53961   40500      0    1.69e+00    0    1.18e+00
2006 08 14  1120    53961   40800      0    1.67e+00    0    1.17e+00
2006 08 14  1125    53961   41100      0    1.70e+00    0    1.20e+00
2006 08 14  1130    53961   41400      0    1.66e+00    0    1.15e+00
2006 08 14  1135    53961   41700      0    1.69e+00    0    1.18e+00
2006 08 14  1140    53961   42000      0    1.68e+00    0    1.17e+00
2006 08 14  1145    53961   42300      0    1.68e+00    0    1.19e+00
2006 08 14  1150    53961   42600      0    1.69e+00    0    1.19e+00
2006 08 14  1155    53961   42900      0    1.71e+00    0    1.20e+00
2006 08 14  1200    53961   43200      0    1.67e+00    0    1.17e+00
2006 08 14  1205    53961   43500      0    1.68e+00    0    1.17e+00
2006 08 14  1210    53961   43800      0    1.70e+00    0    1.19e+00
2006 08 14  1215    53961   44100      0    1.67e+00    0    1.16e+00
2006 08 14  1220    53961   44400      0    1.68e+00    0    1.18e+00
2006 08 14  1225    53961   44700      0    1.69e+00    0    1.19e+00
2006 08 14  1230    53961   45000      0    1.70e+00    0    1.19e+00
2006 08 14  1235    53961   45300      0    1.67e+00    0    1.17e+00
2006 08 14  1240    53961   45600      0    1.69e+00    0    1.17e+00
2006 08 14  1245    53961   45900      0    1.72e+00    0    1.21e+00
2006 08 14  1250    53961   46200      0    1.69e+00    0    1.19e+00
2006 08 14  1255    53961   46500      0    1.69e+00    0    1.18e+00
2006 08 14  1300    53961   46800      0    1.69e+00    0    1.19e+00
2006 08 14  1305    53961   47100      0    1.69e+00    0    1.20e+00
2006 08 14  1310    53961   47400      0    1.68e+00    0    1.18e+00
2006 08 14  1315    53961   47700      0    1.65e+00    0    1.15e+00
2006 08 14  1320    53961   48000      0    1.71e+00    0    1.19e+00
2006 08 14  1325    53961   48300      0    1.71e+00    0    1.20e+00
2006 08 14  1330    53961   48600      0    1.67e+00    0    1.17e+00
2006 08 14  1335    53961   48900      0    1.67e+00    0    1.17e+00
2006 08 14  1340    53961   49200      0    1.69e+00    0    1.18e+00
2006 08 14  1345    53961   49500      0    1.66e+00    0    1.15e+00
2006 08 14  1350    53961   49800      0    1.68e+00    0    1.17e+00
2006 08 14  1355    53961   50100      0    1.67e+00    0    1.17e+00
2006 08 14  1400    53961   50400      0    1.70e+00    0    1.20e+00
2006 08 14  1405    53961   50700      0    1.71e+00    0    1.20e+00
2006 08 14  1410    53961   51000      0    1.69e+00    0    1.18e+00
2006 08 14  1415    53961   51300      0    1.65e+00    0    1.16e+00
2006 08 14  1420    53961   51600      0    1.68e+00    0    1.17e+00
2006 08 14  1425    53961   51900      0    1.69e+00    0    1.20e+00
2006 08 14  1430    53961   52200      0    1.67e+00    0    1.17e+00
2006 08 14  1435    53961   52500      0    1.70e+00    0    1.20e+00
2006 08 14  1440    53961   52800      0    1.66e+00    0    1.16e+00
2006 08 14  1445    53961   53100      0    1.66e+00    0    1.15e+00
2006 08 14  1450    53961   53400      0    1.64e+00    0    1.15e+00
2006 08 14  1455    53961   53700      0    1.63e+00    0    1.14e+00
2006 08 14  1500    53961   54000      0    1.71e+00    0    1.20e+00
2006 08 14  1505    53961   54300      0    1.66e+00    0    1.17e+00
2006 08 14  1510    53961   54600      0    1.63e+00    0    1.14e+00
2006 08 14  1515    53961   54900      0    1.68e+00    0    1.17e+00
2006 08 14  1520    53961   55200      0    1.67e+00    0    1.18e+00
2006 08 14  1525    53961   55500      0    1.70e+00    0    1.19e+00
2006 08 14  1530    53961   55800      0    1.70e+00    0    1.19e+00
2006 08 14  1535    53961   56100      0    1.71e+00    0    1.20e+00
2006 08 14  1540    53961   56400      0    1.71e+00    0    1.20e+00
2006 08 14  1545    53961   56700      0    1.67e+00    0    1.17e+00
2006 08 14  1550    53961   57000      0    1.63e+00    0    1.14e+00
2006 08 14  1555    53961   57300      0    1.65e+00    0    1.16e+00
2006 08 14  1600    53961   57600      0    1.66e+00    0    1.17e+00
2006 08 14  1605    53961   57900      0    1.68e+00    0    1.19e+00
2006 08 14  1610    53961   58200      0    1.68e+00    0    1.18e+00
2006 08 14  1615    53961   58500      0    1.68e+00    0    1.17e+00
2006 08 14  1620    53961   58800      0    1.60e+00    0    1.12e+00
2006 08 14  1625    53961   59100      0    1.66e+00    0    1.16e+00
2006 08 14  1630    53961   59400      0    1.71e+00    0    1.20e+00
2006 08 14  1635    53961   59700      0    1.69e+00    0    1.20e+00
2006 08 14  1640    53961   60000      0    1.70e+00    0    1.19e+00
2006 08 14  1645    53961   60300      0    1.68e+00    0    1.18e+00
2006 08 14  1650    53961   60600      0    1.69e+00    0    1.19e+00
2006 08 14  1655    53961   60900      0    1.68e+00    0    1.17e+00
2006 08 14  1700    53961   61200      0    1.67e+00    0    1.16e+00
2006 08 14  1705    53961   61500      0    1.66e+00    0    1.17e+00
2006 08 14  1710    53961   61800      0    1.66e+00    0    1.17e+00
2006 08 14  1715    53961   62100      0    1.67e+00    0    1.16e+00
2006 08 14  1720    53961   62400      0    1.71e+00    0    1.20e+00
2006 08 14  1725    53961   62700      0    1.69e+00    0    1.19e+00
2006 08 14  1730    53961   63000      0    1.67e+00    0    1.16e+00
2006 08 14  1735    53961   63300      0    1.67e+00    0    1.17e+00
2006 08 14  1740    53961   63600      0    1.68e+00    0    1.17e+00
2006 08 14  1745    53961   63900      0    1.71e+00    0    1.20e+00
2006 08 14  1750    53961   64200      0    1.64e+00    0    1.14e+00
2006 08 14  1755    53961   64500      0    1.68e+00    0    1.17e+00
2006 08 14  1800    53961   64800      0    1.69e+00    0    1.18e+00
2006 08 14  1805    53961   65100      0    1.69e+00    0    1.18e+00
2006 08 14  1810    53961   65400      0    1.64e+00    0    1.15e+00
2006 08 14  1815    53961   65700      0    1.67e+00    0    1.16e+00
2006 08 14  1820    53961   66000      0    1.71e+00    0    1.21e+00
2006 08 14  1825    53961   66300      0    1.68e+00    0    1.17e+00
2006 08 14  1830    53961   66600      0    1.65e+00    0    1.14e+00
2006 08 14  1835    53961   66900      0    1.67e+00    0    1.16e+00
2006 08 14  1840    53961   67200      0    1.69e+00    0    1.17e+00
2006 08 14  1845    53961   67500      0    1.71e+00    0    1.20e+00
2006 08 14  1850    53961   67800      0    1.66e+00    0    1.17e+00
2006 08 14  1855    53961   68100      0    1.71e+00    0    1.20e+00
2006 08 14  1900    53961   68400      0    1.66e+00    0    1.16e+00
2006 08 14  1905    53961   68700      0    1.66e+00    0    1.15e+00
2006 08 14  1910    53961   69000      0    1.69e+00    0    1.18e+00
2006 08 14  1915    53961   69300      0    1.68e+00    0    1.16e+00
2006 08 14  1920    53961   69600      0    1.65e+00    0    1.16e+00
2006 08 14  1925    53961   69900      0    1.67e+00    0    1.17e+00
2006 08 14  1930    53961   70200      0    1.68e+00    0    1.17e+00
2006 08 14  1935    53961   70500      0    1.66e+00    0    1.17e+00
2006 08 14  1940    53961   70800      0    1.70e+00    0    1.19e+00
2006 08 14  1945    53961   71100      0    1.65e+00    0    1.17e+00
2006 08 14  1950    53961   71400      0    1.70e+00    0    1.18e+00
2006 08 14  1955    53961   71700      0    1.68e+00    0    1.16e+00
2006 08 14  2000    53961   72000      0    1.66e+00    0    1.15e+00
2006 08 14  2005    53961   72300      0    1.68e+00    0    1.17e+00
2006 08 14  2010    53961   72600      0    1.65e+00    0    1.16e+00
2006 08 14  2015    53961   72900      0    1.67e+00    0    1.17e+00
2006 08 14  2020    53961   73200      0    1.69e+00    0    1.19e+00
2006 08 14  2025    53961   73500      0    1.67e+00    0    1.18e+00
2006 08 14  2030    53961   73800      0    1.66e+00    0    1.17e+00
2006 08 14  2035    53961   74100      0    1.68e+00    0    1.18e+00
2006 08 14  2040    53961   74400      0    1.66e+00    0    1.17e+00
2006 08 14  2045    53961   74700      0    1.68e+00    0    1.18e+00
2006 08 14  2050    53961   75000      0    1.68e+00    0    1.18e+00
2006 08 14  2055    53961   75300      0    1.65e+00    0    1.16e+00
2006 08 14  2100    53961   75600      0    1.67e+00    0    1.16e+00
2006 08 14  2105    53961   75900      0    1.63e+00    0    1.14e+00
2006 08 14  2110    53961   76200      0    1.72e+00    0    1.20e+00
2006 08 14  2115    53961   76500      0    1.69e+00    0    1.17e+00
2006 08 14  2120    53961   76800      0    1.69e+00    0    1.18e+00
2006 08 14  2125    53961   77100      0    1.69e+00    0    1.20e+00
2006 08 14  2130    53961   77400      0    1.67e+00    0    1.16e+00
2006 08 14  2135    53961   77700      0    1.68e+00    0    1.19e+00
2006 08 14  2140    53961   78000      0    1.67e+00    0    1.18e+00
2006 08 14  2145    53961   78300      0    1.69e+00    0    1.19e+00
2006 08 14  2150    53961   78600      0    1.66e+00    0    1.15e+00
2006 08 14  2155    53961   78900      0    1.65e+00    0    1.15e+00
2006 08 14  2200    53961   79200      0    1.71e+00    0    1.19e+00
2006 08 14  2205    53961   79500      0    1.69e+00    0    1.18e+00
2006 08 14  2210    53961   79800      0    1.65e+00    0    1.17e+00
2006 08 14  2215    53961   80100      0    1.70e+00    0    1.19e+00
2006 08 14  2220    53961   80400      0    1.64e+00    0    1.16e+00
2006 08 14  2225    53961   80700      0    1.65e+00    0    1.15e+00
2006 08 14  2230    53961   81000      0    1.68e+00    0    1.18e+00
2006 08 14  2235    53961   81300      0    1.65e+00    0    1.15e+00
2006 08 14  2240    53961   81600      0    1.68e+00    0    1.18e+00
2006 08 14  2245    53961   81900      0    1.68e+00    0    1.17e+00
2006 08 14  2250    53961   82200      0    1.67e+00    0    1.18e+00
2006 08 14  2255    53961   82500      0    1.71e+00    0    1.21e+00
2006 08 14  2300    53961   82800      0    1.65e+00    0    1.16e+00
2006 08 14  2305    53961   83100      0    1.69e+00    0    1.18e+00
2006 08 14  2310    53961   83400      0    1.69e+00    0    1.19e+00
2006 08 14  2315    53961   83700      0    1.69e+00    0    1.18e+00
2006 08 14  2320    53961   84000      0    1.66e+00    0    1.16e+00
2006 08 14  2325    53961   84300      0    1.69e+00    0    1.18e+00
2006 08 14  2330    53961   84600      0    1.70e+00    0    1.19e+00
2006 08 14  2335    53961   84900      0    1.70e+00    0    1.20e+00
2006 08 14  2340    53961   85200      0    1.69e+00    0    1.18e+00
2006 08 14  2345    53961   85500      0    1.67e+00    0    1.17e+00
2006 08 14  2350    53961   85800      0    1.71e+00    0    1.20e+00
2006 08 14  2355    53961   86100      0    1.66e+00    0    1.17e+00
