:Data_list: 20060520_ace_sis_5m.txt
:Created: 2006 May 21 0011 UT
# Prepared by the U.S. Dept. of Commerce, NOAA, Space Environment Center.
# Please send comments and suggestions to SEC.Webmaster@noaa.gov 
# 
# Units: proton flux p/cs2-sec-ster
# Status(S): 0 = nominal data, 1 to 8 = bad data record, 9 = no data
# Missing data values: -1.00e+05
# Source: ACE Satellite - Solar Isotope Spectrometer
#
# 5-minute averaged Real-time Integral Flux of High-energy Solar Protons
# 
#                 Modified Seconds
# UT Date   Time   Julian  of the      ---- Integral Proton Flux ----
# YR MO DA  HHMM     Day     Day       S    > 10 MeV    S    > 30 MeV
#--------------------------------------------------------------------
2006 05 20  0000    53875       0      0    1.59e+00    0    1.12e+00
2006 05 20  0005    53875     300      0    1.60e+00    0    1.12e+00
2006 05 20  0010    53875     600      0    1.55e+00    0    1.08e+00
2006 05 20  0015    53875     900      0    1.61e+00    0    1.13e+00
2006 05 20  0020    53875    1200      0    1.54e+00    0    1.08e+00
2006 05 20  0025    53875    1500      0    1.54e+00    0    1.10e+00
2006 05 20  0030    53875    1800      0    1.59e+00    0    1.11e+00
2006 05 20  0035    53875    2100      0    1.57e+00    0    1.10e+00
2006 05 20  0040    53875    2400      0    1.57e+00    0    1.11e+00
2006 05 20  0045    53875    2700      0    1.57e+00    0    1.10e+00
2006 05 20  0050    53875    3000      0    1.54e+00    0    1.09e+00
2006 05 20  0055    53875    3300      0    1.57e+00    0    1.10e+00
2006 05 20  0100    53875    3600      0    1.58e+00    0    1.10e+00
2006 05 20  0105    53875    3900      0    1.56e+00    0    1.09e+00
2006 05 20  0110    53875    4200      0    1.59e+00    0    1.13e+00
2006 05 20  0115    53875    4500      0    1.56e+00    0    1.09e+00
2006 05 20  0120    53875    4800      0    1.60e+00    0    1.11e+00
2006 05 20  0125    53875    5100      0    1.60e+00    0    1.12e+00
2006 05 20  0130    53875    5400      0    1.58e+00    0    1.11e+00
2006 05 20  0135    53875    5700      0    1.56e+00    0    1.09e+00
2006 05 20  0140    53875    6000      0    1.57e+00    0    1.09e+00
2006 05 20  0145    53875    6300      0    1.55e+00    0    1.09e+00
2006 05 20  0150    53875    6600      0    1.58e+00    0    1.11e+00
2006 05 20  0155    53875    6900      0    1.59e+00    0    1.12e+00
2006 05 20  0200    53875    7200      0    1.58e+00    0    1.10e+00
2006 05 20  0205    53875    7500      0    1.58e+00    0    1.10e+00
2006 05 20  0210    53875    7800      0    1.57e+00    0    1.10e+00
2006 05 20  0215    53875    8100      0    1.61e+00    0    1.12e+00
2006 05 20  0220    53875    8400      0    1.60e+00    0    1.13e+00
2006 05 20  0225    53875    8700      0    1.59e+00    0    1.11e+00
2006 05 20  0230    53875    9000      0    1.57e+00    0    1.11e+00
2006 05 20  0235    53875    9300      0    1.54e+00    0    1.08e+00
2006 05 20  0240    53875    9600      0    1.57e+00    0    1.09e+00
2006 05 20  0245    53875    9900      0    1.57e+00    0    1.10e+00
2006 05 20  0250    53875   10200      0    1.56e+00    0    1.09e+00
2006 05 20  0255    53875   10500      0    1.56e+00    0    1.10e+00
2006 05 20  0300    53875   10800      0    1.56e+00    0    1.09e+00
2006 05 20  0305    53875   11100      0    1.57e+00    0    1.10e+00
2006 05 20  0310    53875   11400      0    1.57e+00    0    1.10e+00
2006 05 20  0315    53875   11700      0    1.59e+00    0    1.12e+00
2006 05 20  0320    53875   12000      0    1.55e+00    0    1.08e+00
2006 05 20  0325    53875   12300      0    1.57e+00    0    1.10e+00
2006 05 20  0330    53875   12600      0    1.57e+00    0    1.11e+00
2006 05 20  0335    53875   12900      0    1.61e+00    0    1.11e+00
2006 05 20  0340    53875   13200      0    1.58e+00    0    1.11e+00
2006 05 20  0345    53875   13500      0    1.56e+00    0    1.08e+00
2006 05 20  0350    53875   13800      0    1.57e+00    0    1.11e+00
2006 05 20  0355    53875   14100      0    1.58e+00    0    1.11e+00
2006 05 20  0400    53875   14400      0    1.57e+00    0    1.09e+00
2006 05 20  0405    53875   14700      0    1.61e+00    0    1.13e+00
2006 05 20  0410    53875   15000      0    1.58e+00    0    1.09e+00
2006 05 20  0415    53875   15300      0    1.58e+00    0    1.12e+00
2006 05 20  0420    53875   15600      0    1.61e+00    0    1.14e+00
2006 05 20  0425    53875   15900      0    1.57e+00    0    1.09e+00
2006 05 20  0430    53875   16200      0    1.56e+00    0    1.10e+00
2006 05 20  0435    53875   16500      0    1.57e+00    0    1.10e+00
2006 05 20  0440    53875   16800      0    1.52e+00    0    1.08e+00
2006 05 20  0445    53875   17100      0    1.58e+00    0    1.11e+00
2006 05 20  0450    53875   17400      0    1.55e+00    0    1.08e+00
2006 05 20  0455    53875   17700      0    1.58e+00    0    1.10e+00
2006 05 20  0500    53875   18000      0    1.56e+00    0    1.10e+00
2006 05 20  0505    53875   18300      0    1.57e+00    0    1.09e+00
2006 05 20  0510    53875   18600      0    1.59e+00    0    1.12e+00
2006 05 20  0515    53875   18900      0    1.59e+00    0    1.10e+00
2006 05 20  0520    53875   19200      0    1.58e+00    0    1.10e+00
2006 05 20  0525    53875   19500      0    1.56e+00    0    1.08e+00
2006 05 20  0530    53875   19800      0    1.57e+00    0    1.10e+00
2006 05 20  0535    53875   20100      0    1.58e+00    0    1.10e+00
2006 05 20  0540    53875   20400      0    1.61e+00    0    1.13e+00
2006 05 20  0545    53875   20700      0    1.56e+00    0    1.09e+00
2006 05 20  0550    53875   21000      0    1.56e+00    0    1.09e+00
2006 05 20  0555    53875   21300      0    1.59e+00    0    1.11e+00
2006 05 20  0600    53875   21600      0    1.58e+00    0    1.11e+00
2006 05 20  0605    53875   21900      0    1.62e+00    0    1.14e+00
2006 05 20  0610    53875   22200      0    1.58e+00    0    1.11e+00
2006 05 20  0615    53875   22500      0    1.62e+00    0    1.13e+00
2006 05 20  0620    53875   22800      0    1.59e+00    0    1.10e+00
2006 05 20  0625    53875   23100      0    1.59e+00    0    1.12e+00
2006 05 20  0630    53875   23400      0    1.59e+00    0    1.10e+00
2006 05 20  0635    53875   23700      0    1.60e+00    0    1.12e+00
2006 05 20  0640    53875   24000      0    1.60e+00    0    1.13e+00
2006 05 20  0645    53875   24300      0    1.58e+00    0    1.12e+00
2006 05 20  0650    53875   24600      0    1.59e+00    0    1.11e+00
2006 05 20  0655    53875   24900      0    1.58e+00    0    1.10e+00
2006 05 20  0700    53875   25200      0    1.57e+00    0    1.10e+00
2006 05 20  0705    53875   25500      0    1.58e+00    0    1.10e+00
2006 05 20  0710    53875   25800      0    1.56e+00    0    1.08e+00
2006 05 20  0715    53875   26100      0    1.53e+00    0    1.06e+00
2006 05 20  0720    53875   26400      0    1.58e+00    0    1.11e+00
2006 05 20  0725    53875   26700      0    1.56e+00    0    1.08e+00
2006 05 20  0730    53875   27000      0    1.59e+00    0    1.11e+00
2006 05 20  0735    53875   27300      0    1.58e+00    0    1.12e+00
2006 05 20  0740    53875   27600      0    1.61e+00    0    1.13e+00
2006 05 20  0745    53875   27900      0    1.60e+00    0    1.13e+00
2006 05 20  0750    53875   28200      0    1.59e+00    0    1.11e+00
2006 05 20  0755    53875   28500      0    1.57e+00    0    1.10e+00
2006 05 20  0800    53875   28800      0    1.55e+00    0    1.10e+00
2006 05 20  0805    53875   29100      0    1.56e+00    0    1.09e+00
2006 05 20  0810    53875   29400      0    1.58e+00    0    1.11e+00
2006 05 20  0815    53875   29700      0    1.56e+00    0    1.10e+00
2006 05 20  0820    53875   30000      0    1.58e+00    0    1.11e+00
2006 05 20  0825    53875   30300      0    1.58e+00    0    1.10e+00
2006 05 20  0830    53875   30600      0    1.56e+00    0    1.09e+00
2006 05 20  0835    53875   30900      0    1.57e+00    0    1.11e+00
2006 05 20  0840    53875   31200      0    1.60e+00    0    1.13e+00
2006 05 20  0845    53875   31500      0    1.54e+00    0    1.08e+00
2006 05 20  0850    53875   31800      0    1.58e+00    0    1.11e+00
2006 05 20  0855    53875   32100      0    1.61e+00    0    1.12e+00
2006 05 20  0900    53875   32400      0    1.57e+00    0    1.11e+00
2006 05 20  0905    53875   32700      0    1.53e+00    0    1.07e+00
2006 05 20  0910    53875   33000      0    1.60e+00    0    1.12e+00
2006 05 20  0915    53875   33300      0    1.58e+00    0    1.10e+00
2006 05 20  0920    53875   33600      0    1.59e+00    0    1.12e+00
2006 05 20  0925    53875   33900      0    1.59e+00    0    1.12e+00
2006 05 20  0930    53875   34200      0    1.59e+00    0    1.10e+00
2006 05 20  0935    53875   34500      0    1.58e+00    0    1.11e+00
2006 05 20  0940    53875   34800      0    1.57e+00    0    1.11e+00
2006 05 20  0945    53875   35100      0    1.57e+00    0    1.10e+00
2006 05 20  0950    53875   35400      0    1.60e+00    0    1.13e+00
2006 05 20  0955    53875   35700      0    1.57e+00    0    1.10e+00
2006 05 20  1000    53875   36000      0    1.61e+00    0    1.12e+00
2006 05 20  1005    53875   36300      0    1.60e+00    0    1.12e+00
2006 05 20  1010    53875   36600      0    1.58e+00    0    1.11e+00
2006 05 20  1015    53875   36900      0    1.60e+00    0    1.13e+00
2006 05 20  1020    53875   37200      0    1.52e+00    0    1.06e+00
2006 05 20  1025    53875   37500      0    1.57e+00    0    1.10e+00
2006 05 20  1030    53875   37800      0    1.59e+00    0    1.11e+00
2006 05 20  1035    53875   38100      0    1.61e+00    0    1.12e+00
2006 05 20  1040    53875   38400      0    1.61e+00    0    1.12e+00
2006 05 20  1045    53875   38700      0    1.62e+00    0    1.13e+00
2006 05 20  1050    53875   39000      0    1.62e+00    0    1.12e+00
2006 05 20  1055    53875   39300      0    1.60e+00    0    1.11e+00
2006 05 20  1100    53875   39600      0    1.57e+00    0    1.10e+00
2006 05 20  1105    53875   39900      0    1.56e+00    0    1.08e+00
2006 05 20  1110    53875   40200      0    1.62e+00    0    1.14e+00
2006 05 20  1115    53875   40500      0    1.60e+00    0    1.12e+00
2006 05 20  1120    53875   40800      0    1.63e+00    0    1.15e+00
2006 05 20  1125    53875   41100      0    1.56e+00    0    1.10e+00
2006 05 20  1130    53875   41400      0    1.60e+00    0    1.13e+00
2006 05 20  1135    53875   41700      0    1.60e+00    0    1.12e+00
2006 05 20  1140    53875   42000      0    1.62e+00    0    1.13e+00
2006 05 20  1145    53875   42300      0    1.60e+00    0    1.13e+00
2006 05 20  1150    53875   42600      0    1.58e+00    0    1.12e+00
2006 05 20  1155    53875   42900      0    1.58e+00    0    1.11e+00
2006 05 20  1200    53875   43200      0    1.58e+00    0    1.11e+00
2006 05 20  1205    53875   43500      0    1.57e+00    0    1.10e+00
2006 05 20  1210    53875   43800      0    1.58e+00    0    1.11e+00
2006 05 20  1215    53875   44100      0    1.59e+00    0    1.11e+00
2006 05 20  1220    53875   44400      0    1.60e+00    0    1.12e+00
2006 05 20  1225    53875   44700      0    1.59e+00    0    1.11e+00
2006 05 20  1230    53875   45000      0    1.61e+00    0    1.13e+00
2006 05 20  1235    53875   45300      0    1.57e+00    0    1.11e+00
2006 05 20  1240    53875   45600      0    1.61e+00    0    1.13e+00
2006 05 20  1245    53875   45900      0    1.58e+00    0    1.10e+00
2006 05 20  1250    53875   46200      0    1.58e+00    0    1.11e+00
2006 05 20  1255    53875   46500      0    1.60e+00    0    1.12e+00
2006 05 20  1300    53875   46800      0    1.54e+00    0    1.08e+00
2006 05 20  1305    53875   47100      0    1.58e+00    0    1.11e+00
2006 05 20  1310    53875   47400      0    1.57e+00    0    1.11e+00
2006 05 20  1315    53875   47700      0    1.61e+00    0    1.13e+00
2006 05 20  1320    53875   48000      0    1.55e+00    0    1.10e+00
2006 05 20  1325    53875   48300      0    1.61e+00    0    1.14e+00
2006 05 20  1330    53875   48600      0    1.57e+00    0    1.09e+00
2006 05 20  1335    53875   48900      0    1.60e+00    0    1.12e+00
2006 05 20  1340    53875   49200      0    1.58e+00    0    1.10e+00
2006 05 20  1345    53875   49500      0    1.57e+00    0    1.10e+00
2006 05 20  1350    53875   49800      0    1.63e+00    0    1.15e+00
2006 05 20  1355    53875   50100      0    1.58e+00    0    1.11e+00
2006 05 20  1400    53875   50400      0    1.55e+00    0    1.08e+00
2006 05 20  1405    53875   50700      0    1.55e+00    0    1.09e+00
2006 05 20  1410    53875   51000      0    1.57e+00    0    1.10e+00
2006 05 20  1415    53875   51300      0    1.64e+00    0    1.15e+00
2006 05 20  1420    53875   51600      0    1.60e+00    0    1.12e+00
2006 05 20  1425    53875   51900      0    1.58e+00    0    1.09e+00
2006 05 20  1430    53875   52200      0    1.63e+00    0    1.15e+00
2006 05 20  1435    53875   52500      0    1.61e+00    0    1.13e+00
2006 05 20  1440    53875   52800      0    1.58e+00    0    1.11e+00
2006 05 20  1445    53875   53100      0    1.62e+00    0    1.14e+00
2006 05 20  1450    53875   53400      0    1.59e+00    0    1.11e+00
2006 05 20  1455    53875   53700      0    1.59e+00    0    1.11e+00
2006 05 20  1500    53875   54000      0    1.58e+00    0    1.12e+00
2006 05 20  1505    53875   54300      0    1.56e+00    0    1.09e+00
2006 05 20  1510    53875   54600      0    1.58e+00    0    1.10e+00
2006 05 20  1515    53875   54900      0    1.59e+00    0    1.11e+00
2006 05 20  1520    53875   55200      0    1.57e+00    0    1.10e+00
2006 05 20  1525    53875   55500      0    1.60e+00    0    1.13e+00
2006 05 20  1530    53875   55800      0    1.60e+00    0    1.13e+00
2006 05 20  1535    53875   56100      0    1.63e+00    0    1.14e+00
2006 05 20  1540    53875   56400      0    1.60e+00    0    1.11e+00
2006 05 20  1545    53875   56700      0    1.56e+00    0    1.10e+00
2006 05 20  1550    53875   57000      0    1.57e+00    0    1.09e+00
2006 05 20  1555    53875   57300      0    1.61e+00    0    1.13e+00
2006 05 20  1600    53875   57600      0    1.61e+00    0    1.12e+00
2006 05 20  1605    53875   57900      0    1.60e+00    0    1.13e+00
2006 05 20  1610    53875   58200      0    1.57e+00    0    1.10e+00
2006 05 20  1615    53875   58500      0    1.58e+00    0    1.10e+00
2006 05 20  1620    53875   58800      0    1.58e+00    0    1.09e+00
2006 05 20  1625    53875   59100      0    1.52e+00    0    1.06e+00
2006 05 20  1630    53875   59400      0    1.59e+00    0    1.11e+00
2006 05 20  1635    53875   59700      0    1.58e+00    0    1.11e+00
2006 05 20  1640    53875   60000      0    1.57e+00    0    1.10e+00
2006 05 20  1645    53875   60300      0    1.57e+00    0    1.10e+00
2006 05 20  1650    53875   60600      0    1.58e+00    0    1.10e+00
2006 05 20  1655    53875   60900      0    1.55e+00    0    1.07e+00
2006 05 20  1700    53875   61200      0    1.56e+00    0    1.09e+00
2006 05 20  1705    53875   61500      0    1.57e+00    0    1.10e+00
2006 05 20  1710    53875   61800      0    1.62e+00    0    1.14e+00
2006 05 20  1715    53875   62100      0    1.59e+00    0    1.11e+00
2006 05 20  1720    53875   62400      0    1.61e+00    0    1.14e+00
2006 05 20  1725    53875   62700      0    1.57e+00    0    1.11e+00
2006 05 20  1730    53875   63000      0    1.59e+00    0    1.11e+00
2006 05 20  1735    53875   63300      0    1.58e+00    0    1.11e+00
2006 05 20  1740    53875   63600      0    1.58e+00    0    1.11e+00
2006 05 20  1745    53875   63900      0    1.56e+00    0    1.09e+00
2006 05 20  1750    53875   64200      0    1.58e+00    0    1.12e+00
2006 05 20  1755    53875   64500      0    1.57e+00    0    1.09e+00
2006 05 20  1800    53875   64800      0    1.55e+00    0    1.09e+00
2006 05 20  1805    53875   65100      0    1.57e+00    0    1.10e+00
2006 05 20  1810    53875   65400      0    1.57e+00    0    1.10e+00
2006 05 20  1815    53875   65700      0    1.63e+00    0    1.15e+00
2006 05 20  1820    53875   66000      0    1.61e+00    0    1.13e+00
2006 05 20  1825    53875   66300      0    1.60e+00    0    1.13e+00
2006 05 20  1830    53875   66600      0    1.60e+00    0    1.13e+00
2006 05 20  1835    53875   66900      0    1.58e+00    0    1.11e+00
2006 05 20  1840    53875   67200      0    1.59e+00    0    1.10e+00
2006 05 20  1845    53875   67500      0    1.56e+00    0    1.09e+00
2006 05 20  1850    53875   67800      0    1.61e+00    0    1.14e+00
2006 05 20  1855    53875   68100      0    1.56e+00    0    1.11e+00
2006 05 20  1900    53875   68400      0    1.58e+00    0    1.11e+00
2006 05 20  1905    53875   68700      0    1.55e+00    0    1.07e+00
2006 05 20  1910    53875   69000      0    1.58e+00    0    1.11e+00
2006 05 20  1915    53875   69300      0    1.59e+00    0    1.11e+00
2006 05 20  1920    53875   69600      0    1.58e+00    0    1.10e+00
2006 05 20  1925    53875   69900      0    1.57e+00    0    1.09e+00
2006 05 20  1930    53875   70200      0    1.59e+00    0    1.12e+00
2006 05 20  1935    53875   70500      0    1.60e+00    0    1.12e+00
2006 05 20  1940    53875   70800      0    1.58e+00    0    1.11e+00
2006 05 20  1945    53875   71100      0    1.57e+00    0    1.09e+00
2006 05 20  1950    53875   71400      0    1.60e+00    0    1.12e+00
2006 05 20  1955    53875   71700      0    1.60e+00    0    1.11e+00
2006 05 20  2000    53875   72000      0    1.57e+00    0    1.11e+00
2006 05 20  2005    53875   72300      0    1.60e+00    0    1.13e+00
2006 05 20  2010    53875   72600      0    1.58e+00    0    1.12e+00
2006 05 20  2015    53875   72900      0    1.61e+00    0    1.14e+00
2006 05 20  2020    53875   73200      0    1.58e+00    0    1.12e+00
2006 05 20  2025    53875   73500      0    1.58e+00    0    1.10e+00
2006 05 20  2030    53875   73800      0    1.58e+00    0    1.10e+00
2006 05 20  2035    53875   74100      0    1.59e+00    0    1.12e+00
2006 05 20  2040    53875   74400      0    1.56e+00    0    1.08e+00
2006 05 20  2045    53875   74700      0    1.60e+00    0    1.13e+00
2006 05 20  2050    53875   75000      0    1.59e+00    0    1.12e+00
2006 05 20  2055    53875   75300      0    1.58e+00    0    1.10e+00
2006 05 20  2100    53875   75600      0    1.57e+00    0    1.11e+00
2006 05 20  2105    53875   75900      0    1.58e+00    0    1.12e+00
2006 05 20  2110    53875   76200      0    1.58e+00    0    1.11e+00
2006 05 20  2115    53875   76500      0    1.56e+00    0    1.09e+00
2006 05 20  2120    53875   76800      0    1.57e+00    0    1.10e+00
2006 05 20  2125    53875   77100      0    1.60e+00    0    1.12e+00
2006 05 20  2130    53875   77400      0    1.61e+00    0    1.13e+00
2006 05 20  2135    53875   77700      0    1.57e+00    0    1.10e+00
2006 05 20  2140    53875   78000      0    1.57e+00    0    1.10e+00
2006 05 20  2145    53875   78300      0    1.63e+00    0    1.14e+00
2006 05 20  2150    53875   78600      0    1.58e+00    0    1.11e+00
2006 05 20  2155    53875   78900      0    1.58e+00    0    1.11e+00
2006 05 20  2200    53875   79200      0    1.61e+00    0    1.13e+00
2006 05 20  2205    53875   79500      0    1.55e+00    0    1.09e+00
2006 05 20  2210    53875   79800      0    1.58e+00    0    1.10e+00
2006 05 20  2215    53875   80100      0    1.58e+00    0    1.11e+00
2006 05 20  2220    53875   80400      0    1.56e+00    0    1.10e+00
2006 05 20  2225    53875   80700      0    1.58e+00    0    1.11e+00
2006 05 20  2230    53875   81000      0    1.60e+00    0    1.13e+00
2006 05 20  2235    53875   81300      0    1.60e+00    0    1.12e+00
2006 05 20  2240    53875   81600      0    1.57e+00    0    1.10e+00
2006 05 20  2245    53875   81900      0    1.62e+00    0    1.14e+00
2006 05 20  2250    53875   82200      0    1.58e+00    0    1.10e+00
2006 05 20  2255    53875   82500      0    1.57e+00    0    1.10e+00
2006 05 20  2300    53875   82800      0    1.56e+00    0    1.09e+00
2006 05 20  2305    53875   83100      9   -1.00e+05    9   -1.00e+05
2006 05 20  2310    53875   83400      9   -1.00e+05    9   -1.00e+05
2006 05 20  2315    53875   83700      0    1.56e+00    0    1.08e+00
2006 05 20  2320    53875   84000      0    1.58e+00    0    1.10e+00
2006 05 20  2325    53875   84300      0    1.59e+00    0    1.11e+00
2006 05 20  2330    53875   84600      0    1.60e+00    0    1.13e+00
2006 05 20  2335    53875   84900      0    1.57e+00    0    1.09e+00
2006 05 20  2340    53875   85200      0    1.59e+00    0    1.11e+00
2006 05 20  2345    53875   85500      0    1.61e+00    0    1.13e+00
2006 05 20  2350    53875   85800      0    1.60e+00    0    1.12e+00
2006 05 20  2355    53875   86100      0    1.62e+00    0    1.15e+00
