:Data_list: 20060330_ace_sis_5m.txt
:Created: 2006 Mar 31 0011 UT
# Prepared by the U.S. Dept. of Commerce, NOAA, Space Environment Center.
# Please send comments and suggestions to SEC.Webmaster@noaa.gov 
# 
# Units: proton flux p/cs2-sec-ster
# Status(S): 0 = nominal data, 1 to 8 = bad data record, 9 = no data
# Missing data values: -1.00e+05
# Source: ACE Satellite - Solar Isotope Spectrometer
#
# 5-minute averaged Real-time Integral Flux of High-energy Solar Protons
# 
#                 Modified Seconds
# UT Date   Time   Julian  of the      ---- Integral Proton Flux ----
# YR MO DA  HHMM     Day     Day       S    > 10 MeV    S    > 30 MeV
#--------------------------------------------------------------------
2006 03 30  0000    53824       0      0    1.57e+00    0    1.11e+00
2006 03 30  0005    53824     300      0    1.57e+00    0    1.10e+00
2006 03 30  0010    53824     600      0    1.56e+00    0    1.10e+00
2006 03 30  0015    53824     900      0    1.56e+00    0    1.09e+00
2006 03 30  0020    53824    1200      0    1.56e+00    0    1.07e+00
2006 03 30  0025    53824    1500      0    1.58e+00    0    1.11e+00
2006 03 30  0030    53824    1800      0    1.58e+00    0    1.10e+00
2006 03 30  0035    53824    2100      0    1.55e+00    0    1.09e+00
2006 03 30  0040    53824    2400      0    1.58e+00    0    1.11e+00
2006 03 30  0045    53824    2700      0    1.56e+00    0    1.10e+00
2006 03 30  0050    53824    3000      0    1.56e+00    0    1.08e+00
2006 03 30  0055    53824    3300      0    1.57e+00    0    1.09e+00
2006 03 30  0100    53824    3600      0    1.61e+00    0    1.13e+00
2006 03 30  0105    53824    3900      0    1.52e+00    0    1.07e+00
2006 03 30  0110    53824    4200      0    1.60e+00    0    1.13e+00
2006 03 30  0115    53824    4500      0    1.59e+00    0    1.13e+00
2006 03 30  0120    53824    4800      0    1.56e+00    0    1.10e+00
2006 03 30  0125    53824    5100      0    1.58e+00    0    1.09e+00
2006 03 30  0130    53824    5400      0    1.58e+00    0    1.10e+00
2006 03 30  0135    53824    5700      0    1.60e+00    0    1.12e+00
2006 03 30  0140    53824    6000      0    1.57e+00    0    1.10e+00
2006 03 30  0145    53824    6300      0    1.56e+00    0    1.11e+00
2006 03 30  0150    53824    6600      0    1.55e+00    0    1.10e+00
2006 03 30  0155    53824    6900      0    1.56e+00    0    1.08e+00
2006 03 30  0200    53824    7200      0    1.55e+00    0    1.09e+00
2006 03 30  0205    53824    7500      0    1.54e+00    0    1.06e+00
2006 03 30  0210    53824    7800      0    1.58e+00    0    1.11e+00
2006 03 30  0215    53824    8100      0    1.55e+00    0    1.09e+00
2006 03 30  0220    53824    8400      0    1.59e+00    0    1.11e+00
2006 03 30  0225    53824    8700      0    1.57e+00    0    1.09e+00
2006 03 30  0230    53824    9000      0    1.47e+00    0    1.04e+00
2006 03 30  0235    53824    9300      0    1.56e+00    0    1.09e+00
2006 03 30  0240    53824    9600      0    1.54e+00    0    1.09e+00
2006 03 30  0245    53824    9900      0    1.56e+00    0    1.09e+00
2006 03 30  0250    53824   10200      0    1.57e+00    0    1.10e+00
2006 03 30  0255    53824   10500      0    1.61e+00    0    1.13e+00
2006 03 30  0300    53824   10800      0    1.57e+00    0    1.10e+00
2006 03 30  0305    53824   11100      0    1.56e+00    0    1.09e+00
2006 03 30  0310    53824   11400      0    1.58e+00    0    1.11e+00
2006 03 30  0315    53824   11700      0    1.58e+00    0    1.11e+00
2006 03 30  0320    53824   12000      0    1.56e+00    0    1.09e+00
2006 03 30  0325    53824   12300      0    1.55e+00    0    1.08e+00
2006 03 30  0330    53824   12600      0    1.61e+00    0    1.14e+00
2006 03 30  0335    53824   12900      0    1.62e+00    0    1.14e+00
2006 03 30  0340    53824   13200      0    1.55e+00    0    1.08e+00
2006 03 30  0345    53824   13500      0    1.58e+00    0    1.11e+00
2006 03 30  0350    53824   13800      0    1.53e+00    0    1.08e+00
2006 03 30  0355    53824   14100      0    1.57e+00    0    1.10e+00
2006 03 30  0400    53824   14400      0    1.54e+00    0    1.08e+00
2006 03 30  0405    53824   14700      0    1.58e+00    0    1.10e+00
2006 03 30  0410    53824   15000      0    1.58e+00    0    1.10e+00
2006 03 30  0415    53824   15300      0    1.59e+00    0    1.12e+00
2006 03 30  0420    53824   15600      0    1.57e+00    0    1.11e+00
2006 03 30  0425    53824   15900      0    1.57e+00    0    1.10e+00
2006 03 30  0430    53824   16200      0    1.58e+00    0    1.10e+00
2006 03 30  0435    53824   16500      0    1.54e+00    0    1.08e+00
2006 03 30  0440    53824   16800      0    1.55e+00    0    1.09e+00
2006 03 30  0445    53824   17100      0    1.56e+00    0    1.08e+00
2006 03 30  0450    53824   17400      0    1.55e+00    0    1.08e+00
2006 03 30  0455    53824   17700      0    1.55e+00    0    1.09e+00
2006 03 30  0500    53824   18000      0    1.54e+00    0    1.08e+00
2006 03 30  0505    53824   18300      0    1.59e+00    0    1.11e+00
2006 03 30  0510    53824   18600      0    1.57e+00    0    1.11e+00
2006 03 30  0515    53824   18900      0    1.53e+00    0    1.07e+00
2006 03 30  0520    53824   19200      0    1.59e+00    0    1.11e+00
2006 03 30  0525    53824   19500      0    1.55e+00    0    1.08e+00
2006 03 30  0530    53824   19800      0    1.58e+00    0    1.11e+00
2006 03 30  0535    53824   20100      0    1.58e+00    0    1.11e+00
2006 03 30  0540    53824   20400      0    1.56e+00    0    1.09e+00
2006 03 30  0545    53824   20700      0    1.57e+00    0    1.09e+00
2006 03 30  0550    53824   21000      0    1.59e+00    0    1.12e+00
2006 03 30  0555    53824   21300      0    1.54e+00    0    1.07e+00
2006 03 30  0600    53824   21600      0    1.60e+00    0    1.13e+00
2006 03 30  0605    53824   21900      0    1.57e+00    0    1.11e+00
2006 03 30  0610    53824   22200      0    1.55e+00    0    1.08e+00
2006 03 30  0615    53824   22500      0    1.56e+00    0    1.08e+00
2006 03 30  0620    53824   22800      0    1.59e+00    0    1.11e+00
2006 03 30  0625    53824   23100      0    1.56e+00    0    1.10e+00
2006 03 30  0630    53824   23400      0    1.54e+00    0    1.09e+00
2006 03 30  0635    53824   23700      0    1.57e+00    0    1.09e+00
2006 03 30  0640    53824   24000      0    1.58e+00    0    1.12e+00
2006 03 30  0645    53824   24300      0    1.54e+00    0    1.08e+00
2006 03 30  0650    53824   24600      0    1.60e+00    0    1.14e+00
2006 03 30  0655    53824   24900      0    1.59e+00    0    1.12e+00
2006 03 30  0700    53824   25200      0    1.61e+00    0    1.14e+00
2006 03 30  0705    53824   25500      0    1.56e+00    0    1.10e+00
2006 03 30  0710    53824   25800      0    1.56e+00    0    1.09e+00
2006 03 30  0715    53824   26100      0    1.58e+00    0    1.11e+00
2006 03 30  0720    53824   26400      0    1.59e+00    0    1.10e+00
2006 03 30  0725    53824   26700      0    1.57e+00    0    1.10e+00
2006 03 30  0730    53824   27000      0    1.56e+00    0    1.09e+00
2006 03 30  0735    53824   27300      0    1.55e+00    0    1.09e+00
2006 03 30  0740    53824   27600      0    1.54e+00    0    1.07e+00
2006 03 30  0745    53824   27900      0    1.56e+00    0    1.09e+00
2006 03 30  0750    53824   28200      0    1.53e+00    0    1.06e+00
2006 03 30  0755    53824   28500      0    1.57e+00    0    1.09e+00
2006 03 30  0800    53824   28800      0    1.54e+00    0    1.08e+00
2006 03 30  0805    53824   29100      0    1.58e+00    0    1.12e+00
2006 03 30  0810    53824   29400      0    1.58e+00    0    1.12e+00
2006 03 30  0815    53824   29700      0    1.53e+00    0    1.07e+00
2006 03 30  0820    53824   30000      0    1.54e+00    0    1.08e+00
2006 03 30  0825    53824   30300      0    1.56e+00    0    1.08e+00
2006 03 30  0830    53824   30600      0    1.59e+00    0    1.12e+00
2006 03 30  0835    53824   30900      0    1.58e+00    0    1.11e+00
2006 03 30  0840    53824   31200      0    1.59e+00    0    1.11e+00
2006 03 30  0845    53824   31500      0    1.58e+00    0    1.11e+00
2006 03 30  0850    53824   31800      0    1.59e+00    0    1.13e+00
2006 03 30  0855    53824   32100      0    1.59e+00    0    1.12e+00
2006 03 30  0900    53824   32400      0    1.57e+00    0    1.10e+00
2006 03 30  0905    53824   32700      0    1.58e+00    0    1.09e+00
2006 03 30  0910    53824   33000      0    1.59e+00    0    1.12e+00
2006 03 30  0915    53824   33300      0    1.63e+00    0    1.15e+00
2006 03 30  0920    53824   33600      0    1.55e+00    0    1.09e+00
2006 03 30  0925    53824   33900      0    1.58e+00    0    1.13e+00
2006 03 30  0930    53824   34200      0    1.59e+00    0    1.11e+00
2006 03 30  0935    53824   34500      0    1.59e+00    0    1.12e+00
2006 03 30  0940    53824   34800      0    1.59e+00    0    1.12e+00
2006 03 30  0945    53824   35100      0    1.59e+00    0    1.11e+00
2006 03 30  0950    53824   35400      0    1.58e+00    0    1.11e+00
2006 03 30  0955    53824   35700      0    1.55e+00    0    1.09e+00
2006 03 30  1000    53824   36000      0    1.55e+00    0    1.08e+00
2006 03 30  1005    53824   36300      0    1.58e+00    0    1.11e+00
2006 03 30  1010    53824   36600      0    1.57e+00    0    1.10e+00
2006 03 30  1015    53824   36900      0    1.57e+00    0    1.11e+00
2006 03 30  1020    53824   37200      0    1.57e+00    0    1.11e+00
2006 03 30  1025    53824   37500      0    1.51e+00    0    1.06e+00
2006 03 30  1030    53824   37800      0    1.58e+00    0    1.11e+00
2006 03 30  1035    53824   38100      0    1.58e+00    0    1.10e+00
2006 03 30  1040    53824   38400      0    1.61e+00    0    1.13e+00
2006 03 30  1045    53824   38700      0    1.58e+00    0    1.11e+00
2006 03 30  1050    53824   39000      0    1.60e+00    0    1.10e+00
2006 03 30  1055    53824   39300      0    1.58e+00    0    1.11e+00
2006 03 30  1100    53824   39600      0    1.60e+00    0    1.13e+00
2006 03 30  1105    53824   39900      0    1.59e+00    0    1.11e+00
2006 03 30  1110    53824   40200      0    1.59e+00    0    1.12e+00
2006 03 30  1115    53824   40500      0    1.54e+00    0    1.08e+00
2006 03 30  1120    53824   40800      0    1.59e+00    0    1.11e+00
2006 03 30  1125    53824   41100      0    1.57e+00    0    1.10e+00
2006 03 30  1130    53824   41400      0    1.58e+00    0    1.10e+00
2006 03 30  1135    53824   41700      0    1.60e+00    0    1.12e+00
2006 03 30  1140    53824   42000      0    1.59e+00    0    1.11e+00
2006 03 30  1145    53824   42300      0    1.56e+00    0    1.09e+00
2006 03 30  1150    53824   42600      0    1.57e+00    0    1.11e+00
2006 03 30  1155    53824   42900      0    1.57e+00    0    1.10e+00
2006 03 30  1200    53824   43200      0    1.59e+00    0    1.11e+00
2006 03 30  1205    53824   43500      0    1.56e+00    0    1.10e+00
2006 03 30  1210    53824   43800      0    1.56e+00    0    1.11e+00
2006 03 30  1215    53824   44100      0    1.61e+00    0    1.13e+00
2006 03 30  1220    53824   44400      0    1.58e+00    0    1.11e+00
2006 03 30  1225    53824   44700      0    1.59e+00    0    1.12e+00
2006 03 30  1230    53824   45000      0    1.59e+00    0    1.13e+00
2006 03 30  1235    53824   45300      0    1.54e+00    0    1.09e+00
2006 03 30  1240    53824   45600      0    1.57e+00    0    1.10e+00
2006 03 30  1245    53824   45900      0    1.57e+00    0    1.11e+00
2006 03 30  1250    53824   46200      0    1.56e+00    0    1.10e+00
2006 03 30  1255    53824   46500      0    1.57e+00    0    1.12e+00
2006 03 30  1300    53824   46800      0    1.57e+00    0    1.10e+00
2006 03 30  1305    53824   47100      0    1.62e+00    0    1.14e+00
2006 03 30  1310    53824   47400      0    1.59e+00    0    1.12e+00
2006 03 30  1315    53824   47700      0    1.57e+00    0    1.09e+00
2006 03 30  1320    53824   48000      0    1.57e+00    0    1.10e+00
2006 03 30  1325    53824   48300      0    1.56e+00    0    1.10e+00
2006 03 30  1330    53824   48600      0    1.54e+00    0    1.09e+00
2006 03 30  1335    53824   48900      0    1.56e+00    0    1.11e+00
2006 03 30  1340    53824   49200      0    1.60e+00    0    1.12e+00
2006 03 30  1345    53824   49500      0    1.56e+00    0    1.10e+00
2006 03 30  1350    53824   49800      0    1.58e+00    0    1.10e+00
2006 03 30  1355    53824   50100      0    1.59e+00    0    1.12e+00
2006 03 30  1400    53824   50400      0    1.54e+00    0    1.08e+00
2006 03 30  1405    53824   50700      0    1.57e+00    0    1.10e+00
2006 03 30  1410    53824   51000      0    1.55e+00    0    1.08e+00
2006 03 30  1415    53824   51300      0    1.56e+00    0    1.08e+00
2006 03 30  1420    53824   51600      0    1.60e+00    0    1.12e+00
2006 03 30  1425    53824   51900      0    1.57e+00    0    1.10e+00
2006 03 30  1430    53824   52200      0    1.58e+00    0    1.10e+00
2006 03 30  1435    53824   52500      0    1.57e+00    0    1.10e+00
2006 03 30  1440    53824   52800      0    1.57e+00    0    1.11e+00
2006 03 30  1445    53824   53100      0    1.56e+00    0    1.09e+00
2006 03 30  1450    53824   53400      0    1.56e+00    0    1.09e+00
2006 03 30  1455    53824   53700      0    1.56e+00    0    1.09e+00
2006 03 30  1500    53824   54000      0    1.59e+00    0    1.12e+00
2006 03 30  1505    53824   54300      0    1.59e+00    0    1.13e+00
2006 03 30  1510    53824   54600      0    1.58e+00    0    1.11e+00
2006 03 30  1515    53824   54900      0    1.56e+00    0    1.10e+00
2006 03 30  1520    53824   55200      0    1.54e+00    0    1.07e+00
2006 03 30  1525    53824   55500      0    1.59e+00    0    1.11e+00
2006 03 30  1530    53824   55800      0    1.60e+00    0    1.13e+00
2006 03 30  1535    53824   56100      0    1.56e+00    0    1.09e+00
2006 03 30  1540    53824   56400      0    1.59e+00    0    1.12e+00
2006 03 30  1545    53824   56700      0    1.57e+00    0    1.11e+00
2006 03 30  1550    53824   57000      0    1.58e+00    0    1.13e+00
2006 03 30  1555    53824   57300      0    1.58e+00    0    1.11e+00
2006 03 30  1600    53824   57600      0    1.59e+00    0    1.12e+00
2006 03 30  1605    53824   57900      0    1.58e+00    0    1.12e+00
2006 03 30  1610    53824   58200      0    1.61e+00    0    1.13e+00
2006 03 30  1615    53824   58500      0    1.60e+00    0    1.12e+00
2006 03 30  1620    53824   58800      0    1.61e+00    0    1.12e+00
2006 03 30  1625    53824   59100      0    1.57e+00    0    1.10e+00
2006 03 30  1630    53824   59400      0    1.55e+00    0    1.07e+00
2006 03 30  1635    53824   59700      0    1.60e+00    0    1.13e+00
2006 03 30  1640    53824   60000      0    1.56e+00    0    1.11e+00
2006 03 30  1645    53824   60300      0    1.59e+00    0    1.12e+00
2006 03 30  1650    53824   60600      0    1.57e+00    0    1.10e+00
2006 03 30  1655    53824   60900      0    1.59e+00    0    1.12e+00
2006 03 30  1700    53824   61200      0    1.55e+00    0    1.09e+00
2006 03 30  1705    53824   61500      0    1.57e+00    0    1.11e+00
2006 03 30  1710    53824   61800      0    1.56e+00    0    1.09e+00
2006 03 30  1715    53824   62100      0    1.59e+00    0    1.12e+00
2006 03 30  1720    53824   62400      0    1.55e+00    0    1.09e+00
2006 03 30  1725    53824   62700      0    1.56e+00    0    1.08e+00
2006 03 30  1730    53824   63000      0    1.60e+00    0    1.13e+00
2006 03 30  1735    53824   63300      0    1.59e+00    0    1.12e+00
2006 03 30  1740    53824   63600      0    1.56e+00    0    1.09e+00
2006 03 30  1745    53824   63900      0    1.56e+00    0    1.09e+00
2006 03 30  1750    53824   64200      0    1.53e+00    0    1.08e+00
2006 03 30  1755    53824   64500      0    1.58e+00    0    1.10e+00
2006 03 30  1800    53824   64800      0    1.61e+00    0    1.13e+00
2006 03 30  1805    53824   65100      0    1.61e+00    0    1.12e+00
2006 03 30  1810    53824   65400      0    1.59e+00    0    1.12e+00
2006 03 30  1815    53824   65700      0    1.59e+00    0    1.11e+00
2006 03 30  1820    53824   66000      0    1.58e+00    0    1.12e+00
2006 03 30  1825    53824   66300      0    1.56e+00    0    1.09e+00
2006 03 30  1830    53824   66600      0    1.60e+00    0    1.12e+00
2006 03 30  1835    53824   66900      0    1.57e+00    0    1.11e+00
2006 03 30  1840    53824   67200      0    1.56e+00    0    1.09e+00
2006 03 30  1845    53824   67500      0    1.55e+00    0    1.09e+00
2006 03 30  1850    53824   67800      0    1.54e+00    0    1.08e+00
2006 03 30  1855    53824   68100      0    1.59e+00    0    1.11e+00
2006 03 30  1900    53824   68400      0    1.60e+00    0    1.11e+00
2006 03 30  1905    53824   68700      0    1.57e+00    0    1.10e+00
2006 03 30  1910    53824   69000      0    1.56e+00    0    1.10e+00
2006 03 30  1915    53824   69300      0    1.57e+00    0    1.09e+00
2006 03 30  1920    53824   69600      0    1.59e+00    0    1.12e+00
2006 03 30  1925    53824   69900      0    1.59e+00    0    1.13e+00
2006 03 30  1930    53824   70200      0    1.52e+00    0    1.06e+00
2006 03 30  1935    53824   70500      0    1.58e+00    0    1.11e+00
2006 03 30  1940    53824   70800      0    1.57e+00    0    1.11e+00
2006 03 30  1945    53824   71100      0    1.60e+00    0    1.14e+00
2006 03 30  1950    53824   71400      0    1.60e+00    0    1.13e+00
2006 03 30  1955    53824   71700      0    1.56e+00    0    1.10e+00
2006 03 30  2000    53824   72000      0    1.56e+00    0    1.10e+00
2006 03 30  2005    53824   72300      0    1.57e+00    0    1.12e+00
2006 03 30  2010    53824   72600      0    1.59e+00    0    1.11e+00
2006 03 30  2015    53824   72900      0    1.58e+00    0    1.11e+00
2006 03 30  2020    53824   73200      0    1.57e+00    0    1.10e+00
2006 03 30  2025    53824   73500      0    1.56e+00    0    1.09e+00
2006 03 30  2030    53824   73800      0    1.56e+00    0    1.10e+00
2006 03 30  2035    53824   74100      0    1.54e+00    0    1.08e+00
2006 03 30  2040    53824   74400      0    1.58e+00    0    1.11e+00
2006 03 30  2045    53824   74700      0    1.58e+00    0    1.13e+00
2006 03 30  2050    53824   75000      0    1.60e+00    0    1.12e+00
2006 03 30  2055    53824   75300      0    1.57e+00    0    1.11e+00
2006 03 30  2100    53824   75600      0    1.58e+00    0    1.11e+00
2006 03 30  2105    53824   75900      0    1.56e+00    0    1.10e+00
2006 03 30  2110    53824   76200      0    1.54e+00    0    1.07e+00
2006 03 30  2115    53824   76500      0    1.62e+00    0    1.14e+00
2006 03 30  2120    53824   76800      0    1.59e+00    0    1.13e+00
2006 03 30  2125    53824   77100      0    1.58e+00    0    1.11e+00
2006 03 30  2130    53824   77400      0    1.56e+00    0    1.09e+00
2006 03 30  2135    53824   77700      0    1.59e+00    0    1.12e+00
2006 03 30  2140    53824   78000      0    1.59e+00    0    1.11e+00
2006 03 30  2145    53824   78300      0    1.63e+00    0    1.14e+00
2006 03 30  2150    53824   78600      0    1.60e+00    0    1.12e+00
2006 03 30  2155    53824   78900      0    1.63e+00    0    1.14e+00
2006 03 30  2200    53824   79200      0    1.60e+00    0    1.12e+00
2006 03 30  2205    53824   79500      0    1.57e+00    0    1.11e+00
2006 03 30  2210    53824   79800      0    1.60e+00    0    1.13e+00
2006 03 30  2215    53824   80100      0    1.65e+00    0    1.16e+00
2006 03 30  2220    53824   80400      0    1.60e+00    0    1.13e+00
2006 03 30  2225    53824   80700      0    1.62e+00    0    1.14e+00
2006 03 30  2230    53824   81000      0    1.61e+00    0    1.13e+00
2006 03 30  2235    53824   81300      0    1.60e+00    0    1.11e+00
2006 03 30  2240    53824   81600      0    1.52e+00    0    1.07e+00
2006 03 30  2245    53824   81900      0    1.61e+00    0    1.14e+00
2006 03 30  2250    53824   82200      0    1.59e+00    0    1.12e+00
2006 03 30  2255    53824   82500      0    1.58e+00    0    1.10e+00
2006 03 30  2300    53824   82800      0    1.59e+00    0    1.12e+00
2006 03 30  2305    53824   83100      0    1.60e+00    0    1.11e+00
2006 03 30  2310    53824   83400      0    1.60e+00    0    1.12e+00
2006 03 30  2315    53824   83700      0    1.60e+00    0    1.12e+00
2006 03 30  2320    53824   84000      0    1.57e+00    0    1.10e+00
2006 03 30  2325    53824   84300      0    1.58e+00    0    1.11e+00
2006 03 30  2330    53824   84600      0    1.57e+00    0    1.10e+00
2006 03 30  2335    53824   84900      0    1.61e+00    0    1.12e+00
2006 03 30  2340    53824   85200      0    1.60e+00    0    1.12e+00
2006 03 30  2345    53824   85500      0    1.55e+00    0    1.09e+00
2006 03 30  2350    53824   85800      0    1.59e+00    0    1.12e+00
2006 03 30  2355    53824   86100      0    1.59e+00    0    1.12e+00
