:Data_list: 20060502_ace_sis_5m.txt
:Created: 2006 May 03 0011 UT
# Prepared by the U.S. Dept. of Commerce, NOAA, Space Environment Center.
# Please send comments and suggestions to SEC.Webmaster@noaa.gov 
# 
# Units: proton flux p/cs2-sec-ster
# Status(S): 0 = nominal data, 1 to 8 = bad data record, 9 = no data
# Missing data values: -1.00e+05
# Source: ACE Satellite - Solar Isotope Spectrometer
#
# 5-minute averaged Real-time Integral Flux of High-energy Solar Protons
# 
#                 Modified Seconds
# UT Date   Time   Julian  of the      ---- Integral Proton Flux ----
# YR MO DA  HHMM     Day     Day       S    > 10 MeV    S    > 30 MeV
#--------------------------------------------------------------------
2006 05 02  0000    53857       0      0    1.61e+00    0    1.13e+00
2006 05 02  0005    53857     300      0    1.62e+00    0    1.14e+00
2006 05 02  0010    53857     600      0    1.60e+00    0    1.11e+00
2006 05 02  0015    53857     900      0    1.62e+00    0    1.12e+00
2006 05 02  0020    53857    1200      0    1.62e+00    0    1.13e+00
2006 05 02  0025    53857    1500      0    1.60e+00    0    1.13e+00
2006 05 02  0030    53857    1800      0    1.63e+00    0    1.14e+00
2006 05 02  0035    53857    2100      0    1.59e+00    0    1.12e+00
2006 05 02  0040    53857    2400      0    1.65e+00    0    1.16e+00
2006 05 02  0045    53857    2700      0    1.62e+00    0    1.14e+00
2006 05 02  0050    53857    3000      0    1.67e+00    0    1.17e+00
2006 05 02  0055    53857    3300      0    1.64e+00    0    1.16e+00
2006 05 02  0100    53857    3600      0    1.67e+00    0    1.17e+00
2006 05 02  0105    53857    3900      0    1.62e+00    0    1.14e+00
2006 05 02  0110    53857    4200      0    1.63e+00    0    1.14e+00
2006 05 02  0115    53857    4500      0    1.61e+00    0    1.13e+00
2006 05 02  0120    53857    4800      0    1.63e+00    0    1.14e+00
2006 05 02  0125    53857    5100      0    1.61e+00    0    1.13e+00
2006 05 02  0130    53857    5400      0    1.60e+00    0    1.12e+00
2006 05 02  0135    53857    5700      0    1.64e+00    0    1.16e+00
2006 05 02  0140    53857    6000      0    1.65e+00    0    1.17e+00
2006 05 02  0145    53857    6300      0    1.64e+00    0    1.15e+00
2006 05 02  0150    53857    6600      0    1.65e+00    0    1.17e+00
2006 05 02  0155    53857    6900      0    1.59e+00    0    1.12e+00
2006 05 02  0200    53857    7200      0    1.65e+00    0    1.15e+00
2006 05 02  0205    53857    7500      0    1.60e+00    0    1.13e+00
2006 05 02  0210    53857    7800      0    1.63e+00    0    1.14e+00
2006 05 02  0215    53857    8100      0    1.59e+00    0    1.11e+00
2006 05 02  0220    53857    8400      0    1.64e+00    0    1.15e+00
2006 05 02  0225    53857    8700      0    1.60e+00    0    1.12e+00
2006 05 02  0230    53857    9000      0    1.65e+00    0    1.17e+00
2006 05 02  0235    53857    9300      0    1.60e+00    0    1.12e+00
2006 05 02  0240    53857    9600      0    1.62e+00    0    1.12e+00
2006 05 02  0245    53857    9900      0    1.61e+00    0    1.14e+00
2006 05 02  0250    53857   10200      0    1.63e+00    0    1.13e+00
2006 05 02  0255    53857   10500      0    1.63e+00    0    1.15e+00
2006 05 02  0300    53857   10800      0    1.64e+00    0    1.16e+00
2006 05 02  0305    53857   11100      0    1.62e+00    0    1.14e+00
2006 05 02  0310    53857   11400      0    1.60e+00    0    1.13e+00
2006 05 02  0315    53857   11700      0    1.61e+00    0    1.15e+00
2006 05 02  0320    53857   12000      0    1.60e+00    0    1.12e+00
2006 05 02  0325    53857   12300      0    1.67e+00    0    1.16e+00
2006 05 02  0330    53857   12600      0    1.58e+00    0    1.11e+00
2006 05 02  0335    53857   12900      0    1.65e+00    0    1.16e+00
2006 05 02  0340    53857   13200      0    1.60e+00    0    1.12e+00
2006 05 02  0345    53857   13500      0    1.61e+00    0    1.14e+00
2006 05 02  0350    53857   13800      0    1.65e+00    0    1.17e+00
2006 05 02  0355    53857   14100      0    1.62e+00    0    1.14e+00
2006 05 02  0400    53857   14400      0    1.62e+00    0    1.15e+00
2006 05 02  0405    53857   14700      0    1.65e+00    0    1.15e+00
2006 05 02  0410    53857   15000      0    1.64e+00    0    1.15e+00
2006 05 02  0415    53857   15300      0    1.64e+00    0    1.15e+00
2006 05 02  0420    53857   15600      0    1.62e+00    0    1.13e+00
2006 05 02  0425    53857   15900      0    1.66e+00    0    1.17e+00
2006 05 02  0430    53857   16200      0    1.64e+00    0    1.14e+00
2006 05 02  0435    53857   16500      0    1.65e+00    0    1.17e+00
2006 05 02  0440    53857   16800      0    1.65e+00    0    1.15e+00
2006 05 02  0445    53857   17100      0    1.64e+00    0    1.15e+00
2006 05 02  0450    53857   17400      0    1.60e+00    0    1.12e+00
2006 05 02  0455    53857   17700      0    1.66e+00    0    1.17e+00
2006 05 02  0500    53857   18000      0    1.63e+00    0    1.13e+00
2006 05 02  0505    53857   18300      0    1.66e+00    0    1.16e+00
2006 05 02  0510    53857   18600      0    1.62e+00    0    1.12e+00
2006 05 02  0515    53857   18900      0    1.67e+00    0    1.17e+00
2006 05 02  0520    53857   19200      0    1.61e+00    0    1.14e+00
2006 05 02  0525    53857   19500      0    1.62e+00    0    1.14e+00
2006 05 02  0530    53857   19800      0    1.60e+00    0    1.14e+00
2006 05 02  0535    53857   20100      0    1.67e+00    0    1.17e+00
2006 05 02  0540    53857   20400      0    1.61e+00    0    1.12e+00
2006 05 02  0545    53857   20700      0    1.66e+00    0    1.16e+00
2006 05 02  0550    53857   21000      0    1.64e+00    0    1.15e+00
2006 05 02  0555    53857   21300      0    1.63e+00    0    1.13e+00
2006 05 02  0600    53857   21600      0    1.62e+00    0    1.13e+00
2006 05 02  0605    53857   21900      0    1.67e+00    0    1.17e+00
2006 05 02  0610    53857   22200      0    1.66e+00    0    1.17e+00
2006 05 02  0615    53857   22500      0    1.65e+00    0    1.15e+00
2006 05 02  0620    53857   22800      0    1.63e+00    0    1.15e+00
2006 05 02  0625    53857   23100      0    1.63e+00    0    1.14e+00
2006 05 02  0630    53857   23400      0    1.60e+00    0    1.13e+00
2006 05 02  0635    53857   23700      0    1.62e+00    0    1.13e+00
2006 05 02  0640    53857   24000      0    1.65e+00    0    1.15e+00
2006 05 02  0645    53857   24300      0    1.65e+00    0    1.16e+00
2006 05 02  0650    53857   24600      0    1.58e+00    0    1.10e+00
2006 05 02  0655    53857   24900      0    1.68e+00    0    1.19e+00
2006 05 02  0700    53857   25200      0    1.60e+00    0    1.11e+00
2006 05 02  0705    53857   25500      0    1.66e+00    0    1.17e+00
2006 05 02  0710    53857   25800      0    1.62e+00    0    1.14e+00
2006 05 02  0715    53857   26100      0    1.59e+00    0    1.11e+00
2006 05 02  0720    53857   26400      0    1.63e+00    0    1.13e+00
2006 05 02  0725    53857   26700      0    1.67e+00    0    1.18e+00
2006 05 02  0730    53857   27000      0    1.64e+00    0    1.15e+00
2006 05 02  0735    53857   27300      0    1.66e+00    0    1.16e+00
2006 05 02  0740    53857   27600      0    1.59e+00    0    1.12e+00
2006 05 02  0745    53857   27900      0    1.61e+00    0    1.13e+00
2006 05 02  0750    53857   28200      0    1.61e+00    0    1.12e+00
2006 05 02  0755    53857   28500      0    1.65e+00    0    1.15e+00
2006 05 02  0800    53857   28800      0    1.60e+00    0    1.11e+00
2006 05 02  0805    53857   29100      0    1.67e+00    0    1.18e+00
2006 05 02  0810    53857   29400      0    1.62e+00    0    1.13e+00
2006 05 02  0815    53857   29700      0    1.63e+00    0    1.14e+00
2006 05 02  0820    53857   30000      0    1.62e+00    0    1.13e+00
2006 05 02  0825    53857   30300      0    1.61e+00    0    1.13e+00
2006 05 02  0830    53857   30600      0    1.64e+00    0    1.15e+00
2006 05 02  0835    53857   30900      0    1.64e+00    0    1.14e+00
2006 05 02  0840    53857   31200      0    1.61e+00    0    1.13e+00
2006 05 02  0845    53857   31500      0    1.64e+00    0    1.15e+00
2006 05 02  0850    53857   31800      0    1.64e+00    0    1.15e+00
2006 05 02  0855    53857   32100      0    1.63e+00    0    1.14e+00
2006 05 02  0900    53857   32400      0    1.61e+00    0    1.13e+00
2006 05 02  0905    53857   32700      0    1.66e+00    0    1.14e+00
2006 05 02  0910    53857   33000      0    1.62e+00    0    1.13e+00
2006 05 02  0915    53857   33300      0    1.67e+00    0    1.18e+00
2006 05 02  0920    53857   33600      0    1.64e+00    0    1.15e+00
2006 05 02  0925    53857   33900      0    1.65e+00    0    1.14e+00
2006 05 02  0930    53857   34200      0    1.60e+00    0    1.12e+00
2006 05 02  0935    53857   34500      0    1.62e+00    0    1.13e+00
2006 05 02  0940    53857   34800      0    1.64e+00    0    1.16e+00
2006 05 02  0945    53857   35100      0    1.63e+00    0    1.16e+00
2006 05 02  0950    53857   35400      0    1.67e+00    0    1.17e+00
2006 05 02  0955    53857   35700      0    1.63e+00    0    1.14e+00
2006 05 02  1000    53857   36000      0    1.61e+00    0    1.12e+00
2006 05 02  1005    53857   36300      0    1.52e+00    0    1.08e+00
2006 05 02  1010    53857   36600      0    1.63e+00    0    1.15e+00
2006 05 02  1015    53857   36900      0    1.62e+00    0    1.14e+00
2006 05 02  1020    53857   37200      0    1.61e+00    0    1.14e+00
2006 05 02  1025    53857   37500      0    1.65e+00    0    1.15e+00
2006 05 02  1030    53857   37800      0    1.67e+00    0    1.17e+00
2006 05 02  1035    53857   38100      0    1.63e+00    0    1.14e+00
2006 05 02  1040    53857   38400      0    1.63e+00    0    1.14e+00
2006 05 02  1045    53857   38700      0    1.63e+00    0    1.14e+00
2006 05 02  1050    53857   39000      0    1.61e+00    0    1.13e+00
2006 05 02  1055    53857   39300      0    1.61e+00    0    1.12e+00
2006 05 02  1100    53857   39600      0    1.62e+00    0    1.13e+00
2006 05 02  1105    53857   39900      0    1.61e+00    0    1.14e+00
2006 05 02  1110    53857   40200      0    1.65e+00    0    1.16e+00
2006 05 02  1115    53857   40500      0    1.62e+00    0    1.13e+00
2006 05 02  1120    53857   40800      0    1.60e+00    0    1.12e+00
2006 05 02  1125    53857   41100      0    1.65e+00    0    1.16e+00
2006 05 02  1130    53857   41400      0    1.63e+00    0    1.14e+00
2006 05 02  1135    53857   41700      0    1.64e+00    0    1.15e+00
2006 05 02  1140    53857   42000      0    1.63e+00    0    1.15e+00
2006 05 02  1145    53857   42300      0    1.65e+00    0    1.17e+00
2006 05 02  1150    53857   42600      0    1.63e+00    0    1.14e+00
2006 05 02  1155    53857   42900      0    1.62e+00    0    1.15e+00
2006 05 02  1200    53857   43200      0    1.65e+00    0    1.16e+00
2006 05 02  1205    53857   43500      0    1.64e+00    0    1.15e+00
2006 05 02  1210    53857   43800      0    1.63e+00    0    1.16e+00
2006 05 02  1215    53857   44100      0    1.63e+00    0    1.13e+00
2006 05 02  1220    53857   44400      0    1.64e+00    0    1.14e+00
2006 05 02  1225    53857   44700      0    1.60e+00    0    1.12e+00
2006 05 02  1230    53857   45000      0    1.76e+00    0    1.26e+00
2006 05 02  1235    53857   45300      0    1.65e+00    0    1.15e+00
2006 05 02  1240    53857   45600      0    1.64e+00    0    1.16e+00
2006 05 02  1245    53857   45900      0    1.60e+00    0    1.13e+00
2006 05 02  1250    53857   46200      0    1.63e+00    0    1.14e+00
2006 05 02  1255    53857   46500      0    1.69e+00    0    1.18e+00
2006 05 02  1300    53857   46800      0    1.60e+00    0    1.13e+00
2006 05 02  1305    53857   47100      0    1.60e+00    0    1.13e+00
2006 05 02  1310    53857   47400      0    1.62e+00    0    1.13e+00
2006 05 02  1315    53857   47700      0    1.62e+00    0    1.14e+00
2006 05 02  1320    53857   48000      0    1.62e+00    0    1.13e+00
2006 05 02  1325    53857   48300      0    1.60e+00    0    1.13e+00
2006 05 02  1330    53857   48600      0    1.64e+00    0    1.16e+00
2006 05 02  1335    53857   48900      0    1.65e+00    0    1.17e+00
2006 05 02  1340    53857   49200      0    1.63e+00    0    1.14e+00
2006 05 02  1345    53857   49500      0    1.64e+00    0    1.14e+00
2006 05 02  1350    53857   49800      0    1.62e+00    0    1.13e+00
2006 05 02  1355    53857   50100      0    1.57e+00    0    1.10e+00
2006 05 02  1400    53857   50400      0    1.65e+00    0    1.15e+00
2006 05 02  1405    53857   50700      0    1.66e+00    0    1.17e+00
2006 05 02  1410    53857   51000      0    1.61e+00    0    1.13e+00
2006 05 02  1415    53857   51300      0    1.61e+00    0    1.13e+00
2006 05 02  1420    53857   51600      0    1.63e+00    0    1.16e+00
2006 05 02  1425    53857   51900      0    1.65e+00    0    1.15e+00
2006 05 02  1430    53857   52200      0    1.64e+00    0    1.14e+00
2006 05 02  1435    53857   52500      0    1.64e+00    0    1.15e+00
2006 05 02  1440    53857   52800      0    1.67e+00    0    1.17e+00
2006 05 02  1445    53857   53100      0    1.65e+00    0    1.17e+00
2006 05 02  1450    53857   53400      0    1.66e+00    0    1.17e+00
2006 05 02  1455    53857   53700      0    1.60e+00    0    1.12e+00
2006 05 02  1500    53857   54000      0    1.62e+00    0    1.14e+00
2006 05 02  1505    53857   54300      0    1.60e+00    0    1.11e+00
2006 05 02  1510    53857   54600      0    1.62e+00    0    1.13e+00
2006 05 02  1515    53857   54900      0    1.63e+00    0    1.15e+00
2006 05 02  1520    53857   55200      0    1.64e+00    0    1.15e+00
2006 05 02  1525    53857   55500      0    1.68e+00    0    1.17e+00
2006 05 02  1530    53857   55800      0    1.61e+00    0    1.12e+00
2006 05 02  1535    53857   56100      0    1.64e+00    0    1.15e+00
2006 05 02  1540    53857   56400      0    1.65e+00    0    1.15e+00
2006 05 02  1545    53857   56700      0    1.61e+00    0    1.11e+00
2006 05 02  1550    53857   57000      0    1.66e+00    0    1.17e+00
2006 05 02  1555    53857   57300      0    1.61e+00    0    1.14e+00
2006 05 02  1600    53857   57600      0    1.62e+00    0    1.13e+00
2006 05 02  1605    53857   57900      0    1.63e+00    0    1.14e+00
2006 05 02  1610    53857   58200      0    1.64e+00    0    1.15e+00
2006 05 02  1615    53857   58500      0    1.64e+00    0    1.17e+00
2006 05 02  1620    53857   58800      0    1.65e+00    0    1.16e+00
2006 05 02  1625    53857   59100      0    1.66e+00    0    1.16e+00
2006 05 02  1630    53857   59400      0    1.66e+00    0    1.15e+00
2006 05 02  1635    53857   59700      0    1.62e+00    0    1.14e+00
2006 05 02  1640    53857   60000      0    1.62e+00    0    1.14e+00
2006 05 02  1645    53857   60300      0    1.66e+00    0    1.16e+00
2006 05 02  1650    53857   60600      0    1.63e+00    0    1.15e+00
2006 05 02  1655    53857   60900      0    1.60e+00    0    1.13e+00
2006 05 02  1700    53857   61200      0    1.65e+00    0    1.16e+00
2006 05 02  1705    53857   61500      0    1.61e+00    0    1.13e+00
2006 05 02  1710    53857   61800      0    1.60e+00    0    1.11e+00
2006 05 02  1715    53857   62100      0    1.66e+00    0    1.16e+00
2006 05 02  1720    53857   62400      0    1.64e+00    0    1.15e+00
2006 05 02  1725    53857   62700      0    1.59e+00    0    1.12e+00
2006 05 02  1730    53857   63000      0    1.64e+00    0    1.17e+00
2006 05 02  1735    53857   63300      0    1.63e+00    0    1.16e+00
2006 05 02  1740    53857   63600      0    1.60e+00    0    1.13e+00
2006 05 02  1745    53857   63900      0    1.62e+00    0    1.13e+00
2006 05 02  1750    53857   64200      0    1.63e+00    0    1.14e+00
2006 05 02  1755    53857   64500      0    1.65e+00    0    1.15e+00
2006 05 02  1800    53857   64800      0    1.68e+00    0    1.18e+00
2006 05 02  1805    53857   65100      0    1.62e+00    0    1.13e+00
2006 05 02  1810    53857   65400      0    1.65e+00    0    1.16e+00
2006 05 02  1815    53857   65700      0    1.64e+00    0    1.15e+00
2006 05 02  1820    53857   66000      0    1.68e+00    0    1.19e+00
2006 05 02  1825    53857   66300      0    1.64e+00    0    1.15e+00
2006 05 02  1830    53857   66600      0    1.65e+00    0    1.15e+00
2006 05 02  1835    53857   66900      0    1.63e+00    0    1.15e+00
2006 05 02  1840    53857   67200      0    1.63e+00    0    1.13e+00
2006 05 02  1845    53857   67500      0    1.61e+00    0    1.13e+00
2006 05 02  1850    53857   67800      0    1.61e+00    0    1.12e+00
2006 05 02  1855    53857   68100      0    1.62e+00    0    1.14e+00
2006 05 02  1900    53857   68400      0    1.62e+00    0    1.12e+00
2006 05 02  1905    53857   68700      0    1.65e+00    0    1.15e+00
2006 05 02  1910    53857   69000      0    1.65e+00    0    1.16e+00
2006 05 02  1915    53857   69300      0    1.66e+00    0    1.17e+00
2006 05 02  1920    53857   69600      0    1.61e+00    0    1.13e+00
2006 05 02  1925    53857   69900      0    1.60e+00    0    1.12e+00
2006 05 02  1930    53857   70200      0    1.65e+00    0    1.17e+00
2006 05 02  1935    53857   70500      0    1.60e+00    0    1.11e+00
2006 05 02  1940    53857   70800      0    1.64e+00    0    1.15e+00
2006 05 02  1945    53857   71100      0    1.66e+00    0    1.17e+00
2006 05 02  1950    53857   71400      0    1.68e+00    0    1.18e+00
2006 05 02  1955    53857   71700      0    1.64e+00    0    1.15e+00
2006 05 02  2000    53857   72000      0    1.66e+00    0    1.17e+00
2006 05 02  2005    53857   72300      0    1.61e+00    0    1.14e+00
2006 05 02  2010    53857   72600      0    1.67e+00    0    1.16e+00
2006 05 02  2015    53857   72900      0    1.69e+00    0    1.18e+00
2006 05 02  2020    53857   73200      0    1.64e+00    0    1.16e+00
2006 05 02  2025    53857   73500      0    1.68e+00    0    1.19e+00
2006 05 02  2030    53857   73800      0    1.63e+00    0    1.14e+00
2006 05 02  2035    53857   74100      0    1.66e+00    0    1.17e+00
2006 05 02  2040    53857   74400      0    1.64e+00    0    1.16e+00
2006 05 02  2045    53857   74700      0    1.65e+00    0    1.16e+00
2006 05 02  2050    53857   75000      0    1.66e+00    0    1.17e+00
2006 05 02  2055    53857   75300      0    1.66e+00    0    1.17e+00
2006 05 02  2100    53857   75600      0    1.64e+00    0    1.15e+00
2006 05 02  2105    53857   75900      0    1.67e+00    0    1.18e+00
2006 05 02  2110    53857   76200      0    1.68e+00    0    1.19e+00
2006 05 02  2115    53857   76500      0    1.65e+00    0    1.16e+00
2006 05 02  2120    53857   76800      0    1.62e+00    0    1.13e+00
2006 05 02  2125    53857   77100      0    1.65e+00    0    1.15e+00
2006 05 02  2130    53857   77400      0    1.65e+00    0    1.15e+00
2006 05 02  2135    53857   77700      0    1.66e+00    0    1.17e+00
2006 05 02  2140    53857   78000      0    1.63e+00    0    1.13e+00
2006 05 02  2145    53857   78300      0    1.65e+00    0    1.16e+00
2006 05 02  2150    53857   78600      0    1.61e+00    0    1.13e+00
2006 05 02  2155    53857   78900      0    1.62e+00    0    1.13e+00
2006 05 02  2200    53857   79200      0    1.63e+00    0    1.14e+00
2006 05 02  2205    53857   79500      0    1.66e+00    0    1.16e+00
2006 05 02  2210    53857   79800      0    1.65e+00    0    1.17e+00
2006 05 02  2215    53857   80100      0    1.65e+00    0    1.14e+00
2006 05 02  2220    53857   80400      0    1.61e+00    0    1.13e+00
2006 05 02  2225    53857   80700      0    1.65e+00    0    1.15e+00
2006 05 02  2230    53857   81000      0    1.65e+00    0    1.16e+00
2006 05 02  2235    53857   81300      0    1.63e+00    0    1.13e+00
2006 05 02  2240    53857   81600      0    1.60e+00    0    1.11e+00
2006 05 02  2245    53857   81900      0    1.69e+00    0    1.18e+00
2006 05 02  2250    53857   82200      0    1.65e+00    0    1.16e+00
2006 05 02  2255    53857   82500      0    1.66e+00    0    1.16e+00
2006 05 02  2300    53857   82800      0    1.66e+00    0    1.16e+00
2006 05 02  2305    53857   83100      0    1.67e+00    0    1.18e+00
2006 05 02  2310    53857   83400      0    1.65e+00    0    1.15e+00
2006 05 02  2315    53857   83700      0    1.62e+00    0    1.14e+00
2006 05 02  2320    53857   84000      0    1.65e+00    0    1.15e+00
2006 05 02  2325    53857   84300      0    1.67e+00    0    1.16e+00
2006 05 02  2330    53857   84600      0    1.64e+00    0    1.15e+00
2006 05 02  2335    53857   84900      0    1.67e+00    0    1.19e+00
2006 05 02  2340    53857   85200      0    1.65e+00    0    1.15e+00
2006 05 02  2345    53857   85500      0    1.66e+00    0    1.16e+00
2006 05 02  2350    53857   85800      0    1.55e+00    0    1.08e+00
2006 05 02  2355    53857   86100      0    1.65e+00    0    1.14e+00
