:Data_list: 20060610_ace_sis_5m.txt
:Created: 2006 Jun 11 0011 UT
# Prepared by the U.S. Dept. of Commerce, NOAA, Space Environment Center.
# Please send comments and suggestions to SEC.Webmaster@noaa.gov 
# 
# Units: proton flux p/cs2-sec-ster
# Status(S): 0 = nominal data, 1 to 8 = bad data record, 9 = no data
# Missing data values: -1.00e+05
# Source: ACE Satellite - Solar Isotope Spectrometer
#
# 5-minute averaged Real-time Integral Flux of High-energy Solar Protons
# 
#                 Modified Seconds
# UT Date   Time   Julian  of the      ---- Integral Proton Flux ----
# YR MO DA  HHMM     Day     Day       S    > 10 MeV    S    > 30 MeV
#--------------------------------------------------------------------
2006 06 10  0000    53896       0      0    1.61e+00    0    1.13e+00
2006 06 10  0005    53896     300      0    1.62e+00    0    1.14e+00
2006 06 10  0010    53896     600      0    1.62e+00    0    1.14e+00
2006 06 10  0015    53896     900      0    1.58e+00    0    1.11e+00
2006 06 10  0020    53896    1200      0    1.60e+00    0    1.13e+00
2006 06 10  0025    53896    1500      0    1.60e+00    0    1.13e+00
2006 06 10  0030    53896    1800      0    1.64e+00    0    1.16e+00
2006 06 10  0035    53896    2100      0    1.63e+00    0    1.15e+00
2006 06 10  0040    53896    2400      0    1.62e+00    0    1.13e+00
2006 06 10  0045    53896    2700      0    1.58e+00    0    1.12e+00
2006 06 10  0050    53896    3000      0    1.60e+00    0    1.12e+00
2006 06 10  0055    53896    3300      0    1.57e+00    0    1.10e+00
2006 06 10  0100    53896    3600      0    1.63e+00    0    1.15e+00
2006 06 10  0105    53896    3900      0    1.59e+00    0    1.11e+00
2006 06 10  0110    53896    4200      0    1.57e+00    0    1.10e+00
2006 06 10  0115    53896    4500      0    1.60e+00    0    1.13e+00
2006 06 10  0120    53896    4800      0    1.60e+00    0    1.13e+00
2006 06 10  0125    53896    5100      0    1.56e+00    0    1.09e+00
2006 06 10  0130    53896    5400      0    1.58e+00    0    1.11e+00
2006 06 10  0135    53896    5700      0    1.57e+00    0    1.10e+00
2006 06 10  0140    53896    6000      0    1.58e+00    0    1.09e+00
2006 06 10  0145    53896    6300      0    1.61e+00    0    1.14e+00
2006 06 10  0150    53896    6600      0    1.58e+00    0    1.10e+00
2006 06 10  0155    53896    6900      0    1.57e+00    0    1.09e+00
2006 06 10  0200    53896    7200      0    1.60e+00    0    1.12e+00
2006 06 10  0205    53896    7500      0    1.60e+00    0    1.12e+00
2006 06 10  0210    53896    7800      0    1.61e+00    0    1.13e+00
2006 06 10  0215    53896    8100      0    1.56e+00    0    1.10e+00
2006 06 10  0220    53896    8400      0    1.60e+00    0    1.14e+00
2006 06 10  0225    53896    8700      0    1.61e+00    0    1.12e+00
2006 06 10  0230    53896    9000      0    1.63e+00    0    1.14e+00
2006 06 10  0235    53896    9300      0    1.57e+00    0    1.10e+00
2006 06 10  0240    53896    9600      0    1.58e+00    0    1.09e+00
2006 06 10  0245    53896    9900      0    1.56e+00    0    1.09e+00
2006 06 10  0250    53896   10200      0    1.63e+00    0    1.14e+00
2006 06 10  0255    53896   10500      0    1.60e+00    0    1.13e+00
2006 06 10  0300    53896   10800      0    1.59e+00    0    1.11e+00
2006 06 10  0305    53896   11100      0    1.56e+00    0    1.10e+00
2006 06 10  0310    53896   11400      0    1.56e+00    0    1.09e+00
2006 06 10  0315    53896   11700      0    1.57e+00    0    1.11e+00
2006 06 10  0320    53896   12000      0    1.60e+00    0    1.13e+00
2006 06 10  0325    53896   12300      0    1.59e+00    0    1.11e+00
2006 06 10  0330    53896   12600      0    1.60e+00    0    1.12e+00
2006 06 10  0335    53896   12900      0    1.56e+00    0    1.09e+00
2006 06 10  0340    53896   13200      0    1.61e+00    0    1.14e+00
2006 06 10  0345    53896   13500      0    1.56e+00    0    1.09e+00
2006 06 10  0350    53896   13800      0    1.58e+00    0    1.11e+00
2006 06 10  0355    53896   14100      0    1.61e+00    0    1.13e+00
2006 06 10  0400    53896   14400      0    1.60e+00    0    1.12e+00
2006 06 10  0405    53896   14700      0    1.63e+00    0    1.15e+00
2006 06 10  0410    53896   15000      0    1.62e+00    0    1.14e+00
2006 06 10  0415    53896   15300      0    1.64e+00    0    1.14e+00
2006 06 10  0420    53896   15600      0    1.57e+00    0    1.11e+00
2006 06 10  0425    53896   15900      0    1.58e+00    0    1.11e+00
2006 06 10  0430    53896   16200      0    1.59e+00    0    1.11e+00
2006 06 10  0435    53896   16500      0    1.59e+00    0    1.12e+00
2006 06 10  0440    53896   16800      0    1.62e+00    0    1.13e+00
2006 06 10  0445    53896   17100      0    1.57e+00    0    1.10e+00
2006 06 10  0450    53896   17400      0    1.60e+00    0    1.13e+00
2006 06 10  0455    53896   17700      0    1.59e+00    0    1.11e+00
2006 06 10  0500    53896   18000      0    1.58e+00    0    1.10e+00
2006 06 10  0505    53896   18300      0    1.60e+00    0    1.11e+00
2006 06 10  0510    53896   18600      0    1.57e+00    0    1.10e+00
2006 06 10  0515    53896   18900      0    1.59e+00    0    1.10e+00
2006 06 10  0520    53896   19200      0    1.61e+00    0    1.14e+00
2006 06 10  0525    53896   19500      0    1.60e+00    0    1.12e+00
2006 06 10  0530    53896   19800      0    1.60e+00    0    1.12e+00
2006 06 10  0535    53896   20100      0    1.60e+00    0    1.12e+00
2006 06 10  0540    53896   20400      0    1.61e+00    0    1.13e+00
2006 06 10  0545    53896   20700      0    1.58e+00    0    1.11e+00
2006 06 10  0550    53896   21000      0    1.62e+00    0    1.14e+00
2006 06 10  0555    53896   21300      0    1.59e+00    0    1.11e+00
2006 06 10  0600    53896   21600      0    1.60e+00    0    1.11e+00
2006 06 10  0605    53896   21900      0    1.54e+00    0    1.08e+00
2006 06 10  0610    53896   22200      0    1.57e+00    0    1.10e+00
2006 06 10  0615    53896   22500      0    1.57e+00    0    1.09e+00
2006 06 10  0620    53896   22800      0    1.59e+00    0    1.12e+00
2006 06 10  0625    53896   23100      0    1.60e+00    0    1.12e+00
2006 06 10  0630    53896   23400      0    1.61e+00    0    1.14e+00
2006 06 10  0635    53896   23700      0    1.63e+00    0    1.15e+00
2006 06 10  0640    53896   24000      0    1.57e+00    0    1.09e+00
2006 06 10  0645    53896   24300      0    1.55e+00    0    1.08e+00
2006 06 10  0650    53896   24600      0    1.59e+00    0    1.10e+00
2006 06 10  0655    53896   24900      0    1.61e+00    0    1.12e+00
2006 06 10  0700    53896   25200      0    1.60e+00    0    1.11e+00
2006 06 10  0705    53896   25500      0    1.57e+00    0    1.10e+00
2006 06 10  0710    53896   25800      0    1.59e+00    0    1.12e+00
2006 06 10  0715    53896   26100      0    1.57e+00    0    1.11e+00
2006 06 10  0720    53896   26400      0    1.57e+00    0    1.09e+00
2006 06 10  0725    53896   26700      0    1.63e+00    0    1.14e+00
2006 06 10  0730    53896   27000      0    1.59e+00    0    1.11e+00
2006 06 10  0735    53896   27300      0    1.55e+00    0    1.09e+00
2006 06 10  0740    53896   27600      0    1.60e+00    0    1.13e+00
2006 06 10  0745    53896   27900      0    1.59e+00    0    1.11e+00
2006 06 10  0750    53896   28200      0    1.56e+00    0    1.09e+00
2006 06 10  0755    53896   28500      0    1.60e+00    0    1.13e+00
2006 06 10  0800    53896   28800      0    1.58e+00    0    1.11e+00
2006 06 10  0805    53896   29100      0    1.55e+00    0    1.09e+00
2006 06 10  0810    53896   29400      0    1.56e+00    0    1.09e+00
2006 06 10  0815    53896   29700      0    1.58e+00    0    1.10e+00
2006 06 10  0820    53896   30000      0    1.61e+00    0    1.13e+00
2006 06 10  0825    53896   30300      0    1.60e+00    0    1.11e+00
2006 06 10  0830    53896   30600      0    1.60e+00    0    1.12e+00
2006 06 10  0835    53896   30900      0    1.62e+00    0    1.13e+00
2006 06 10  0840    53896   31200      0    1.57e+00    0    1.08e+00
2006 06 10  0845    53896   31500      0    1.61e+00    0    1.14e+00
2006 06 10  0850    53896   31800      0    1.59e+00    0    1.12e+00
2006 06 10  0855    53896   32100      0    1.58e+00    0    1.09e+00
2006 06 10  0900    53896   32400      0    1.60e+00    0    1.12e+00
2006 06 10  0905    53896   32700      0    1.58e+00    0    1.10e+00
2006 06 10  0910    53896   33000      0    1.60e+00    0    1.13e+00
2006 06 10  0915    53896   33300      0    1.61e+00    0    1.12e+00
2006 06 10  0920    53896   33600      0    1.60e+00    0    1.11e+00
2006 06 10  0925    53896   33900      0    1.57e+00    0    1.10e+00
2006 06 10  0930    53896   34200      0    1.58e+00    0    1.10e+00
2006 06 10  0935    53896   34500      0    1.56e+00    0    1.08e+00
2006 06 10  0940    53896   34800      0    1.65e+00    0    1.17e+00
2006 06 10  0945    53896   35100      0    1.64e+00    0    1.15e+00
2006 06 10  0950    53896   35400      0    1.65e+00    0    1.15e+00
2006 06 10  0955    53896   35700      0    1.60e+00    0    1.14e+00
2006 06 10  1000    53896   36000      0    1.63e+00    0    1.14e+00
2006 06 10  1005    53896   36300      0    1.60e+00    0    1.12e+00
2006 06 10  1010    53896   36600      0    1.58e+00    0    1.11e+00
2006 06 10  1015    53896   36900      0    1.57e+00    0    1.10e+00
2006 06 10  1020    53896   37200      0    1.61e+00    0    1.14e+00
2006 06 10  1025    53896   37500      0    1.59e+00    0    1.12e+00
2006 06 10  1030    53896   37800      0    1.60e+00    0    1.13e+00
2006 06 10  1035    53896   38100      0    1.64e+00    0    1.14e+00
2006 06 10  1040    53896   38400      0    1.65e+00    0    1.16e+00
2006 06 10  1045    53896   38700      0    1.63e+00    0    1.16e+00
2006 06 10  1050    53896   39000      0    1.58e+00    0    1.09e+00
2006 06 10  1055    53896   39300      0    1.61e+00    0    1.13e+00
2006 06 10  1100    53896   39600      0    1.62e+00    0    1.13e+00
2006 06 10  1105    53896   39900      0    1.60e+00    0    1.12e+00
2006 06 10  1110    53896   40200      0    1.60e+00    0    1.11e+00
2006 06 10  1115    53896   40500      0    1.57e+00    0    1.10e+00
2006 06 10  1120    53896   40800      0    1.61e+00    0    1.12e+00
2006 06 10  1125    53896   41100      0    1.62e+00    0    1.13e+00
2006 06 10  1130    53896   41400      0    1.61e+00    0    1.12e+00
2006 06 10  1135    53896   41700      0    1.63e+00    0    1.15e+00
2006 06 10  1140    53896   42000      0    1.62e+00    0    1.12e+00
2006 06 10  1145    53896   42300      0    1.55e+00    0    1.08e+00
2006 06 10  1150    53896   42600      0    1.56e+00    0    1.09e+00
2006 06 10  1155    53896   42900      0    1.58e+00    0    1.11e+00
2006 06 10  1200    53896   43200      0    1.63e+00    0    1.14e+00
2006 06 10  1205    53896   43500      0    1.60e+00    0    1.11e+00
2006 06 10  1210    53896   43800      0    1.57e+00    0    1.11e+00
2006 06 10  1215    53896   44100      0    1.58e+00    0    1.11e+00
2006 06 10  1220    53896   44400      0    1.59e+00    0    1.12e+00
2006 06 10  1225    53896   44700      0    1.62e+00    0    1.13e+00
2006 06 10  1230    53896   45000      0    1.58e+00    0    1.11e+00
2006 06 10  1235    53896   45300      0    1.63e+00    0    1.14e+00
2006 06 10  1240    53896   45600      0    1.62e+00    0    1.14e+00
2006 06 10  1245    53896   45900      0    1.60e+00    0    1.13e+00
2006 06 10  1250    53896   46200      0    1.60e+00    0    1.11e+00
2006 06 10  1255    53896   46500      0    1.61e+00    0    1.13e+00
2006 06 10  1300    53896   46800      0    1.62e+00    0    1.14e+00
2006 06 10  1305    53896   47100      0    1.59e+00    0    1.11e+00
2006 06 10  1310    53896   47400      0    1.58e+00    0    1.11e+00
2006 06 10  1315    53896   47700      0    1.62e+00    0    1.15e+00
2006 06 10  1320    53896   48000      0    1.59e+00    0    1.11e+00
2006 06 10  1325    53896   48300      0    1.60e+00    0    1.12e+00
2006 06 10  1330    53896   48600      0    1.60e+00    0    1.12e+00
2006 06 10  1335    53896   48900      0    1.58e+00    0    1.10e+00
2006 06 10  1340    53896   49200      0    1.59e+00    0    1.12e+00
2006 06 10  1345    53896   49500      0    1.58e+00    0    1.12e+00
2006 06 10  1350    53896   49800      0    1.63e+00    0    1.14e+00
2006 06 10  1355    53896   50100      0    1.62e+00    0    1.13e+00
2006 06 10  1400    53896   50400      0    1.59e+00    0    1.13e+00
2006 06 10  1405    53896   50700      0    1.61e+00    0    1.13e+00
2006 06 10  1410    53896   51000      0    1.59e+00    0    1.12e+00
2006 06 10  1415    53896   51300      0    1.60e+00    0    1.11e+00
2006 06 10  1420    53896   51600      0    1.61e+00    0    1.13e+00
2006 06 10  1425    53896   51900      0    1.56e+00    0    1.10e+00
2006 06 10  1430    53896   52200      0    1.64e+00    0    1.13e+00
2006 06 10  1435    53896   52500      0    1.59e+00    0    1.12e+00
2006 06 10  1440    53896   52800      0    1.61e+00    0    1.13e+00
2006 06 10  1445    53896   53100      0    1.60e+00    0    1.12e+00
2006 06 10  1450    53896   53400      0    1.60e+00    0    1.11e+00
2006 06 10  1455    53896   53700      0    1.60e+00    0    1.13e+00
2006 06 10  1500    53896   54000      0    1.59e+00    0    1.11e+00
2006 06 10  1505    53896   54300      0    1.59e+00    0    1.10e+00
2006 06 10  1510    53896   54600      0    1.59e+00    0    1.11e+00
2006 06 10  1515    53896   54900      0    1.63e+00    0    1.15e+00
2006 06 10  1520    53896   55200      0    1.57e+00    0    1.10e+00
2006 06 10  1525    53896   55500      0    1.61e+00    0    1.12e+00
2006 06 10  1530    53896   55800      0    1.58e+00    0    1.10e+00
2006 06 10  1535    53896   56100      0    1.59e+00    0    1.11e+00
2006 06 10  1540    53896   56400      0    1.56e+00    0    1.08e+00
2006 06 10  1545    53896   56700      0    1.60e+00    0    1.11e+00
2006 06 10  1550    53896   57000      0    1.57e+00    0    1.11e+00
2006 06 10  1555    53896   57300      0    1.62e+00    0    1.12e+00
2006 06 10  1600    53896   57600      0    1.60e+00    0    1.11e+00
2006 06 10  1605    53896   57900      0    1.61e+00    0    1.13e+00
2006 06 10  1610    53896   58200      0    1.58e+00    0    1.10e+00
2006 06 10  1615    53896   58500      0    1.59e+00    0    1.11e+00
2006 06 10  1620    53896   58800      0    1.60e+00    0    1.12e+00
2006 06 10  1625    53896   59100      0    1.59e+00    0    1.10e+00
2006 06 10  1630    53896   59400      0    1.62e+00    0    1.14e+00
2006 06 10  1635    53896   59700      0    1.56e+00    0    1.10e+00
2006 06 10  1640    53896   60000      0    1.59e+00    0    1.12e+00
2006 06 10  1645    53896   60300      0    1.62e+00    0    1.14e+00
2006 06 10  1650    53896   60600      0    1.58e+00    0    1.11e+00
2006 06 10  1655    53896   60900      0    1.58e+00    0    1.10e+00
2006 06 10  1700    53896   61200      0    1.60e+00    0    1.12e+00
2006 06 10  1705    53896   61500      0    1.62e+00    0    1.14e+00
2006 06 10  1710    53896   61800      0    1.60e+00    0    1.12e+00
2006 06 10  1715    53896   62100      0    1.56e+00    0    1.09e+00
2006 06 10  1720    53896   62400      0    1.56e+00    0    1.09e+00
2006 06 10  1725    53896   62700      0    1.58e+00    0    1.10e+00
2006 06 10  1730    53896   63000      0    1.57e+00    0    1.11e+00
2006 06 10  1735    53896   63300      0    1.58e+00    0    1.11e+00
2006 06 10  1740    53896   63600      0    1.57e+00    0    1.10e+00
2006 06 10  1745    53896   63900      0    1.57e+00    0    1.11e+00
2006 06 10  1750    53896   64200      0    1.58e+00    0    1.11e+00
2006 06 10  1755    53896   64500      0    1.60e+00    0    1.12e+00
2006 06 10  1800    53896   64800      0    1.61e+00    0    1.13e+00
2006 06 10  1805    53896   65100      0    1.59e+00    0    1.11e+00
2006 06 10  1810    53896   65400      0    1.60e+00    0    1.13e+00
2006 06 10  1815    53896   65700      0    1.59e+00    0    1.13e+00
2006 06 10  1820    53896   66000      0    1.57e+00    0    1.10e+00
2006 06 10  1825    53896   66300      0    1.58e+00    0    1.12e+00
2006 06 10  1830    53896   66600      0    1.58e+00    0    1.11e+00
2006 06 10  1835    53896   66900      0    1.60e+00    0    1.12e+00
2006 06 10  1840    53896   67200      0    1.57e+00    0    1.11e+00
2006 06 10  1845    53896   67500      0    1.59e+00    0    1.11e+00
2006 06 10  1850    53896   67800      0    1.59e+00    0    1.11e+00
2006 06 10  1855    53896   68100      0    1.62e+00    0    1.13e+00
2006 06 10  1900    53896   68400      0    1.61e+00    0    1.15e+00
2006 06 10  1905    53896   68700      0    1.57e+00    0    1.11e+00
2006 06 10  1910    53896   69000      0    1.56e+00    0    1.10e+00
2006 06 10  1915    53896   69300      0    1.59e+00    0    1.11e+00
2006 06 10  1920    53896   69600      0    1.60e+00    0    1.13e+00
2006 06 10  1925    53896   69900      0    1.57e+00    0    1.11e+00
2006 06 10  1930    53896   70200      0    1.58e+00    0    1.11e+00
2006 06 10  1935    53896   70500      0    1.58e+00    0    1.11e+00
2006 06 10  1940    53896   70800      0    1.57e+00    0    1.09e+00
2006 06 10  1945    53896   71100      0    1.58e+00    0    1.11e+00
2006 06 10  1950    53896   71400      0    1.56e+00    0    1.09e+00
2006 06 10  1955    53896   71700      0    1.58e+00    0    1.11e+00
2006 06 10  2000    53896   72000      0    1.57e+00    0    1.10e+00
2006 06 10  2005    53896   72300      0    1.58e+00    0    1.09e+00
2006 06 10  2010    53896   72600      0    1.59e+00    0    1.12e+00
2006 06 10  2015    53896   72900      0    1.59e+00    0    1.12e+00
2006 06 10  2020    53896   73200      0    1.61e+00    0    1.13e+00
2006 06 10  2025    53896   73500      0    1.59e+00    0    1.11e+00
2006 06 10  2030    53896   73800      0    1.59e+00    0    1.12e+00
2006 06 10  2035    53896   74100      0    1.56e+00    0    1.10e+00
2006 06 10  2040    53896   74400      0    1.57e+00    0    1.11e+00
2006 06 10  2045    53896   74700      0    1.61e+00    0    1.13e+00
2006 06 10  2050    53896   75000      0    1.57e+00    0    1.10e+00
2006 06 10  2055    53896   75300      0    1.59e+00    0    1.10e+00
2006 06 10  2100    53896   75600      0    1.58e+00    0    1.11e+00
2006 06 10  2105    53896   75900      0    1.60e+00    0    1.12e+00
2006 06 10  2110    53896   76200      0    1.59e+00    0    1.12e+00
2006 06 10  2115    53896   76500      0    1.64e+00    0    1.14e+00
2006 06 10  2120    53896   76800      0    1.62e+00    0    1.13e+00
2006 06 10  2125    53896   77100      0    1.62e+00    0    1.13e+00
2006 06 10  2130    53896   77400      0    1.58e+00    0    1.10e+00
2006 06 10  2135    53896   77700      0    1.55e+00    0    1.08e+00
2006 06 10  2140    53896   78000      0    1.61e+00    0    1.12e+00
2006 06 10  2145    53896   78300      0    1.58e+00    0    1.13e+00
2006 06 10  2150    53896   78600      0    1.64e+00    0    1.15e+00
2006 06 10  2155    53896   78900      0    1.57e+00    0    1.10e+00
2006 06 10  2200    53896   79200      0    1.61e+00    0    1.12e+00
2006 06 10  2205    53896   79500      0    1.58e+00    0    1.11e+00
2006 06 10  2210    53896   79800      0    1.57e+00    0    1.11e+00
2006 06 10  2215    53896   80100      0    1.59e+00    0    1.10e+00
2006 06 10  2220    53896   80400      0    1.59e+00    0    1.11e+00
2006 06 10  2225    53896   80700      0    1.59e+00    0    1.11e+00
2006 06 10  2230    53896   81000      0    1.61e+00    0    1.14e+00
2006 06 10  2235    53896   81300      0    1.60e+00    0    1.13e+00
2006 06 10  2240    53896   81600      0    1.60e+00    0    1.12e+00
2006 06 10  2245    53896   81900      0    1.60e+00    0    1.12e+00
2006 06 10  2250    53896   82200      0    1.58e+00    0    1.12e+00
2006 06 10  2255    53896   82500      0    1.61e+00    0    1.12e+00
2006 06 10  2300    53896   82800      0    1.60e+00    0    1.12e+00
2006 06 10  2305    53896   83100      0    1.62e+00    0    1.14e+00
2006 06 10  2310    53896   83400      0    1.63e+00    0    1.14e+00
2006 06 10  2315    53896   83700      0    1.60e+00    0    1.11e+00
2006 06 10  2320    53896   84000      0    1.57e+00    0    1.10e+00
2006 06 10  2325    53896   84300      0    1.60e+00    0    1.13e+00
2006 06 10  2330    53896   84600      0    1.58e+00    0    1.10e+00
2006 06 10  2335    53896   84900      0    1.59e+00    0    1.11e+00
2006 06 10  2340    53896   85200      0    1.59e+00    0    1.11e+00
2006 06 10  2345    53896   85500      0    1.59e+00    0    1.11e+00
2006 06 10  2350    53896   85800      0    1.62e+00    0    1.14e+00
2006 06 10  2355    53896   86100      0    1.59e+00    0    1.10e+00
