:Data_list: 20061016_ace_sis_5m.txt
:Created: 2006 Oct 17 0011 UT
# Prepared by the U.S. Dept. of Commerce, NOAA, Space Environment Center.
# Please send comments and suggestions to SEC.Webmaster@noaa.gov 
# 
# Units: proton flux p/cs2-sec-ster
# Status(S): 0 = nominal data, 1 to 8 = bad data record, 9 = no data
# Missing data values: -1.00e+05
# Source: ACE Satellite - Solar Isotope Spectrometer
#
# 5-minute averaged Real-time Integral Flux of High-energy Solar Protons
# 
#                 Modified Seconds
# UT Date   Time   Julian  of the      ---- Integral Proton Flux ----
# YR MO DA  HHMM     Day     Day       S    > 10 MeV    S    > 30 MeV
#--------------------------------------------------------------------
2006 10 16  0000    54024       0      0    1.66e+00    0    1.17e+00
2006 10 16  0005    54024     300      0    1.70e+00    0    1.19e+00
2006 10 16  0010    54024     600      0    1.64e+00    0    1.15e+00
2006 10 16  0015    54024     900      0    1.64e+00    0    1.16e+00
2006 10 16  0020    54024    1200      0    1.68e+00    0    1.17e+00
2006 10 16  0025    54024    1500      0    1.67e+00    0    1.17e+00
2006 10 16  0030    54024    1800      0    1.67e+00    0    1.17e+00
2006 10 16  0035    54024    2100      0    1.66e+00    0    1.16e+00
2006 10 16  0040    54024    2400      0    1.68e+00    0    1.18e+00
2006 10 16  0045    54024    2700      0    1.69e+00    0    1.19e+00
2006 10 16  0050    54024    3000      0    1.64e+00    0    1.14e+00
2006 10 16  0055    54024    3300      0    1.65e+00    0    1.16e+00
2006 10 16  0100    54024    3600      0    1.64e+00    0    1.16e+00
2006 10 16  0105    54024    3900      0    1.64e+00    0    1.14e+00
2006 10 16  0110    54024    4200      0    1.68e+00    0    1.17e+00
2006 10 16  0115    54024    4500      0    1.66e+00    0    1.17e+00
2006 10 16  0120    54024    4800      0    1.66e+00    0    1.17e+00
2006 10 16  0125    54024    5100      0    1.67e+00    0    1.16e+00
2006 10 16  0130    54024    5400      0    1.67e+00    0    1.18e+00
2006 10 16  0135    54024    5700      0    1.70e+00    0    1.18e+00
2006 10 16  0140    54024    6000      0    1.69e+00    0    1.17e+00
2006 10 16  0145    54024    6300      0    1.71e+00    0    1.19e+00
2006 10 16  0150    54024    6600      0    1.66e+00    0    1.16e+00
2006 10 16  0155    54024    6900      0    1.67e+00    0    1.17e+00
2006 10 16  0200    54024    7200      0    1.67e+00    0    1.17e+00
2006 10 16  0205    54024    7500      0    1.66e+00    0    1.16e+00
2006 10 16  0210    54024    7800      0    1.70e+00    0    1.20e+00
2006 10 16  0215    54024    8100      0    1.66e+00    0    1.16e+00
2006 10 16  0220    54024    8400      0    1.65e+00    0    1.16e+00
2006 10 16  0225    54024    8700      0    1.66e+00    0    1.18e+00
2006 10 16  0230    54024    9000      0    1.66e+00    0    1.15e+00
2006 10 16  0235    54024    9300      0    1.69e+00    0    1.18e+00
2006 10 16  0240    54024    9600      0    1.68e+00    0    1.18e+00
2006 10 16  0245    54024    9900      0    1.65e+00    0    1.16e+00
2006 10 16  0250    54024   10200      0    1.64e+00    0    1.16e+00
2006 10 16  0255    54024   10500      0    1.66e+00    0    1.16e+00
2006 10 16  0300    54024   10800      0    1.70e+00    0    1.21e+00
2006 10 16  0305    54024   11100      0    1.64e+00    0    1.15e+00
2006 10 16  0310    54024   11400      0    1.64e+00    0    1.14e+00
2006 10 16  0315    54024   11700      0    1.70e+00    0    1.21e+00
2006 10 16  0320    54024   12000      0    1.69e+00    0    1.18e+00
2006 10 16  0325    54024   12300      0    1.70e+00    0    1.20e+00
2006 10 16  0330    54024   12600      0    1.68e+00    0    1.17e+00
2006 10 16  0335    54024   12900      0    1.66e+00    0    1.15e+00
2006 10 16  0340    54024   13200      0    1.66e+00    0    1.17e+00
2006 10 16  0345    54024   13500      0    1.64e+00    0    1.14e+00
2006 10 16  0350    54024   13800      0    1.66e+00    0    1.16e+00
2006 10 16  0355    54024   14100      0    1.68e+00    0    1.18e+00
2006 10 16  0400    54024   14400      0    1.69e+00    0    1.18e+00
2006 10 16  0405    54024   14700      0    1.68e+00    0    1.19e+00
2006 10 16  0410    54024   15000      0    1.67e+00    0    1.17e+00
2006 10 16  0415    54024   15300      0    1.68e+00    0    1.18e+00
2006 10 16  0420    54024   15600      0    1.66e+00    0    1.16e+00
2006 10 16  0425    54024   15900      0    1.71e+00    0    1.20e+00
2006 10 16  0430    54024   16200      0    1.67e+00    0    1.16e+00
2006 10 16  0435    54024   16500      0    1.66e+00    0    1.16e+00
2006 10 16  0440    54024   16800      0    1.68e+00    0    1.17e+00
2006 10 16  0445    54024   17100      0    1.65e+00    0    1.16e+00
2006 10 16  0450    54024   17400      0    1.66e+00    0    1.15e+00
2006 10 16  0455    54024   17700      0    1.71e+00    0    1.20e+00
2006 10 16  0500    54024   18000      0    1.66e+00    0    1.16e+00
2006 10 16  0505    54024   18300      0    1.69e+00    0    1.19e+00
2006 10 16  0510    54024   18600      0    1.67e+00    0    1.17e+00
2006 10 16  0515    54024   18900      0    1.68e+00    0    1.18e+00
2006 10 16  0520    54024   19200      0    1.73e+00    0    1.22e+00
2006 10 16  0525    54024   19500      0    1.65e+00    0    1.17e+00
2006 10 16  0530    54024   19800      0    1.63e+00    0    1.14e+00
2006 10 16  0535    54024   20100      0    1.67e+00    0    1.16e+00
2006 10 16  0540    54024   20400      0    1.69e+00    0    1.18e+00
2006 10 16  0545    54024   20700      0    1.68e+00    0    1.18e+00
2006 10 16  0550    54024   21000      0    1.66e+00    0    1.17e+00
2006 10 16  0555    54024   21300      0    1.66e+00    0    1.18e+00
2006 10 16  0600    54024   21600      0    1.68e+00    0    1.19e+00
2006 10 16  0605    54024   21900      0    1.66e+00    0    1.15e+00
2006 10 16  0610    54024   22200      0    1.72e+00    0    1.20e+00
2006 10 16  0615    54024   22500      0    1.67e+00    0    1.18e+00
2006 10 16  0620    54024   22800      0    1.70e+00    0    1.18e+00
2006 10 16  0625    54024   23100      0    1.69e+00    0    1.18e+00
2006 10 16  0630    54024   23400      0    1.69e+00    0    1.18e+00
2006 10 16  0635    54024   23700      0    1.67e+00    0    1.18e+00
2006 10 16  0640    54024   24000      9   -1.00e+05    9   -1.00e+05
2006 10 16  0645    54024   24300      9   -1.00e+05    9   -1.00e+05
2006 10 16  0650    54024   24600      9   -1.00e+05    9   -1.00e+05
2006 10 16  0655    54024   24900      0    1.67e+00    0    1.16e+00
2006 10 16  0700    54024   25200      0    1.68e+00    0    1.17e+00
2006 10 16  0705    54024   25500      0    1.66e+00    0    1.16e+00
2006 10 16  0710    54024   25800      0    1.67e+00    0    1.16e+00
2006 10 16  0715    54024   26100      0    1.68e+00    0    1.17e+00
2006 10 16  0720    54024   26400      0    1.61e+00    0    1.13e+00
2006 10 16  0725    54024   26700      0    1.69e+00    0    1.20e+00
2006 10 16  0730    54024   27000      0    1.68e+00    0    1.16e+00
2006 10 16  0735    54024   27300      0    1.68e+00    0    1.18e+00
2006 10 16  0740    54024   27600      0    1.67e+00    0    1.17e+00
2006 10 16  0745    54024   27900      0    1.67e+00    0    1.17e+00
2006 10 16  0750    54024   28200      0    1.70e+00    0    1.20e+00
2006 10 16  0755    54024   28500      0    1.69e+00    0    1.19e+00
2006 10 16  0800    54024   28800      0    1.70e+00    0    1.21e+00
2006 10 16  0805    54024   29100      0    1.69e+00    0    1.19e+00
2006 10 16  0810    54024   29400      0    1.66e+00    0    1.17e+00
2006 10 16  0815    54024   29700      0    1.71e+00    0    1.21e+00
2006 10 16  0820    54024   30000      0    1.72e+00    0    1.21e+00
2006 10 16  0825    54024   30300      0    1.68e+00    0    1.18e+00
2006 10 16  0830    54024   30600      0    1.71e+00    0    1.20e+00
2006 10 16  0835    54024   30900      0    1.69e+00    0    1.19e+00
2006 10 16  0840    54024   31200      0    1.71e+00    0    1.20e+00
2006 10 16  0845    54024   31500      0    1.70e+00    0    1.19e+00
2006 10 16  0850    54024   31800      0    1.68e+00    0    1.17e+00
2006 10 16  0855    54024   32100      0    1.67e+00    0    1.17e+00
2006 10 16  0900    54024   32400      0    1.68e+00    0    1.18e+00
2006 10 16  0905    54024   32700      0    1.69e+00    0    1.18e+00
2006 10 16  0910    54024   33000      0    1.69e+00    0    1.19e+00
2006 10 16  0915    54024   33300      0    1.65e+00    0    1.15e+00
2006 10 16  0920    54024   33600      0    1.66e+00    0    1.16e+00
2006 10 16  0925    54024   33900      0    1.65e+00    0    1.15e+00
2006 10 16  0930    54024   34200      0    1.70e+00    0    1.19e+00
2006 10 16  0935    54024   34500      0    1.72e+00    0    1.20e+00
2006 10 16  0940    54024   34800      0    1.70e+00    0    1.19e+00
2006 10 16  0945    54024   35100      0    1.67e+00    0    1.17e+00
2006 10 16  0950    54024   35400      0    1.64e+00    0    1.15e+00
2006 10 16  0955    54024   35700      0    1.66e+00    0    1.16e+00
2006 10 16  1000    54024   36000      0    1.72e+00    0    1.21e+00
2006 10 16  1005    54024   36300      0    1.65e+00    0    1.15e+00
2006 10 16  1010    54024   36600      0    1.68e+00    0    1.18e+00
2006 10 16  1015    54024   36900      0    1.68e+00    0    1.17e+00
2006 10 16  1020    54024   37200      0    1.70e+00    0    1.19e+00
2006 10 16  1025    54024   37500      0    1.70e+00    0    1.18e+00
2006 10 16  1030    54024   37800      0    1.68e+00    0    1.18e+00
2006 10 16  1035    54024   38100      0    1.71e+00    0    1.20e+00
2006 10 16  1040    54024   38400      0    1.61e+00    0    1.13e+00
2006 10 16  1045    54024   38700      0    1.71e+00    0    1.21e+00
2006 10 16  1050    54024   39000      0    1.70e+00    0    1.19e+00
2006 10 16  1055    54024   39300      0    1.68e+00    0    1.17e+00
2006 10 16  1100    54024   39600      0    1.65e+00    0    1.15e+00
2006 10 16  1105    54024   39900      0    1.67e+00    0    1.16e+00
2006 10 16  1110    54024   40200      0    1.68e+00    0    1.17e+00
2006 10 16  1115    54024   40500      0    1.72e+00    0    1.22e+00
2006 10 16  1120    54024   40800      0    1.70e+00    0    1.20e+00
2006 10 16  1125    54024   41100      0    1.69e+00    0    1.19e+00
2006 10 16  1130    54024   41400      0    1.68e+00    0    1.17e+00
2006 10 16  1135    54024   41700      0    1.65e+00    0    1.17e+00
2006 10 16  1140    54024   42000      0    1.71e+00    0    1.19e+00
2006 10 16  1145    54024   42300      0    1.68e+00    0    1.17e+00
2006 10 16  1150    54024   42600      0    1.69e+00    0    1.19e+00
2006 10 16  1155    54024   42900      0    1.66e+00    0    1.16e+00
2006 10 16  1200    54024   43200      0    1.73e+00    0    1.21e+00
2006 10 16  1205    54024   43500      0    1.70e+00    0    1.20e+00
2006 10 16  1210    54024   43800      0    1.70e+00    0    1.19e+00
2006 10 16  1215    54024   44100      0    1.65e+00    0    1.16e+00
2006 10 16  1220    54024   44400      0    1.68e+00    0    1.17e+00
2006 10 16  1225    54024   44700      0    1.70e+00    0    1.20e+00
2006 10 16  1230    54024   45000      0    1.71e+00    0    1.22e+00
2006 10 16  1235    54024   45300      0    1.67e+00    0    1.17e+00
2006 10 16  1240    54024   45600      0    1.69e+00    0    1.17e+00
2006 10 16  1245    54024   45900      0    1.70e+00    0    1.19e+00
2006 10 16  1250    54024   46200      0    1.65e+00    0    1.14e+00
2006 10 16  1255    54024   46500      0    1.68e+00    0    1.18e+00
2006 10 16  1300    54024   46800      0    1.70e+00    0    1.20e+00
2006 10 16  1305    54024   47100      0    1.70e+00    0    1.18e+00
2006 10 16  1310    54024   47400      0    1.69e+00    0    1.18e+00
2006 10 16  1315    54024   47700      0    1.68e+00    0    1.19e+00
2006 10 16  1320    54024   48000      0    1.70e+00    0    1.21e+00
2006 10 16  1325    54024   48300      0    1.71e+00    0    1.20e+00
2006 10 16  1330    54024   48600      0    1.66e+00    0    1.16e+00
2006 10 16  1335    54024   48900      0    1.65e+00    0    1.15e+00
2006 10 16  1340    54024   49200      0    1.65e+00    0    1.16e+00
2006 10 16  1345    54024   49500      0    1.65e+00    0    1.15e+00
2006 10 16  1350    54024   49800      0    1.70e+00    0    1.19e+00
2006 10 16  1355    54024   50100      0    1.69e+00    0    1.19e+00
2006 10 16  1400    54024   50400      0    1.66e+00    0    1.17e+00
2006 10 16  1405    54024   50700      0    1.69e+00    0    1.18e+00
2006 10 16  1410    54024   51000      0    1.67e+00    0    1.17e+00
2006 10 16  1415    54024   51300      0    1.71e+00    0    1.20e+00
2006 10 16  1420    54024   51600      0    1.71e+00    0    1.18e+00
2006 10 16  1425    54024   51900      0    1.68e+00    0    1.16e+00
2006 10 16  1430    54024   52200      0    1.73e+00    0    1.22e+00
2006 10 16  1435    54024   52500      0    1.67e+00    0    1.18e+00
2006 10 16  1440    54024   52800      0    1.67e+00    0    1.16e+00
2006 10 16  1445    54024   53100      0    1.73e+00    0    1.23e+00
2006 10 16  1450    54024   53400      0    1.67e+00    0    1.17e+00
2006 10 16  1455    54024   53700      0    1.64e+00    0    1.16e+00
2006 10 16  1500    54024   54000      0    1.66e+00    0    1.17e+00
2006 10 16  1505    54024   54300      0    1.69e+00    0    1.19e+00
2006 10 16  1510    54024   54600      0    1.72e+00    0    1.20e+00
2006 10 16  1515    54024   54900      0    1.69e+00    0    1.19e+00
2006 10 16  1520    54024   55200      0    1.69e+00    0    1.17e+00
2006 10 16  1525    54024   55500      0    1.69e+00    0    1.20e+00
2006 10 16  1530    54024   55800      0    1.67e+00    0    1.17e+00
2006 10 16  1535    54024   56100      0    1.70e+00    0    1.21e+00
2006 10 16  1540    54024   56400      0    1.72e+00    0    1.21e+00
2006 10 16  1545    54024   56700      0    1.71e+00    0    1.21e+00
2006 10 16  1550    54024   57000      0    1.70e+00    0    1.20e+00
2006 10 16  1555    54024   57300      0    1.68e+00    0    1.19e+00
2006 10 16  1600    54024   57600      0    1.67e+00    0    1.15e+00
2006 10 16  1605    54024   57900      0    1.71e+00    0    1.20e+00
2006 10 16  1610    54024   58200      0    1.69e+00    0    1.18e+00
2006 10 16  1615    54024   58500      0    1.69e+00    0    1.19e+00
2006 10 16  1620    54024   58800      0    1.65e+00    0    1.15e+00
2006 10 16  1625    54024   59100      0    1.68e+00    0    1.18e+00
2006 10 16  1630    54024   59400      0    1.71e+00    0    1.19e+00
2006 10 16  1635    54024   59700      0    1.72e+00    0    1.20e+00
2006 10 16  1640    54024   60000      0    1.68e+00    0    1.17e+00
2006 10 16  1645    54024   60300      0    1.68e+00    0    1.18e+00
2006 10 16  1650    54024   60600      0    1.66e+00    0    1.16e+00
2006 10 16  1655    54024   60900      0    1.69e+00    0    1.18e+00
2006 10 16  1700    54024   61200      0    1.72e+00    0    1.22e+00
2006 10 16  1705    54024   61500      0    1.64e+00    0    1.16e+00
2006 10 16  1710    54024   61800      0    1.69e+00    0    1.19e+00
2006 10 16  1715    54024   62100      0    1.69e+00    0    1.17e+00
2006 10 16  1720    54024   62400      0    1.70e+00    0    1.18e+00
2006 10 16  1725    54024   62700      0    1.71e+00    0    1.20e+00
2006 10 16  1730    54024   63000      0    1.68e+00    0    1.17e+00
2006 10 16  1735    54024   63300      0    1.71e+00    0    1.18e+00
2006 10 16  1740    54024   63600      0    1.69e+00    0    1.20e+00
2006 10 16  1745    54024   63900      0    1.70e+00    0    1.18e+00
2006 10 16  1750    54024   64200      0    1.63e+00    0    1.14e+00
2006 10 16  1755    54024   64500      0    1.70e+00    0    1.19e+00
2006 10 16  1800    54024   64800      0    1.66e+00    0    1.17e+00
2006 10 16  1805    54024   65100      0    1.70e+00    0    1.17e+00
2006 10 16  1810    54024   65400      0    1.69e+00    0    1.19e+00
2006 10 16  1815    54024   65700      0    1.66e+00    0    1.15e+00
2006 10 16  1820    54024   66000      0    1.70e+00    0    1.20e+00
2006 10 16  1825    54024   66300      0    1.68e+00    0    1.17e+00
2006 10 16  1830    54024   66600      0    1.70e+00    0    1.18e+00
2006 10 16  1835    54024   66900      0    1.69e+00    0    1.17e+00
2006 10 16  1840    54024   67200      0    1.64e+00    0    1.14e+00
2006 10 16  1845    54024   67500      0    1.66e+00    0    1.16e+00
2006 10 16  1850    54024   67800      0    1.73e+00    0    1.19e+00
2006 10 16  1855    54024   68100      9   -1.00e+05    9   -1.00e+05
2006 10 16  1900    54024   68400      0    1.69e+00    0    1.18e+00
2006 10 16  1905    54024   68700      0    1.66e+00    0    1.16e+00
2006 10 16  1910    54024   69000      0    1.67e+00    0    1.17e+00
2006 10 16  1915    54024   69300      0    1.68e+00    0    1.18e+00
2006 10 16  1920    54024   69600      0    1.68e+00    0    1.18e+00
2006 10 16  1925    54024   69900      0    1.67e+00    0    1.16e+00
2006 10 16  1930    54024   70200      0    1.70e+00    0    1.19e+00
2006 10 16  1935    54024   70500      0    1.67e+00    0    1.17e+00
2006 10 16  1940    54024   70800      0    1.65e+00    0    1.16e+00
2006 10 16  1945    54024   71100      0    1.67e+00    0    1.17e+00
2006 10 16  1950    54024   71400      0    1.70e+00    0    1.18e+00
2006 10 16  1955    54024   71700      0    1.68e+00    0    1.17e+00
2006 10 16  2000    54024   72000      0    1.72e+00    0    1.21e+00
2006 10 16  2005    54024   72300      0    1.69e+00    0    1.19e+00
2006 10 16  2010    54024   72600      0    1.68e+00    0    1.18e+00
2006 10 16  2015    54024   72900      0    1.68e+00    0    1.17e+00
2006 10 16  2020    54024   73200      0    1.67e+00    0    1.17e+00
2006 10 16  2025    54024   73500      0    1.72e+00    0    1.20e+00
2006 10 16  2030    54024   73800      0    1.69e+00    0    1.17e+00
2006 10 16  2035    54024   74100      0    1.67e+00    0    1.16e+00
2006 10 16  2040    54024   74400      0    1.65e+00    0    1.16e+00
2006 10 16  2045    54024   74700      0    1.69e+00    0    1.19e+00
2006 10 16  2050    54024   75000      0    1.67e+00    0    1.17e+00
2006 10 16  2055    54024   75300      0    1.68e+00    0    1.17e+00
2006 10 16  2100    54024   75600      0    1.71e+00    0    1.21e+00
2006 10 16  2105    54024   75900      0    1.69e+00    0    1.19e+00
2006 10 16  2110    54024   76200      0    1.68e+00    0    1.18e+00
2006 10 16  2115    54024   76500      0    1.70e+00    0    1.19e+00
2006 10 16  2120    54024   76800      0    1.72e+00    0    1.20e+00
2006 10 16  2125    54024   77100      0    1.70e+00    0    1.18e+00
2006 10 16  2130    54024   77400      0    1.70e+00    0    1.17e+00
2006 10 16  2135    54024   77700      9   -1.00e+05    9   -1.00e+05
2006 10 16  2140    54024   78000      9   -1.00e+05    9   -1.00e+05
2006 10 16  2145    54024   78300      9   -1.00e+05    9   -1.00e+05
2006 10 16  2150    54024   78600      9   -1.00e+05    9   -1.00e+05
2006 10 16  2155    54024   78900      9   -1.00e+05    9   -1.00e+05
2006 10 16  2200    54024   79200      9   -1.00e+05    9   -1.00e+05
2006 10 16  2205    54024   79500      9   -1.00e+05    9   -1.00e+05
2006 10 16  2210    54024   79800      9   -1.00e+05    9   -1.00e+05
2006 10 16  2215    54024   80100      0    1.64e+00    0    1.12e+00
2006 10 16  2220    54024   80400      0    1.74e+00    0    1.22e+00
2006 10 16  2225    54024   80700      0    1.66e+00    0    1.15e+00
2006 10 16  2230    54024   81000      0    1.71e+00    0    1.20e+00
2006 10 16  2235    54024   81300      0    1.66e+00    0    1.16e+00
2006 10 16  2240    54024   81600      0    1.68e+00    0    1.17e+00
2006 10 16  2245    54024   81900      0    1.71e+00    0    1.20e+00
2006 10 16  2250    54024   82200      0    1.69e+00    0    1.18e+00
2006 10 16  2255    54024   82500      0    1.68e+00    0    1.17e+00
2006 10 16  2300    54024   82800      0    1.67e+00    0    1.18e+00
2006 10 16  2305    54024   83100      0    1.70e+00    0    1.19e+00
2006 10 16  2310    54024   83400      0    1.69e+00    0    1.18e+00
2006 10 16  2315    54024   83700      0    1.69e+00    0    1.18e+00
2006 10 16  2320    54024   84000      0    1.72e+00    0    1.20e+00
2006 10 16  2325    54024   84300      0    1.71e+00    0    1.20e+00
2006 10 16  2330    54024   84600      0    1.68e+00    0    1.18e+00
2006 10 16  2335    54024   84900      0    1.68e+00    0    1.18e+00
2006 10 16  2340    54024   85200      0    1.72e+00    0    1.21e+00
2006 10 16  2345    54024   85500      0    1.70e+00    0    1.20e+00
2006 10 16  2350    54024   85800      0    1.69e+00    0    1.18e+00
2006 10 16  2355    54024   86100      0    1.69e+00    0    1.18e+00
