:Data_list: 20060627_ace_sis_5m.txt
:Created: 2006 Jun 28 0011 UT
# Prepared by the U.S. Dept. of Commerce, NOAA, Space Environment Center.
# Please send comments and suggestions to SEC.Webmaster@noaa.gov 
# 
# Units: proton flux p/cs2-sec-ster
# Status(S): 0 = nominal data, 1 to 8 = bad data record, 9 = no data
# Missing data values: -1.00e+05
# Source: ACE Satellite - Solar Isotope Spectrometer
#
# 5-minute averaged Real-time Integral Flux of High-energy Solar Protons
# 
#                 Modified Seconds
# UT Date   Time   Julian  of the      ---- Integral Proton Flux ----
# YR MO DA  HHMM     Day     Day       S    > 10 MeV    S    > 30 MeV
#--------------------------------------------------------------------
2006 06 27  0000    53913       0      0    1.68e+00    0    1.18e+00
2006 06 27  0005    53913     300      0    1.69e+00    0    1.19e+00
2006 06 27  0010    53913     600      0    1.70e+00    0    1.18e+00
2006 06 27  0015    53913     900      0    1.66e+00    0    1.16e+00
2006 06 27  0020    53913    1200      0    1.66e+00    0    1.17e+00
2006 06 27  0025    53913    1500      0    1.68e+00    0    1.17e+00
2006 06 27  0030    53913    1800      0    1.69e+00    0    1.18e+00
2006 06 27  0035    53913    2100      0    1.69e+00    0    1.17e+00
2006 06 27  0040    53913    2400      0    1.67e+00    0    1.19e+00
2006 06 27  0045    53913    2700      0    1.66e+00    0    1.14e+00
2006 06 27  0050    53913    3000      0    1.65e+00    0    1.16e+00
2006 06 27  0055    53913    3300      0    1.65e+00    0    1.16e+00
2006 06 27  0100    53913    3600      0    1.68e+00    0    1.17e+00
2006 06 27  0105    53913    3900      9   -1.00e+05    9   -1.00e+05
2006 06 27  0110    53913    4200      9   -1.00e+05    9   -1.00e+05
2006 06 27  0115    53913    4500      9   -1.00e+05    9   -1.00e+05
2006 06 27  0120    53913    4800      9   -1.00e+05    9   -1.00e+05
2006 06 27  0125    53913    5100      0    1.69e+00    0    1.16e+00
2006 06 27  0130    53913    5400      0    1.67e+00    0    1.18e+00
2006 06 27  0135    53913    5700      0    1.66e+00    0    1.16e+00
2006 06 27  0140    53913    6000      0    1.63e+00    0    1.15e+00
2006 06 27  0145    53913    6300      0    1.64e+00    0    1.15e+00
2006 06 27  0150    53913    6600      0    1.69e+00    0    1.18e+00
2006 06 27  0155    53913    6900      0    1.70e+00    0    1.20e+00
2006 06 27  0200    53913    7200      0    1.71e+00    0    1.19e+00
2006 06 27  0205    53913    7500      0    1.75e+00    0    1.21e+00
2006 06 27  0210    53913    7800      0    1.72e+00    0    1.21e+00
2006 06 27  0215    53913    8100      0    1.72e+00    0    1.19e+00
2006 06 27  0220    53913    8400      0    1.68e+00    0    1.18e+00
2006 06 27  0225    53913    8700      0    1.68e+00    0    1.18e+00
2006 06 27  0230    53913    9000      0    1.69e+00    0    1.18e+00
2006 06 27  0235    53913    9300      0    1.67e+00    0    1.18e+00
2006 06 27  0240    53913    9600      0    1.68e+00    0    1.16e+00
2006 06 27  0245    53913    9900      0    1.67e+00    0    1.17e+00
2006 06 27  0250    53913   10200      0    1.66e+00    0    1.16e+00
2006 06 27  0255    53913   10500      0    1.68e+00    0    1.18e+00
2006 06 27  0300    53913   10800      0    1.71e+00    0    1.20e+00
2006 06 27  0305    53913   11100      0    1.71e+00    0    1.20e+00
2006 06 27  0310    53913   11400      0    1.73e+00    0    1.23e+00
2006 06 27  0315    53913   11700      0    1.68e+00    0    1.17e+00
2006 06 27  0320    53913   12000      0    1.67e+00    0    1.18e+00
2006 06 27  0325    53913   12300      0    1.67e+00    0    1.17e+00
2006 06 27  0330    53913   12600      0    1.69e+00    0    1.19e+00
2006 06 27  0335    53913   12900      0    1.69e+00    0    1.17e+00
2006 06 27  0340    53913   13200      0    1.69e+00    0    1.18e+00
2006 06 27  0345    53913   13500      0    1.69e+00    0    1.17e+00
2006 06 27  0350    53913   13800      0    1.72e+00    0    1.21e+00
2006 06 27  0355    53913   14100      0    1.69e+00    0    1.18e+00
2006 06 27  0400    53913   14400      0    1.73e+00    0    1.21e+00
2006 06 27  0405    53913   14700      0    1.68e+00    0    1.17e+00
2006 06 27  0410    53913   15000      0    1.71e+00    0    1.21e+00
2006 06 27  0415    53913   15300      0    1.70e+00    0    1.19e+00
2006 06 27  0420    53913   15600      0    1.70e+00    0    1.20e+00
2006 06 27  0425    53913   15900      0    1.69e+00    0    1.19e+00
2006 06 27  0430    53913   16200      0    1.70e+00    0    1.19e+00
2006 06 27  0435    53913   16500      0    1.73e+00    0    1.20e+00
2006 06 27  0440    53913   16800      0    1.69e+00    0    1.18e+00
2006 06 27  0445    53913   17100      0    1.72e+00    0    1.21e+00
2006 06 27  0450    53913   17400      0    1.68e+00    0    1.17e+00
2006 06 27  0455    53913   17700      0    1.67e+00    0    1.16e+00
2006 06 27  0500    53913   18000      0    1.71e+00    0    1.20e+00
2006 06 27  0505    53913   18300      0    1.68e+00    0    1.18e+00
2006 06 27  0510    53913   18600      0    1.67e+00    0    1.15e+00
2006 06 27  0515    53913   18900      0    1.66e+00    0    1.16e+00
2006 06 27  0520    53913   19200      0    1.68e+00    0    1.17e+00
2006 06 27  0525    53913   19500      0    1.69e+00    0    1.17e+00
2006 06 27  0530    53913   19800      0    1.70e+00    0    1.19e+00
2006 06 27  0535    53913   20100      0    1.73e+00    0    1.22e+00
2006 06 27  0540    53913   20400      0    1.69e+00    0    1.18e+00
2006 06 27  0545    53913   20700      0    1.73e+00    0    1.20e+00
2006 06 27  0550    53913   21000      0    1.67e+00    0    1.16e+00
2006 06 27  0555    53913   21300      0    1.66e+00    0    1.14e+00
2006 06 27  0600    53913   21600      0    1.69e+00    0    1.19e+00
2006 06 27  0605    53913   21900      0    1.65e+00    0    1.16e+00
2006 06 27  0610    53913   22200      0    1.67e+00    0    1.17e+00
2006 06 27  0615    53913   22500      0    1.70e+00    0    1.19e+00
2006 06 27  0620    53913   22800      0    1.73e+00    0    1.21e+00
2006 06 27  0625    53913   23100      0    1.69e+00    0    1.17e+00
2006 06 27  0630    53913   23400      0    1.65e+00    0    1.15e+00
2006 06 27  0635    53913   23700      0    1.69e+00    0    1.18e+00
2006 06 27  0640    53913   24000      0    1.66e+00    0    1.15e+00
2006 06 27  0645    53913   24300      0    1.72e+00    0    1.21e+00
2006 06 27  0650    53913   24600      0    1.69e+00    0    1.18e+00
2006 06 27  0655    53913   24900      0    1.69e+00    0    1.20e+00
2006 06 27  0700    53913   25200      0    1.67e+00    0    1.17e+00
2006 06 27  0705    53913   25500      0    1.67e+00    0    1.16e+00
2006 06 27  0710    53913   25800      0    1.70e+00    0    1.19e+00
2006 06 27  0715    53913   26100      0    1.67e+00    0    1.17e+00
2006 06 27  0720    53913   26400      0    1.67e+00    0    1.17e+00
2006 06 27  0725    53913   26700      0    1.70e+00    0    1.19e+00
2006 06 27  0730    53913   27000      0    1.69e+00    0    1.19e+00
2006 06 27  0735    53913   27300      0    1.68e+00    0    1.18e+00
2006 06 27  0740    53913   27600      0    1.64e+00    0    1.14e+00
2006 06 27  0745    53913   27900      0    1.65e+00    0    1.16e+00
2006 06 27  0750    53913   28200      0    1.70e+00    0    1.20e+00
2006 06 27  0755    53913   28500      0    1.71e+00    0    1.20e+00
2006 06 27  0800    53913   28800      0    1.66e+00    0    1.17e+00
2006 06 27  0805    53913   29100      0    1.65e+00    0    1.16e+00
2006 06 27  0810    53913   29400      0    1.66e+00    0    1.15e+00
2006 06 27  0815    53913   29700      0    1.70e+00    0    1.19e+00
2006 06 27  0820    53913   30000      0    1.70e+00    0    1.20e+00
2006 06 27  0825    53913   30300      0    1.70e+00    0    1.20e+00
2006 06 27  0830    53913   30600      0    1.65e+00    0    1.15e+00
2006 06 27  0835    53913   30900      0    1.68e+00    0    1.17e+00
2006 06 27  0840    53913   31200      0    1.72e+00    0    1.21e+00
2006 06 27  0845    53913   31500      0    1.69e+00    0    1.18e+00
2006 06 27  0850    53913   31800      0    1.68e+00    0    1.17e+00
2006 06 27  0855    53913   32100      0    1.66e+00    0    1.18e+00
2006 06 27  0900    53913   32400      0    1.56e+00    0    1.09e+00
2006 06 27  0905    53913   32700      0    1.67e+00    0    1.17e+00
2006 06 27  0910    53913   33000      0    1.70e+00    0    1.19e+00
2006 06 27  0915    53913   33300      0    1.71e+00    0    1.18e+00
2006 06 27  0920    53913   33600      0    1.67e+00    0    1.17e+00
2006 06 27  0925    53913   33900      0    1.71e+00    0    1.20e+00
2006 06 27  0930    53913   34200      0    1.69e+00    0    1.18e+00
2006 06 27  0935    53913   34500      0    1.66e+00    0    1.15e+00
2006 06 27  0940    53913   34800      0    1.69e+00    0    1.18e+00
2006 06 27  0945    53913   35100      0    1.68e+00    0    1.18e+00
2006 06 27  0950    53913   35400      0    1.71e+00    0    1.20e+00
2006 06 27  0955    53913   35700      0    1.69e+00    0    1.19e+00
2006 06 27  1000    53913   36000      0    1.69e+00    0    1.18e+00
2006 06 27  1005    53913   36300      0    1.68e+00    0    1.16e+00
2006 06 27  1010    53913   36600      0    1.66e+00    0    1.16e+00
2006 06 27  1015    53913   36900      0    1.70e+00    0    1.18e+00
2006 06 27  1020    53913   37200      0    1.70e+00    0    1.21e+00
2006 06 27  1025    53913   37500      0    1.68e+00    0    1.17e+00
2006 06 27  1030    53913   37800      0    1.67e+00    0    1.19e+00
2006 06 27  1035    53913   38100      0    1.73e+00    0    1.21e+00
2006 06 27  1040    53913   38400      0    1.71e+00    0    1.19e+00
2006 06 27  1045    53913   38700      0    1.70e+00    0    1.18e+00
2006 06 27  1050    53913   39000      0    1.75e+00    0    1.25e+00
2006 06 27  1055    53913   39300      0    1.69e+00    0    1.18e+00
2006 06 27  1100    53913   39600      0    1.72e+00    0    1.21e+00
2006 06 27  1105    53913   39900      0    1.73e+00    0    1.20e+00
2006 06 27  1110    53913   40200      0    1.72e+00    0    1.20e+00
2006 06 27  1115    53913   40500      0    1.71e+00    0    1.20e+00
2006 06 27  1120    53913   40800      0    1.66e+00    0    1.16e+00
2006 06 27  1125    53913   41100      0    1.72e+00    0    1.22e+00
2006 06 27  1130    53913   41400      0    1.70e+00    0    1.19e+00
2006 06 27  1135    53913   41700      0    1.68e+00    0    1.17e+00
2006 06 27  1140    53913   42000      0    1.72e+00    0    1.22e+00
2006 06 27  1145    53913   42300      0    1.68e+00    0    1.19e+00
2006 06 27  1150    53913   42600      0    1.74e+00    0    1.22e+00
2006 06 27  1155    53913   42900      0    1.72e+00    0    1.22e+00
2006 06 27  1200    53913   43200      0    1.70e+00    0    1.19e+00
2006 06 27  1205    53913   43500      0    1.71e+00    0    1.18e+00
2006 06 27  1210    53913   43800      0    1.70e+00    0    1.18e+00
2006 06 27  1215    53913   44100      0    1.70e+00    0    1.20e+00
2006 06 27  1220    53913   44400      0    1.70e+00    0    1.19e+00
2006 06 27  1225    53913   44700      0    1.73e+00    0    1.21e+00
2006 06 27  1230    53913   45000      0    1.72e+00    0    1.20e+00
2006 06 27  1235    53913   45300      0    1.68e+00    0    1.18e+00
2006 06 27  1240    53913   45600      0    1.70e+00    0    1.20e+00
2006 06 27  1245    53913   45900      0    1.71e+00    0    1.20e+00
2006 06 27  1250    53913   46200      0    1.72e+00    0    1.21e+00
2006 06 27  1255    53913   46500      0    1.69e+00    0    1.18e+00
2006 06 27  1300    53913   46800      0    1.69e+00    0    1.19e+00
2006 06 27  1305    53913   47100      0    1.69e+00    0    1.19e+00
2006 06 27  1310    53913   47400      0    1.74e+00    0    1.22e+00
2006 06 27  1315    53913   47700      0    1.67e+00    0    1.18e+00
2006 06 27  1320    53913   48000      0    1.71e+00    0    1.20e+00
2006 06 27  1325    53913   48300      0    1.71e+00    0    1.20e+00
2006 06 27  1330    53913   48600      0    1.67e+00    0    1.17e+00
2006 06 27  1335    53913   48900      0    1.70e+00    0    1.20e+00
2006 06 27  1340    53913   49200      0    1.75e+00    0    1.23e+00
2006 06 27  1345    53913   49500      0    1.70e+00    0    1.19e+00
2006 06 27  1350    53913   49800      0    1.65e+00    0    1.14e+00
2006 06 27  1355    53913   50100      0    1.67e+00    0    1.17e+00
2006 06 27  1400    53913   50400      0    1.70e+00    0    1.18e+00
2006 06 27  1405    53913   50700      0    1.70e+00    0    1.20e+00
2006 06 27  1410    53913   51000      0    1.71e+00    0    1.20e+00
2006 06 27  1415    53913   51300      0    1.67e+00    0    1.17e+00
2006 06 27  1420    53913   51600      0    1.70e+00    0    1.20e+00
2006 06 27  1425    53913   51900      0    1.70e+00    0    1.19e+00
2006 06 27  1430    53913   52200      0    1.72e+00    0    1.20e+00
2006 06 27  1435    53913   52500      0    1.69e+00    0    1.17e+00
2006 06 27  1440    53913   52800      0    1.72e+00    0    1.20e+00
2006 06 27  1445    53913   53100      0    1.69e+00    0    1.19e+00
2006 06 27  1450    53913   53400      0    1.69e+00    0    1.19e+00
2006 06 27  1455    53913   53700      0    1.67e+00    0    1.16e+00
2006 06 27  1500    53913   54000      0    1.71e+00    0    1.22e+00
2006 06 27  1505    53913   54300      0    1.71e+00    0    1.20e+00
2006 06 27  1510    53913   54600      0    1.69e+00    0    1.19e+00
2006 06 27  1515    53913   54900      0    1.69e+00    0    1.17e+00
2006 06 27  1520    53913   55200      0    1.71e+00    0    1.21e+00
2006 06 27  1525    53913   55500      0    1.70e+00    0    1.18e+00
2006 06 27  1530    53913   55800      0    1.72e+00    0    1.21e+00
2006 06 27  1535    53913   56100      0    1.72e+00    0    1.21e+00
2006 06 27  1540    53913   56400      0    1.72e+00    0    1.20e+00
2006 06 27  1545    53913   56700      0    1.71e+00    0    1.20e+00
2006 06 27  1550    53913   57000      0    1.70e+00    0    1.20e+00
2006 06 27  1555    53913   57300      0    1.67e+00    0    1.18e+00
2006 06 27  1600    53913   57600      9   -1.00e+05    9   -1.00e+05
2006 06 27  1605    53913   57900      0    2.08e+00    0    1.29e+00
2006 06 27  1610    53913   58200      0    1.69e+00    0    1.18e+00
2006 06 27  1615    53913   58500      0    1.68e+00    0    1.17e+00
2006 06 27  1620    53913   58800      0    1.71e+00    0    1.20e+00
2006 06 27  1625    53913   59100      0    1.68e+00    0    1.17e+00
2006 06 27  1630    53913   59400      0    1.69e+00    0    1.19e+00
2006 06 27  1635    53913   59700      0    1.71e+00    0    1.20e+00
2006 06 27  1640    53913   60000      0    1.69e+00    0    1.18e+00
2006 06 27  1645    53913   60300      0    1.67e+00    0    1.17e+00
2006 06 27  1650    53913   60600      0    1.70e+00    0    1.19e+00
2006 06 27  1655    53913   60900      0    1.67e+00    0    1.16e+00
2006 06 27  1700    53913   61200      0    1.69e+00    0    1.18e+00
2006 06 27  1705    53913   61500      0    1.70e+00    0    1.19e+00
2006 06 27  1710    53913   61800      0    1.68e+00    0    1.16e+00
2006 06 27  1715    53913   62100      0    1.68e+00    0    1.17e+00
2006 06 27  1720    53913   62400      0    1.73e+00    0    1.21e+00
2006 06 27  1725    53913   62700      0    1.71e+00    0    1.19e+00
2006 06 27  1730    53913   63000      0    1.68e+00    0    1.18e+00
2006 06 27  1735    53913   63300      0    1.71e+00    0    1.20e+00
2006 06 27  1740    53913   63600      0    1.71e+00    0    1.22e+00
2006 06 27  1745    53913   63900      0    1.75e+00    0    1.24e+00
2006 06 27  1750    53913   64200      0    1.92e+00    0    1.24e+00
2006 06 27  1755    53913   64500      0    1.71e+00    0    1.19e+00
2006 06 27  1800    53913   64800      0    1.71e+00    0    1.20e+00
2006 06 27  1805    53913   65100      0    1.67e+00    0    1.16e+00
2006 06 27  1810    53913   65400      0    1.72e+00    0    1.21e+00
2006 06 27  1815    53913   65700      0    1.59e+00    0    1.12e+00
2006 06 27  1820    53913   66000      0    1.68e+00    0    1.17e+00
2006 06 27  1825    53913   66300      0    1.67e+00    0    1.17e+00
2006 06 27  1830    53913   66600      0    1.67e+00    0    1.18e+00
2006 06 27  1835    53913   66900      0    1.72e+00    0    1.20e+00
2006 06 27  1840    53913   67200      0    1.71e+00    0    1.19e+00
2006 06 27  1845    53913   67500      0    1.68e+00    0    1.18e+00
2006 06 27  1850    53913   67800      0    1.71e+00    0    1.20e+00
2006 06 27  1855    53913   68100      0    1.71e+00    0    1.19e+00
2006 06 27  1900    53913   68400      0    1.74e+00    0    1.21e+00
2006 06 27  1905    53913   68700      0    1.72e+00    0    1.21e+00
2006 06 27  1910    53913   69000      0    1.71e+00    0    1.19e+00
2006 06 27  1915    53913   69300      0    1.71e+00    0    1.20e+00
2006 06 27  1920    53913   69600      0    1.71e+00    0    1.20e+00
2006 06 27  1925    53913   69900      0    1.72e+00    0    1.21e+00
2006 06 27  1930    53913   70200      0    1.70e+00    0    1.18e+00
2006 06 27  1935    53913   70500      0    1.70e+00    0    1.20e+00
2006 06 27  1940    53913   70800      0    1.68e+00    0    1.18e+00
2006 06 27  1945    53913   71100      0    1.69e+00    0    1.18e+00
2006 06 27  1950    53913   71400      0    1.69e+00    0    1.19e+00
2006 06 27  1955    53913   71700      0    1.68e+00    0    1.16e+00
2006 06 27  2000    53913   72000      0    1.70e+00    0    1.20e+00
2006 06 27  2005    53913   72300      0    1.67e+00    0    1.17e+00
2006 06 27  2010    53913   72600      0    1.68e+00    0    1.17e+00
2006 06 27  2015    53913   72900      0    1.70e+00    0    1.20e+00
2006 06 27  2020    53913   73200      0    1.68e+00    0    1.17e+00
2006 06 27  2025    53913   73500      0    1.70e+00    0    1.21e+00
2006 06 27  2030    53913   73800      0    1.70e+00    0    1.21e+00
2006 06 27  2035    53913   74100      0    1.70e+00    0    1.19e+00
2006 06 27  2040    53913   74400      0    1.66e+00    0    1.17e+00
2006 06 27  2045    53913   74700      0    1.71e+00    0    1.21e+00
2006 06 27  2050    53913   75000      0    1.67e+00    0    1.17e+00
2006 06 27  2055    53913   75300      0    1.68e+00    0    1.17e+00
2006 06 27  2100    53913   75600      0    1.68e+00    0    1.18e+00
2006 06 27  2105    53913   75900      0    1.70e+00    0    1.19e+00
2006 06 27  2110    53913   76200      0    1.68e+00    0    1.18e+00
2006 06 27  2115    53913   76500      0    1.66e+00    0    1.17e+00
2006 06 27  2120    53913   76800      0    1.69e+00    0    1.18e+00
2006 06 27  2125    53913   77100      0    1.66e+00    0    1.17e+00
2006 06 27  2130    53913   77400      0    1.69e+00    0    1.19e+00
2006 06 27  2135    53913   77700      0    1.70e+00    0    1.19e+00
2006 06 27  2140    53913   78000      0    1.69e+00    0    1.20e+00
2006 06 27  2145    53913   78300      0    1.68e+00    0    1.17e+00
2006 06 27  2150    53913   78600      0    1.65e+00    0    1.13e+00
2006 06 27  2155    53913   78900      0    1.68e+00    0    1.17e+00
2006 06 27  2200    53913   79200      0    1.69e+00    0    1.19e+00
2006 06 27  2205    53913   79500      0    1.71e+00    0    1.19e+00
2006 06 27  2210    53913   79800      0    1.68e+00    0    1.18e+00
2006 06 27  2215    53913   80100      0    1.69e+00    0    1.19e+00
2006 06 27  2220    53913   80400      0    1.67e+00    0    1.16e+00
2006 06 27  2225    53913   80700      0    1.70e+00    0    1.19e+00
2006 06 27  2230    53913   81000      0    1.68e+00    0    1.18e+00
2006 06 27  2235    53913   81300      0    1.68e+00    0    1.17e+00
2006 06 27  2240    53913   81600      0    1.70e+00    0    1.18e+00
2006 06 27  2245    53913   81900      0    1.67e+00    0    1.17e+00
2006 06 27  2250    53913   82200      0    1.69e+00    0    1.19e+00
2006 06 27  2255    53913   82500      0    1.70e+00    0    1.18e+00
2006 06 27  2300    53913   82800      0    1.73e+00    0    1.23e+00
2006 06 27  2305    53913   83100      0    1.71e+00    0    1.19e+00
2006 06 27  2310    53913   83400      0    1.72e+00    0    1.22e+00
2006 06 27  2315    53913   83700      0    1.69e+00    0    1.20e+00
2006 06 27  2320    53913   84000      0    1.67e+00    0    1.16e+00
2006 06 27  2325    53913   84300      0    1.72e+00    0    1.21e+00
2006 06 27  2330    53913   84600      0    1.69e+00    0    1.18e+00
2006 06 27  2335    53913   84900      0    1.70e+00    0    1.21e+00
2006 06 27  2340    53913   85200      0    1.71e+00    0    1.21e+00
2006 06 27  2345    53913   85500      0    1.70e+00    0    1.18e+00
2006 06 27  2350    53913   85800      0    1.69e+00    0    1.19e+00
2006 06 27  2355    53913   86100      0    1.69e+00    0    1.20e+00
