:Data_list: 20061230_ace_sis_5m.txt
:Created: 2006 Dec 31 0011 UT
# Prepared by the U.S. Dept. of Commerce, NOAA, Space Environment Center.
# Please send comments and suggestions to SEC.Webmaster@noaa.gov 
# 
# Units: proton flux p/cs2-sec-ster
# Status(S): 0 = nominal data, 1 to 8 = bad data record, 9 = no data
# Missing data values: -1.00e+05
# Source: ACE Satellite - Solar Isotope Spectrometer
#
# 5-minute averaged Real-time Integral Flux of High-energy Solar Protons
# 
#                 Modified Seconds
# UT Date   Time   Julian  of the      ---- Integral Proton Flux ----
# YR MO DA  HHMM     Day     Day       S    > 10 MeV    S    > 30 MeV
#--------------------------------------------------------------------
2006 12 30  0000    54099       0      0    2.19e+00    0    1.53e+00
2006 12 30  0005    54099     300      0    2.18e+00    0    1.54e+00
2006 12 30  0010    54099     600      0    2.14e+00    0    1.50e+00
2006 12 30  0015    54099     900      0    2.05e+00    0    1.43e+00
2006 12 30  0020    54099    1200      0    1.96e+00    0    1.37e+00
2006 12 30  0025    54099    1500      0    1.84e+00    0    1.29e+00
2006 12 30  0030    54099    1800      0    2.05e+00    0    1.43e+00
2006 12 30  0035    54099    2100      0    2.23e+00    0    1.56e+00
2006 12 30  0040    54099    2400      0    2.16e+00    0    1.52e+00
2006 12 30  0045    54099    2700      0    2.15e+00    0    1.51e+00
2006 12 30  0050    54099    3000      0    1.98e+00    0    1.39e+00
2006 12 30  0055    54099    3300      0    1.92e+00    0    1.35e+00
2006 12 30  0100    54099    3600      0    1.80e+00    0    1.25e+00
2006 12 30  0105    54099    3900      0    2.09e+00    0    1.48e+00
2006 12 30  0110    54099    4200      0    2.23e+00    0    1.58e+00
2006 12 30  0115    54099    4500      0    2.15e+00    0    1.51e+00
2006 12 30  0120    54099    4800      0    2.09e+00    0    1.47e+00
2006 12 30  0125    54099    5100      0    2.04e+00    0    1.43e+00
2006 12 30  0130    54099    5400      0    1.83e+00    0    1.26e+00
2006 12 30  0135    54099    5700      0    1.74e+00    0    1.22e+00
2006 12 30  0140    54099    6000      0    2.01e+00    0    1.40e+00
2006 12 30  0145    54099    6300      0    2.16e+00    0    1.50e+00
2006 12 30  0150    54099    6600      0    2.12e+00    0    1.50e+00
2006 12 30  0155    54099    6900      0    2.02e+00    0    1.42e+00
2006 12 30  0200    54099    7200      0    1.98e+00    0    1.38e+00
2006 12 30  0205    54099    7500      0    1.84e+00    0    1.29e+00
2006 12 30  0210    54099    7800      0    1.80e+00    0    1.26e+00
2006 12 30  0215    54099    8100      0    2.24e+00    0    1.57e+00
2006 12 30  0220    54099    8400      0    2.24e+00    0    1.59e+00
2006 12 30  0225    54099    8700      0    2.14e+00    0    1.50e+00
2006 12 30  0230    54099    9000      0    2.07e+00    0    1.47e+00
2006 12 30  0235    54099    9300      0    2.01e+00    0    1.42e+00
2006 12 30  0240    54099    9600      0    1.79e+00    0    1.26e+00
2006 12 30  0245    54099    9900      0    1.90e+00    0    1.34e+00
2006 12 30  0250    54099   10200      0    2.25e+00    0    1.57e+00
2006 12 30  0255    54099   10500      0    2.17e+00    0    1.54e+00
2006 12 30  0300    54099   10800      0    2.14e+00    0    1.51e+00
2006 12 30  0305    54099   11100      0    2.03e+00    0    1.43e+00
2006 12 30  0310    54099   11400      0    2.00e+00    0    1.41e+00
2006 12 30  0315    54099   11700      0    1.77e+00    0    1.24e+00
2006 12 30  0320    54099   12000      0    1.96e+00    0    1.37e+00
2006 12 30  0325    54099   12300      0    2.23e+00    0    1.57e+00
2006 12 30  0330    54099   12600      0    2.18e+00    0    1.53e+00
2006 12 30  0335    54099   12900      0    2.13e+00    0    1.50e+00
2006 12 30  0340    54099   13200      0    2.04e+00    0    1.43e+00
2006 12 30  0345    54099   13500      0    1.93e+00    0    1.34e+00
2006 12 30  0350    54099   13800      0    1.80e+00    0    1.27e+00
2006 12 30  0355    54099   14100      0    2.04e+00    0    1.42e+00
2006 12 30  0400    54099   14400      0    2.24e+00    0    1.58e+00
2006 12 30  0405    54099   14700      0    2.15e+00    0    1.52e+00
2006 12 30  0410    54099   15000      0    2.13e+00    0    1.50e+00
2006 12 30  0415    54099   15300      0    2.00e+00    0    1.41e+00
2006 12 30  0420    54099   15600      0    1.89e+00    0    1.33e+00
2006 12 30  0425    54099   15900      0    1.80e+00    0    1.26e+00
2006 12 30  0430    54099   16200      0    2.12e+00    0    1.48e+00
2006 12 30  0435    54099   16500      0    2.20e+00    0    1.53e+00
2006 12 30  0440    54099   16800      0    2.15e+00    0    1.51e+00
2006 12 30  0445    54099   17100      0    2.10e+00    0    1.47e+00
2006 12 30  0450    54099   17400      0    1.99e+00    0    1.38e+00
2006 12 30  0455    54099   17700      0    1.87e+00    0    1.30e+00
2006 12 30  0500    54099   18000      0    1.81e+00    0    1.27e+00
2006 12 30  0505    54099   18300      0    2.20e+00    0    1.55e+00
2006 12 30  0510    54099   18600      0    2.18e+00    0    1.53e+00
2006 12 30  0515    54099   18900      0    2.12e+00    0    1.49e+00
2006 12 30  0520    54099   19200      0    2.13e+00    0    1.50e+00
2006 12 30  0525    54099   19500      0    1.96e+00    0    1.39e+00
2006 12 30  0530    54099   19800      0    1.78e+00    0    1.25e+00
2006 12 30  0535    54099   20100      0    1.79e+00    0    1.25e+00
2006 12 30  0540    54099   20400      0    2.21e+00    0    1.56e+00
2006 12 30  0545    54099   20700      0    2.23e+00    0    1.58e+00
2006 12 30  0550    54099   21000      0    2.08e+00    0    1.45e+00
2006 12 30  0555    54099   21300      0    2.05e+00    0    1.44e+00
2006 12 30  0600    54099   21600      0    1.99e+00    0    1.40e+00
2006 12 30  0605    54099   21900      0    1.78e+00    0    1.26e+00
2006 12 30  0610    54099   22200      0    1.92e+00    0    1.35e+00
2006 12 30  0615    54099   22500      0    2.25e+00    0    1.57e+00
2006 12 30  0620    54099   22800      0    2.12e+00    0    1.49e+00
2006 12 30  0625    54099   23100      0    2.12e+00    0    1.49e+00
2006 12 30  0630    54099   23400      0    1.98e+00    0    1.39e+00
2006 12 30  0635    54099   23700      0    1.91e+00    0    1.34e+00
2006 12 30  0640    54099   24000      0    1.77e+00    0    1.24e+00
2006 12 30  0645    54099   24300      0    1.99e+00    0    1.39e+00
2006 12 30  0650    54099   24600      0    2.19e+00    0    1.52e+00
2006 12 30  0655    54099   24900      0    2.20e+00    0    1.54e+00
2006 12 30  0700    54099   25200      0    2.16e+00    0    1.51e+00
2006 12 30  0705    54099   25500      0    2.00e+00    0    1.40e+00
2006 12 30  0710    54099   25800      0    1.95e+00    0    1.38e+00
2006 12 30  0715    54099   26100      0    1.79e+00    0    1.26e+00
2006 12 30  0720    54099   26400      0    2.08e+00    0    1.46e+00
2006 12 30  0725    54099   26700      0    2.24e+00    0    1.58e+00
2006 12 30  0730    54099   27000      0    2.16e+00    0    1.51e+00
2006 12 30  0735    54099   27300      0    2.11e+00    0    1.47e+00
2006 12 30  0740    54099   27600      0    1.96e+00    0    1.37e+00
2006 12 30  0745    54099   27900      0    1.91e+00    0    1.32e+00
2006 12 30  0750    54099   28200      0    1.79e+00    0    1.25e+00
2006 12 30  0755    54099   28500      0    2.10e+00    0    1.46e+00
2006 12 30  0800    54099   28800      0    2.20e+00    0    1.55e+00
2006 12 30  0805    54099   29100      0    2.14e+00    0    1.51e+00
2006 12 30  0810    54099   29400      0    2.07e+00    0    1.46e+00
2006 12 30  0815    54099   29700      0    2.06e+00    0    1.44e+00
2006 12 30  0820    54099   30000      0    1.89e+00    0    1.33e+00
2006 12 30  0825    54099   30300      0    1.78e+00    0    1.24e+00
2006 12 30  0830    54099   30600      0    2.17e+00    0    1.52e+00
2006 12 30  0835    54099   30900      0    2.20e+00    0    1.55e+00
2006 12 30  0840    54099   31200      0    2.13e+00    0    1.51e+00
2006 12 30  0845    54099   31500      0    2.04e+00    0    1.44e+00
2006 12 30  0850    54099   31800      0    2.02e+00    0    1.41e+00
2006 12 30  0855    54099   32100      0    1.85e+00    0    1.28e+00
2006 12 30  0900    54099   32400      0    1.95e+00    0    1.37e+00
2006 12 30  0905    54099   32700      0    2.25e+00    0    1.59e+00
2006 12 30  0910    54099   33000      0    2.22e+00    0    1.57e+00
2006 12 30  0915    54099   33300      0    2.15e+00    0    1.52e+00
2006 12 30  0920    54099   33600      0    2.06e+00    0    1.46e+00
2006 12 30  0925    54099   33900      0    2.02e+00    0    1.42e+00
2006 12 30  0930    54099   34200      0    1.81e+00    0    1.27e+00
2006 12 30  0935    54099   34500      0    1.96e+00    0    1.36e+00
2006 12 30  0940    54099   34800      0    2.25e+00    0    1.58e+00
2006 12 30  0945    54099   35100      0    2.14e+00    0    1.50e+00
2006 12 30  0950    54099   35400      0    2.14e+00    0    1.50e+00
2006 12 30  0955    54099   35700      0    2.00e+00    0    1.40e+00
2006 12 30  1000    54099   36000      0    1.97e+00    0    1.39e+00
2006 12 30  1005    54099   36300      0    1.84e+00    0    1.28e+00
2006 12 30  1010    54099   36600      0    2.02e+00    0    1.42e+00
2006 12 30  1015    54099   36900      0    2.21e+00    0    1.55e+00
2006 12 30  1020    54099   37200      0    2.17e+00    0    1.52e+00
2006 12 30  1025    54099   37500      0    2.13e+00    0    1.50e+00
2006 12 30  1030    54099   37800      0    2.03e+00    0    1.43e+00
2006 12 30  1035    54099   38100      0    2.00e+00    0    1.41e+00
2006 12 30  1040    54099   38400      0    1.79e+00    0    1.25e+00
2006 12 30  1045    54099   38700      0    2.08e+00    0    1.46e+00
2006 12 30  1050    54099   39000      0    2.24e+00    0    1.57e+00
2006 12 30  1055    54099   39300      0    2.15e+00    0    1.49e+00
2006 12 30  1100    54099   39600      0    2.13e+00    0    1.48e+00
2006 12 30  1105    54099   39900      0    1.97e+00    0    1.36e+00
2006 12 30  1110    54099   40200      0    1.91e+00    0    1.33e+00
2006 12 30  1115    54099   40500      0    1.87e+00    0    1.31e+00
2006 12 30  1120    54099   40800      0    2.12e+00    0    1.48e+00
2006 12 30  1125    54099   41100      0    2.20e+00    0    1.55e+00
2006 12 30  1130    54099   41400      0    2.19e+00    0    1.53e+00
2006 12 30  1135    54099   41700      0    2.10e+00    0    1.47e+00
2006 12 30  1140    54099   42000      0    2.10e+00    0    1.48e+00
2006 12 30  1145    54099   42300      0    1.91e+00    0    1.34e+00
2006 12 30  1150    54099   42600      0    1.86e+00    0    1.30e+00
2006 12 30  1155    54099   42900      0    2.24e+00    0    1.58e+00
2006 12 30  1200    54099   43200      0    2.26e+00    0    1.59e+00
2006 12 30  1205    54099   43500      0    2.16e+00    0    1.51e+00
2006 12 30  1210    54099   43800      0    2.13e+00    0    1.50e+00
2006 12 30  1215    54099   44100      0    2.07e+00    0    1.46e+00
2006 12 30  1220    54099   44400      0    1.87e+00    0    1.31e+00
2006 12 30  1225    54099   44700      0    1.94e+00    0    1.36e+00
2006 12 30  1230    54099   45000      0    2.24e+00    0    1.58e+00
2006 12 30  1235    54099   45300      0    2.21e+00    0    1.57e+00
2006 12 30  1240    54099   45600      0    2.20e+00    0    1.54e+00
2006 12 30  1245    54099   45900      0    2.10e+00    0    1.49e+00
2006 12 30  1250    54099   46200      0    2.06e+00    0    1.45e+00
2006 12 30  1255    54099   46500      0    1.87e+00    0    1.32e+00
2006 12 30  1300    54099   46800      0    1.98e+00    0    1.39e+00
2006 12 30  1305    54099   47100      0    2.25e+00    0    1.57e+00
2006 12 30  1310    54099   47400      0    2.17e+00    0    1.50e+00
2006 12 30  1315    54099   47700      0    2.19e+00    0    1.54e+00
2006 12 30  1320    54099   48000      0    2.07e+00    0    1.45e+00
2006 12 30  1325    54099   48300      0    2.01e+00    0    1.42e+00
2006 12 30  1330    54099   48600      0    1.88e+00    0    1.31e+00
2006 12 30  1335    54099   48900      0    2.08e+00    0    1.46e+00
2006 12 30  1340    54099   49200      0    2.18e+00    0    1.53e+00
2006 12 30  1345    54099   49500      0    2.21e+00    0    1.56e+00
2006 12 30  1350    54099   49800      0    2.20e+00    0    1.55e+00
2006 12 30  1355    54099   50100      0    2.06e+00    0    1.43e+00
2006 12 30  1400    54099   50400      0    1.97e+00    0    1.37e+00
2006 12 30  1405    54099   50700      0    1.86e+00    0    1.31e+00
2006 12 30  1410    54099   51000      0    2.16e+00    0    1.52e+00
2006 12 30  1415    54099   51300      0    2.25e+00    0    1.58e+00
2006 12 30  1420    54099   51600      0    2.19e+00    0    1.55e+00
2006 12 30  1425    54099   51900      0    2.10e+00    0    1.49e+00
2006 12 30  1430    54099   52200      0    2.07e+00    0    1.46e+00
2006 12 30  1435    54099   52500      0    1.96e+00    0    1.37e+00
2006 12 30  1440    54099   52800      0    1.79e+00    0    1.26e+00
2006 12 30  1445    54099   53100      0    2.17e+00    0    1.52e+00
2006 12 30  1450    54099   53400      0    2.17e+00    0    1.51e+00
2006 12 30  1455    54099   53700      0    2.16e+00    0    1.51e+00
2006 12 30  1500    54099   54000      0    2.12e+00    0    1.50e+00
2006 12 30  1505    54099   54300      0    1.99e+00    0    1.38e+00
2006 12 30  1510    54099   54600      0    1.87e+00    0    1.31e+00
2006 12 30  1515    54099   54900      0    1.77e+00    0    1.25e+00
2006 12 30  1520    54099   55200      0    2.20e+00    0    1.55e+00
2006 12 30  1525    54099   55500      0    2.16e+00    0    1.52e+00
2006 12 30  1530    54099   55800      0    2.13e+00    0    1.51e+00
2006 12 30  1535    54099   56100      0    2.02e+00    0    1.42e+00
2006 12 30  1540    54099   56400      0    1.98e+00    0    1.39e+00
2006 12 30  1545    54099   56700      0    1.83e+00    0    1.28e+00
2006 12 30  1550    54099   57000      0    1.91e+00    0    1.34e+00
2006 12 30  1555    54099   57300      0    2.25e+00    0    1.58e+00
2006 12 30  1600    54099   57600      0    2.14e+00    0    1.50e+00
2006 12 30  1605    54099   57900      0    2.09e+00    0    1.48e+00
2006 12 30  1610    54099   58200      0    2.06e+00    0    1.45e+00
2006 12 30  1615    54099   58500      0    2.03e+00    0    1.44e+00
2006 12 30  1620    54099   58800      0    1.83e+00    0    1.30e+00
2006 12 30  1625    54099   59100      0    1.94e+00    0    1.37e+00
2006 12 30  1630    54099   59400      0    2.20e+00    0    1.56e+00
2006 12 30  1635    54099   59700      0    2.20e+00    0    1.56e+00
2006 12 30  1640    54099   60000      0    2.17e+00    0    1.52e+00
2006 12 30  1645    54099   60300      0    2.08e+00    0    1.45e+00
2006 12 30  1650    54099   60600      0    1.98e+00    0    1.39e+00
2006 12 30  1655    54099   60900      0    1.80e+00    0    1.25e+00
2006 12 30  1700    54099   61200      0    2.01e+00    0    1.41e+00
2006 12 30  1705    54099   61500      0    2.19e+00    0    1.53e+00
2006 12 30  1710    54099   61800      0    2.17e+00    0    1.53e+00
2006 12 30  1715    54099   62100      0    2.11e+00    0    1.48e+00
2006 12 30  1720    54099   62400      0    1.99e+00    0    1.39e+00
2006 12 30  1725    54099   62700      0    1.98e+00    0    1.38e+00
2006 12 30  1730    54099   63000      0    1.81e+00    0    1.28e+00
2006 12 30  1735    54099   63300      0    2.08e+00    0    1.47e+00
2006 12 30  1740    54099   63600      0    2.19e+00    0    1.52e+00
2006 12 30  1745    54099   63900      0    2.14e+00    0    1.51e+00
2006 12 30  1750    54099   64200      0    2.11e+00    0    1.49e+00
2006 12 30  1755    54099   64500      0    2.01e+00    0    1.42e+00
2006 12 30  1800    54099   64800      0    1.90e+00    0    1.35e+00
2006 12 30  1805    54099   65100      0    1.77e+00    0    1.23e+00
2006 12 30  1810    54099   65400      0    2.14e+00    0    1.50e+00
2006 12 30  1815    54099   65700      0    2.22e+00    0    1.58e+00
2006 12 30  1820    54099   66000      9   -1.00e+05    9   -1.00e+05
2006 12 30  1825    54099   66300      9   -1.00e+05    9   -1.00e+05
2006 12 30  1830    54099   66600      9   -1.00e+05    9   -1.00e+05
2006 12 30  1835    54099   66900      9   -1.00e+05    9   -1.00e+05
2006 12 30  1840    54099   67200      9   -1.00e+05    9   -1.00e+05
2006 12 30  1845    54099   67500      9   -1.00e+05    9   -1.00e+05
2006 12 30  1850    54099   67800      9   -1.00e+05    9   -1.00e+05
2006 12 30  1855    54099   68100      9   -1.00e+05    9   -1.00e+05
2006 12 30  1900    54099   68400      9   -1.00e+05    9   -1.00e+05
2006 12 30  1905    54099   68700      9   -1.00e+05    9   -1.00e+05
2006 12 30  1910    54099   69000      9   -1.00e+05    9   -1.00e+05
2006 12 30  1915    54099   69300      9   -1.00e+05    9   -1.00e+05
2006 12 30  1920    54099   69600      9   -1.00e+05    9   -1.00e+05
2006 12 30  1925    54099   69900      9   -1.00e+05    9   -1.00e+05
2006 12 30  1930    54099   70200      9   -1.00e+05    9   -1.00e+05
2006 12 30  1935    54099   70500      9   -1.00e+05    9   -1.00e+05
2006 12 30  1940    54099   70800      9   -1.00e+05    9   -1.00e+05
2006 12 30  1945    54099   71100      9   -1.00e+05    9   -1.00e+05
2006 12 30  1950    54099   71400      9   -1.00e+05    9   -1.00e+05
2006 12 30  1955    54099   71700      9   -1.00e+05    9   -1.00e+05
2006 12 30  2000    54099   72000      9   -1.00e+05    9   -1.00e+05
2006 12 30  2005    54099   72300      9   -1.00e+05    9   -1.00e+05
2006 12 30  2010    54099   72600      0    2.10e+00    0    1.49e+00
2006 12 30  2015    54099   72900      0    2.00e+00    0    1.39e+00
2006 12 30  2020    54099   73200      0    1.85e+00    0    1.29e+00
2006 12 30  2025    54099   73500      0    2.06e+00    0    1.43e+00
2006 12 30  2030    54099   73800      0    2.28e+00    0    1.61e+00
2006 12 30  2035    54099   74100      0    2.21e+00    0    1.55e+00
2006 12 30  2040    54099   74400      0    2.09e+00    0    1.48e+00
2006 12 30  2045    54099   74700      0    2.03e+00    0    1.42e+00
2006 12 30  2050    54099   75000      0    1.90e+00    0    1.34e+00
2006 12 30  2055    54099   75300      0    1.87e+00    0    1.33e+00
2006 12 30  2100    54099   75600      0    2.18e+00    0    1.53e+00
2006 12 30  2105    54099   75900      0    2.21e+00    0    1.57e+00
2006 12 30  2110    54099   76200      0    2.18e+00    0    1.52e+00
2006 12 30  2115    54099   76500      0    2.11e+00    0    1.46e+00
2006 12 30  2120    54099   76800      0    2.06e+00    0    1.44e+00
2006 12 30  2125    54099   77100      0    1.92e+00    0    1.35e+00
2006 12 30  2130    54099   77400      0    1.85e+00    0    1.31e+00
2006 12 30  2135    54099   77700      0    2.23e+00    0    1.57e+00
2006 12 30  2140    54099   78000      0    2.23e+00    0    1.56e+00
2006 12 30  2145    54099   78300      0    2.18e+00    0    1.53e+00
2006 12 30  2150    54099   78600      0    2.11e+00    0    1.49e+00
2006 12 30  2155    54099   78900      0    2.08e+00    0    1.46e+00
2006 12 30  2200    54099   79200      0    1.93e+00    0    1.36e+00
2006 12 30  2205    54099   79500      0    1.99e+00    0    1.40e+00
2006 12 30  2210    54099   79800      0    2.24e+00    0    1.60e+00
2006 12 30  2215    54099   80100      0    2.26e+00    0    1.59e+00
2006 12 30  2220    54099   80400      0    2.13e+00    0    1.50e+00
2006 12 30  2225    54099   80700      0    2.15e+00    0    1.52e+00
2006 12 30  2230    54099   81000      0    2.13e+00    0    1.50e+00
2006 12 30  2235    54099   81300      0    1.86e+00    0    1.31e+00
2006 12 30  2240    54099   81600      0    2.04e+00    0    1.43e+00
2006 12 30  2245    54099   81900      0    2.24e+00    0    1.58e+00
2006 12 30  2250    54099   82200      0    2.26e+00    0    1.60e+00
2006 12 30  2255    54099   82500      0    2.10e+00    0    1.48e+00
2006 12 30  2300    54099   82800      0    2.11e+00    0    1.47e+00
2006 12 30  2305    54099   83100      0    2.17e+00    0    1.51e+00
2006 12 30  2310    54099   83400      0    1.94e+00    0    1.35e+00
2006 12 30  2315    54099   83700      0    2.11e+00    0    1.48e+00
2006 12 30  2320    54099   84000      0    2.25e+00    0    1.58e+00
2006 12 30  2325    54099   84300      0    2.21e+00    0    1.54e+00
2006 12 30  2330    54099   84600      0    2.17e+00    0    1.52e+00
2006 12 30  2335    54099   84900      0    2.13e+00    0    1.49e+00
2006 12 30  2340    54099   85200      0    2.09e+00    0    1.47e+00
2006 12 30  2345    54099   85500      0    1.94e+00    0    1.35e+00
2006 12 30  2350    54099   85800      0    2.18e+00    0    1.52e+00
2006 12 30  2355    54099   86100      0    2.25e+00    0    1.58e+00
