:Data_list: 20060123_ace_sis_5m.txt
:Created: 2006 Jan 24 0011 UT
# Prepared by the U.S. Dept. of Commerce, NOAA, Space Environment Center.
# Please send comments and suggestions to SEC.Webmaster@noaa.gov 
# 
# Units: proton flux p/cs2-sec-ster
# Status(S): 0 = nominal data, 1 to 8 = bad data record, 9 = no data
# Missing data values: -1.00e+05
# Source: ACE Satellite - Solar Isotope Spectrometer
#
# 5-minute averaged Real-time Integral Flux of High-energy Solar Protons
# 
#                 Modified Seconds
# UT Date   Time   Julian  of the      ---- Integral Proton Flux ----
# YR MO DA  HHMM     Day     Day       S    > 10 MeV    S    > 30 MeV
#--------------------------------------------------------------------
2006 01 23  0000    53758       0      0    1.44e+00    0    1.01e+00
2006 01 23  0005    53758     300      0    1.43e+00    0    1.01e+00
2006 01 23  0010    53758     600      0    1.44e+00    0    1.02e+00
2006 01 23  0015    53758     900      0    1.39e+00    0    9.71e-01
2006 01 23  0020    53758    1200      0    1.42e+00    0    9.94e-01
2006 01 23  0025    53758    1500      0    1.40e+00    0    9.91e-01
2006 01 23  0030    53758    1800      0    1.44e+00    0    1.01e+00
2006 01 23  0035    53758    2100      0    1.41e+00    0    9.94e-01
2006 01 23  0040    53758    2400      0    1.39e+00    0    9.82e-01
2006 01 23  0045    53758    2700      0    1.39e+00    0    9.77e-01
2006 01 23  0050    53758    3000      0    1.41e+00    0    9.87e-01
2006 01 23  0055    53758    3300      0    1.43e+00    0    1.00e+00
2006 01 23  0100    53758    3600      0    1.45e+00    0    1.02e+00
2006 01 23  0105    53758    3900      0    1.42e+00    0    1.00e+00
2006 01 23  0110    53758    4200      0    1.42e+00    0    9.93e-01
2006 01 23  0115    53758    4500      0    1.40e+00    0    9.72e-01
2006 01 23  0120    53758    4800      0    1.40e+00    0    9.84e-01
2006 01 23  0125    53758    5100      0    1.41e+00    0    9.88e-01
2006 01 23  0130    53758    5400      0    1.39e+00    0    9.82e-01
2006 01 23  0135    53758    5700      0    1.38e+00    0    9.67e-01
2006 01 23  0140    53758    6000      0    1.43e+00    0    1.01e+00
2006 01 23  0145    53758    6300      0    1.42e+00    0    1.01e+00
2006 01 23  0150    53758    6600      0    1.42e+00    0    1.01e+00
2006 01 23  0155    53758    6900      0    1.43e+00    0    9.92e-01
2006 01 23  0200    53758    7200      0    1.42e+00    0    1.01e+00
2006 01 23  0205    53758    7500      0    1.44e+00    0    1.01e+00
2006 01 23  0210    53758    7800      0    1.41e+00    0    9.91e-01
2006 01 23  0215    53758    8100      0    1.41e+00    0    9.86e-01
2006 01 23  0220    53758    8400      0    1.41e+00    0    9.84e-01
2006 01 23  0225    53758    8700      0    1.43e+00    0    1.00e+00
2006 01 23  0230    53758    9000      0    1.38e+00    0    9.84e-01
2006 01 23  0235    53758    9300      0    1.43e+00    0    1.00e+00
2006 01 23  0240    53758    9600      0    1.39e+00    0    9.82e-01
2006 01 23  0245    53758    9900      0    1.42e+00    0    1.00e+00
2006 01 23  0250    53758   10200      0    1.42e+00    0    1.01e+00
2006 01 23  0255    53758   10500      0    1.41e+00    0    9.97e-01
2006 01 23  0300    53758   10800      0    1.40e+00    0    9.80e-01
2006 01 23  0305    53758   11100      0    1.42e+00    0    9.94e-01
2006 01 23  0310    53758   11400      0    1.44e+00    0    1.01e+00
2006 01 23  0315    53758   11700      0    1.40e+00    0    9.79e-01
2006 01 23  0320    53758   12000      0    1.45e+00    0    1.03e+00
2006 01 23  0325    53758   12300      0    1.43e+00    0    1.01e+00
2006 01 23  0330    53758   12600      0    1.43e+00    0    1.01e+00
2006 01 23  0335    53758   12900      0    1.46e+00    0    1.02e+00
2006 01 23  0340    53758   13200      0    1.42e+00    0    1.00e+00
2006 01 23  0345    53758   13500      0    1.42e+00    0    1.01e+00
2006 01 23  0350    53758   13800      0    1.42e+00    0    9.93e-01
2006 01 23  0355    53758   14100      0    1.43e+00    0    1.00e+00
2006 01 23  0400    53758   14400      0    1.44e+00    0    1.01e+00
2006 01 23  0405    53758   14700      0    1.41e+00    0    9.98e-01
2006 01 23  0410    53758   15000      0    1.42e+00    0    1.00e+00
2006 01 23  0415    53758   15300      0    1.42e+00    0    1.00e+00
2006 01 23  0420    53758   15600      0    1.45e+00    0    1.02e+00
2006 01 23  0425    53758   15900      0    1.42e+00    0    1.00e+00
2006 01 23  0430    53758   16200      0    1.41e+00    0    9.87e-01
2006 01 23  0435    53758   16500      0    1.43e+00    0    1.01e+00
2006 01 23  0440    53758   16800      0    1.40e+00    0    9.80e-01
2006 01 23  0445    53758   17100      0    1.42e+00    0    9.95e-01
2006 01 23  0450    53758   17400      0    1.41e+00    0    9.96e-01
2006 01 23  0455    53758   17700      0    1.43e+00    0    9.95e-01
2006 01 23  0500    53758   18000      0    1.42e+00    0    1.00e+00
2006 01 23  0505    53758   18300      0    1.40e+00    0    9.76e-01
2006 01 23  0510    53758   18600      0    1.43e+00    0    1.00e+00
2006 01 23  0515    53758   18900      0    1.42e+00    0    1.01e+00
2006 01 23  0520    53758   19200      0    1.41e+00    0    9.84e-01
2006 01 23  0525    53758   19500      0    1.43e+00    0    9.97e-01
2006 01 23  0530    53758   19800      0    1.41e+00    0    9.91e-01
2006 01 23  0535    53758   20100      0    1.42e+00    0    1.00e+00
2006 01 23  0540    53758   20400      0    1.34e+00    0    9.42e-01
2006 01 23  0545    53758   20700      0    1.39e+00    0    9.70e-01
2006 01 23  0550    53758   21000      0    1.41e+00    0    9.81e-01
2006 01 23  0555    53758   21300      0    1.44e+00    0    1.01e+00
2006 01 23  0600    53758   21600      0    1.45e+00    0    1.02e+00
2006 01 23  0605    53758   21900      0    1.42e+00    0    1.01e+00
2006 01 23  0610    53758   22200      0    1.41e+00    0    9.84e-01
2006 01 23  0615    53758   22500      0    1.46e+00    0    1.03e+00
2006 01 23  0620    53758   22800      0    1.41e+00    0    9.94e-01
2006 01 23  0625    53758   23100      0    1.43e+00    0    1.01e+00
2006 01 23  0630    53758   23400      0    1.42e+00    0    9.99e-01
2006 01 23  0635    53758   23700      0    1.42e+00    0    9.99e-01
2006 01 23  0640    53758   24000      0    1.43e+00    0    9.94e-01
2006 01 23  0645    53758   24300      0    1.45e+00    0    1.02e+00
2006 01 23  0650    53758   24600      0    1.41e+00    0    9.81e-01
2006 01 23  0655    53758   24900      0    1.42e+00    0    9.92e-01
2006 01 23  0700    53758   25200      0    1.43e+00    0    1.01e+00
2006 01 23  0705    53758   25500      0    1.41e+00    0    9.84e-01
2006 01 23  0710    53758   25800      0    1.43e+00    0    1.00e+00
2006 01 23  0715    53758   26100      0    1.43e+00    0    9.94e-01
2006 01 23  0720    53758   26400      0    1.42e+00    0    9.91e-01
2006 01 23  0725    53758   26700      0    1.40e+00    0    9.87e-01
2006 01 23  0730    53758   27000      0    1.42e+00    0    9.91e-01
2006 01 23  0735    53758   27300      0    1.44e+00    0    1.01e+00
2006 01 23  0740    53758   27600      0    1.42e+00    0    9.91e-01
2006 01 23  0745    53758   27900      0    1.41e+00    0    9.91e-01
2006 01 23  0750    53758   28200      0    1.41e+00    0    9.96e-01
2006 01 23  0755    53758   28500      0    1.43e+00    0    1.00e+00
2006 01 23  0800    53758   28800      0    1.41e+00    0    9.92e-01
2006 01 23  0805    53758   29100      0    1.43e+00    0    1.01e+00
2006 01 23  0810    53758   29400      0    1.42e+00    0    1.01e+00
2006 01 23  0815    53758   29700      0    1.40e+00    0    9.82e-01
2006 01 23  0820    53758   30000      0    1.43e+00    0    9.92e-01
2006 01 23  0825    53758   30300      0    1.44e+00    0    1.01e+00
2006 01 23  0830    53758   30600      0    1.40e+00    0    9.92e-01
2006 01 23  0835    53758   30900      0    1.43e+00    0    1.01e+00
2006 01 23  0840    53758   31200      0    1.43e+00    0    1.00e+00
2006 01 23  0845    53758   31500      0    1.42e+00    0    9.98e-01
2006 01 23  0850    53758   31800      0    1.41e+00    0    1.00e+00
2006 01 23  0855    53758   32100      0    1.44e+00    0    1.02e+00
2006 01 23  0900    53758   32400      0    1.47e+00    0    1.04e+00
2006 01 23  0905    53758   32700      0    1.43e+00    0    1.00e+00
2006 01 23  0910    53758   33000      0    1.43e+00    0    9.96e-01
2006 01 23  0915    53758   33300      0    1.44e+00    0    1.02e+00
2006 01 23  0920    53758   33600      0    1.43e+00    0    1.01e+00
2006 01 23  0925    53758   33900      0    1.42e+00    0    1.00e+00
2006 01 23  0930    53758   34200      0    1.39e+00    0    9.76e-01
2006 01 23  0935    53758   34500      0    1.41e+00    0    9.94e-01
2006 01 23  0940    53758   34800      0    1.44e+00    0    1.02e+00
2006 01 23  0945    53758   35100      0    1.43e+00    0    1.01e+00
2006 01 23  0950    53758   35400      0    1.43e+00    0    1.00e+00
2006 01 23  0955    53758   35700      0    1.43e+00    0    9.98e-01
2006 01 23  1000    53758   36000      0    1.42e+00    0    9.91e-01
2006 01 23  1005    53758   36300      0    1.42e+00    0    1.00e+00
2006 01 23  1010    53758   36600      0    1.39e+00    0    9.78e-01
2006 01 23  1015    53758   36900      0    1.43e+00    0    1.00e+00
2006 01 23  1020    53758   37200      0    1.41e+00    0    9.93e-01
2006 01 23  1025    53758   37500      0    1.43e+00    0    1.01e+00
2006 01 23  1030    53758   37800      0    1.39e+00    0    9.78e-01
2006 01 23  1035    53758   38100      0    1.40e+00    0    9.70e-01
2006 01 23  1040    53758   38400      0    1.39e+00    0    9.78e-01
2006 01 23  1045    53758   38700      0    1.43e+00    0    1.00e+00
2006 01 23  1050    53758   39000      0    1.39e+00    0    9.74e-01
2006 01 23  1055    53758   39300      0    1.41e+00    0    9.86e-01
2006 01 23  1100    53758   39600      0    1.36e+00    0    9.46e-01
2006 01 23  1105    53758   39900      0    1.38e+00    0    9.74e-01
2006 01 23  1110    53758   40200      0    1.40e+00    0    9.71e-01
2006 01 23  1115    53758   40500      0    1.40e+00    0    9.84e-01
2006 01 23  1120    53758   40800      0    1.40e+00    0    9.88e-01
2006 01 23  1125    53758   41100      0    1.40e+00    0    9.82e-01
2006 01 23  1130    53758   41400      0    1.39e+00    0    9.72e-01
2006 01 23  1135    53758   41700      0    1.42e+00    0    9.92e-01
2006 01 23  1140    53758   42000      0    1.42e+00    0    9.99e-01
2006 01 23  1145    53758   42300      0    1.39e+00    0    9.80e-01
2006 01 23  1150    53758   42600      0    1.40e+00    0    9.83e-01
2006 01 23  1155    53758   42900      0    1.41e+00    0    9.99e-01
2006 01 23  1200    53758   43200      0    1.41e+00    0    9.84e-01
2006 01 23  1205    53758   43500      0    1.37e+00    0    9.52e-01
2006 01 23  1210    53758   43800      0    1.43e+00    0    1.01e+00
2006 01 23  1215    53758   44100      0    1.40e+00    0    9.73e-01
2006 01 23  1220    53758   44400      0    1.40e+00    0    9.67e-01
2006 01 23  1225    53758   44700      0    1.40e+00    0    9.97e-01
2006 01 23  1230    53758   45000      0    1.40e+00    0    9.68e-01
2006 01 23  1235    53758   45300      0    1.39e+00    0    9.68e-01
2006 01 23  1240    53758   45600      0    1.38e+00    0    9.69e-01
2006 01 23  1245    53758   45900      0    1.42e+00    0    1.00e+00
2006 01 23  1250    53758   46200      0    1.43e+00    0    1.01e+00
2006 01 23  1255    53758   46500      0    1.41e+00    0    9.85e-01
2006 01 23  1300    53758   46800      0    1.40e+00    0    9.87e-01
2006 01 23  1305    53758   47100      0    1.42e+00    0    9.83e-01
2006 01 23  1310    53758   47400      0    1.41e+00    0    9.82e-01
2006 01 23  1315    53758   47700      0    1.41e+00    0    9.99e-01
2006 01 23  1320    53758   48000      0    1.41e+00    0    1.00e+00
2006 01 23  1325    53758   48300      0    1.40e+00    0    9.76e-01
2006 01 23  1330    53758   48600      0    1.41e+00    0    9.79e-01
2006 01 23  1335    53758   48900      0    1.38e+00    0    9.58e-01
2006 01 23  1340    53758   49200      0    1.38e+00    0    9.62e-01
2006 01 23  1345    53758   49500      0    1.38e+00    0    9.73e-01
2006 01 23  1350    53758   49800      0    1.41e+00    0    1.00e+00
2006 01 23  1355    53758   50100      0    1.39e+00    0    9.73e-01
2006 01 23  1400    53758   50400      0    1.47e+00    0    1.04e+00
2006 01 23  1405    53758   50700      0    1.42e+00    0    9.89e-01
2006 01 23  1410    53758   51000      0    1.39e+00    0    9.82e-01
2006 01 23  1415    53758   51300      0    1.39e+00    0    9.67e-01
2006 01 23  1420    53758   51600      0    1.41e+00    0    9.99e-01
2006 01 23  1425    53758   51900      0    1.43e+00    0    1.00e+00
2006 01 23  1430    53758   52200      0    1.39e+00    0    9.80e-01
2006 01 23  1435    53758   52500      0    1.42e+00    0    1.00e+00
2006 01 23  1440    53758   52800      0    1.43e+00    0    1.01e+00
2006 01 23  1445    53758   53100      0    1.44e+00    0    1.02e+00
2006 01 23  1450    53758   53400      0    1.43e+00    0    1.01e+00
2006 01 23  1455    53758   53700      0    1.40e+00    0    9.98e-01
2006 01 23  1500    53758   54000      0    1.39e+00    0    9.69e-01
2006 01 23  1505    53758   54300      0    1.35e+00    0    9.44e-01
2006 01 23  1510    53758   54600      0    1.38e+00    0    9.77e-01
2006 01 23  1515    53758   54900      0    1.40e+00    0    9.78e-01
2006 01 23  1520    53758   55200      0    1.44e+00    0    1.02e+00
2006 01 23  1525    53758   55500      0    1.42e+00    0    9.96e-01
2006 01 23  1530    53758   55800      0    1.38e+00    0    9.64e-01
2006 01 23  1535    53758   56100      0    1.39e+00    0    9.80e-01
2006 01 23  1540    53758   56400      0    1.41e+00    0    9.90e-01
2006 01 23  1545    53758   56700      0    1.41e+00    0    9.98e-01
2006 01 23  1550    53758   57000      0    1.41e+00    0    1.00e+00
2006 01 23  1555    53758   57300      0    1.38e+00    0    9.84e-01
2006 01 23  1600    53758   57600      0    1.40e+00    0    9.82e-01
2006 01 23  1605    53758   57900      0    1.41e+00    0    9.81e-01
2006 01 23  1610    53758   58200      0    1.42e+00    0    9.97e-01
2006 01 23  1615    53758   58500      0    1.42e+00    0    9.98e-01
2006 01 23  1620    53758   58800      0    1.42e+00    0    9.99e-01
2006 01 23  1625    53758   59100      0    1.42e+00    0    9.84e-01
2006 01 23  1630    53758   59400      0    1.40e+00    0    9.90e-01
2006 01 23  1635    53758   59700      0    1.40e+00    0    9.88e-01
2006 01 23  1640    53758   60000      0    1.37e+00    0    9.64e-01
2006 01 23  1645    53758   60300      0    1.40e+00    0    9.92e-01
2006 01 23  1650    53758   60600      0    1.43e+00    0    1.01e+00
2006 01 23  1655    53758   60900      0    1.42e+00    0    1.01e+00
2006 01 23  1700    53758   61200      0    1.42e+00    0    1.01e+00
2006 01 23  1705    53758   61500      0    1.40e+00    0    9.96e-01
2006 01 23  1710    53758   61800      0    1.39e+00    0    9.75e-01
2006 01 23  1715    53758   62100      0    1.42e+00    0    9.94e-01
2006 01 23  1720    53758   62400      0    1.43e+00    0    1.01e+00
2006 01 23  1725    53758   62700      0    1.39e+00    0    9.76e-01
2006 01 23  1730    53758   63000      0    1.39e+00    0    9.70e-01
2006 01 23  1735    53758   63300      0    1.43e+00    0    1.00e+00
2006 01 23  1740    53758   63600      0    1.43e+00    0    1.01e+00
2006 01 23  1745    53758   63900      0    1.41e+00    0    9.87e-01
2006 01 23  1750    53758   64200      0    1.40e+00    0    9.98e-01
2006 01 23  1755    53758   64500      0    1.41e+00    0    9.83e-01
2006 01 23  1800    53758   64800      0    1.40e+00    0    9.91e-01
2006 01 23  1805    53758   65100      0    1.40e+00    0    9.79e-01
2006 01 23  1810    53758   65400      0    1.39e+00    0    9.82e-01
2006 01 23  1815    53758   65700      0    1.42e+00    0    1.00e+00
2006 01 23  1820    53758   66000      0    1.39e+00    0    9.73e-01
2006 01 23  1825    53758   66300      0    1.44e+00    0    1.01e+00
2006 01 23  1830    53758   66600      0    1.45e+00    0    1.02e+00
2006 01 23  1835    53758   66900      0    1.41e+00    0    9.88e-01
2006 01 23  1840    53758   67200      0    1.42e+00    0    9.92e-01
2006 01 23  1845    53758   67500      0    1.39e+00    0    9.60e-01
2006 01 23  1850    53758   67800      0    1.37e+00    0    9.63e-01
2006 01 23  1855    53758   68100      0    1.44e+00    0    1.01e+00
2006 01 23  1900    53758   68400      0    1.41e+00    0    9.78e-01
2006 01 23  1905    53758   68700      0    1.42e+00    0    1.00e+00
2006 01 23  1910    53758   69000      0    1.40e+00    0    9.93e-01
2006 01 23  1915    53758   69300      0    1.39e+00    0    9.86e-01
2006 01 23  1920    53758   69600      0    1.40e+00    0    9.86e-01
2006 01 23  1925    53758   69900      0    1.39e+00    0    9.91e-01
2006 01 23  1930    53758   70200      0    1.42e+00    0    1.00e+00
2006 01 23  1935    53758   70500      0    1.38e+00    0    9.73e-01
2006 01 23  1940    53758   70800      0    1.40e+00    0    9.76e-01
2006 01 23  1945    53758   71100      0    1.40e+00    0    9.87e-01
2006 01 23  1950    53758   71400      0    1.41e+00    0    9.91e-01
2006 01 23  1955    53758   71700      0    1.42e+00    0    9.90e-01
2006 01 23  2000    53758   72000      0    1.37e+00    0    9.57e-01
2006 01 23  2005    53758   72300      0    1.41e+00    0    9.88e-01
2006 01 23  2010    53758   72600      0    1.41e+00    0    9.96e-01
2006 01 23  2015    53758   72900      0    1.41e+00    0    1.00e+00
2006 01 23  2020    53758   73200      0    1.38e+00    0    9.72e-01
2006 01 23  2025    53758   73500      0    1.43e+00    0    1.00e+00
2006 01 23  2030    53758   73800      0    1.40e+00    0    9.91e-01
2006 01 23  2035    53758   74100      0    1.42e+00    0    9.97e-01
2006 01 23  2040    53758   74400      0    1.44e+00    0    1.02e+00
2006 01 23  2045    53758   74700      0    1.41e+00    0    9.91e-01
2006 01 23  2050    53758   75000      0    1.38e+00    0    9.79e-01
2006 01 23  2055    53758   75300      0    1.42e+00    0    1.00e+00
2006 01 23  2100    53758   75600      0    1.43e+00    0    1.00e+00
2006 01 23  2105    53758   75900      0    1.37e+00    0    9.63e-01
2006 01 23  2110    53758   76200      0    1.39e+00    0    9.68e-01
2006 01 23  2115    53758   76500      0    1.43e+00    0    1.00e+00
2006 01 23  2120    53758   76800      0    1.40e+00    0    9.96e-01
2006 01 23  2125    53758   77100      0    1.37e+00    0    9.55e-01
2006 01 23  2130    53758   77400      0    1.41e+00    0    9.87e-01
2006 01 23  2135    53758   77700      0    1.43e+00    0    1.01e+00
2006 01 23  2140    53758   78000      0    1.44e+00    0    1.01e+00
2006 01 23  2145    53758   78300      0    1.40e+00    0    9.90e-01
2006 01 23  2150    53758   78600      0    1.42e+00    0    1.00e+00
2006 01 23  2155    53758   78900      0    1.42e+00    0    1.01e+00
2006 01 23  2200    53758   79200      0    1.41e+00    0    9.83e-01
2006 01 23  2205    53758   79500      0    1.42e+00    0    1.01e+00
2006 01 23  2210    53758   79800      0    1.39e+00    0    9.72e-01
2006 01 23  2215    53758   80100      0    1.40e+00    0    9.84e-01
2006 01 23  2220    53758   80400      0    1.40e+00    0    9.80e-01
2006 01 23  2225    53758   80700      0    1.41e+00    0    9.88e-01
2006 01 23  2230    53758   81000      0    1.38e+00    0    9.73e-01
2006 01 23  2235    53758   81300      0    1.38e+00    0    9.61e-01
2006 01 23  2240    53758   81600      0    1.43e+00    0    1.01e+00
2006 01 23  2245    53758   81900      0    1.42e+00    0    9.88e-01
2006 01 23  2250    53758   82200      0    1.37e+00    0    9.63e-01
2006 01 23  2255    53758   82500      0    1.39e+00    0    9.68e-01
2006 01 23  2300    53758   82800      0    1.38e+00    0    9.69e-01
2006 01 23  2305    53758   83100      0    1.39e+00    0    9.79e-01
2006 01 23  2310    53758   83400      0    1.41e+00    0    9.90e-01
2006 01 23  2315    53758   83700      0    1.42e+00    0    9.91e-01
2006 01 23  2320    53758   84000      0    1.42e+00    0    9.88e-01
2006 01 23  2325    53758   84300      0    1.40e+00    0    9.97e-01
2006 01 23  2330    53758   84600      0    1.40e+00    0    9.99e-01
2006 01 23  2335    53758   84900      0    1.41e+00    0    9.95e-01
2006 01 23  2340    53758   85200      0    1.41e+00    0    9.94e-01
2006 01 23  2345    53758   85500      0    1.39e+00    0    9.69e-01
2006 01 23  2350    53758   85800      0    1.44e+00    0    1.02e+00
2006 01 23  2355    53758   86100      0    1.42e+00    0    1.00e+00
