:Data_list: 20061216_ace_sis_5m.txt
:Created: 2006 Dec 17 0011 UT
# Prepared by the U.S. Dept. of Commerce, NOAA, Space Environment Center.
# Please send comments and suggestions to SEC.Webmaster@noaa.gov 
# 
# Units: proton flux p/cs2-sec-ster
# Status(S): 0 = nominal data, 1 to 8 = bad data record, 9 = no data
# Missing data values: -1.00e+05
# Source: ACE Satellite - Solar Isotope Spectrometer
#
# 5-minute averaged Real-time Integral Flux of High-energy Solar Protons
# 
#                 Modified Seconds
# UT Date   Time   Julian  of the      ---- Integral Proton Flux ----
# YR MO DA  HHMM     Day     Day       S    > 10 MeV    S    > 30 MeV
#--------------------------------------------------------------------
2006 12 16  0000    54085       0      0    1.04e+01    0    3.47e+00
2006 12 16  0005    54085     300      0    1.02e+01    0    3.26e+00
2006 12 16  0010    54085     600      0    1.01e+01    0    3.30e+00
2006 12 16  0015    54085     900      0    1.01e+01    0    3.28e+00
2006 12 16  0020    54085    1200      0    1.01e+01    0    3.26e+00
2006 12 16  0025    54085    1500      0    1.00e+01    0    3.25e+00
2006 12 16  0030    54085    1800      0    9.85e+00    0    3.19e+00
2006 12 16  0035    54085    2100      0    9.64e+00    0    3.18e+00
2006 12 16  0040    54085    2400      0    9.89e+00    0    3.26e+00
2006 12 16  0045    54085    2700      0    9.75e+00    0    3.26e+00
2006 12 16  0050    54085    3000      0    9.84e+00    0    3.24e+00
2006 12 16  0055    54085    3300      0    9.89e+00    0    3.23e+00
2006 12 16  0100    54085    3600      0    9.70e+00    0    3.16e+00
2006 12 16  0105    54085    3900      0    9.71e+00    0    3.14e+00
2006 12 16  0110    54085    4200      0    9.69e+00    0    3.18e+00
2006 12 16  0115    54085    4500      0    9.49e+00    0    3.14e+00
2006 12 16  0120    54085    4800      0    9.33e+00    0    3.06e+00
2006 12 16  0125    54085    5100      0    9.38e+00    0    3.08e+00
2006 12 16  0130    54085    5400      0    9.58e+00    0    3.21e+00
2006 12 16  0135    54085    5700      0    9.47e+00    0    3.19e+00
2006 12 16  0140    54085    6000      0    9.19e+00    0    3.09e+00
2006 12 16  0145    54085    6300      0    9.13e+00    0    3.08e+00
2006 12 16  0150    54085    6600      0    9.07e+00    0    3.02e+00
2006 12 16  0155    54085    6900      0    9.02e+00    0    2.97e+00
2006 12 16  0200    54085    7200      0    8.93e+00    0    3.10e+00
2006 12 16  0205    54085    7500      0    8.98e+00    0    3.03e+00
2006 12 16  0210    54085    7800      0    9.00e+00    0    2.98e+00
2006 12 16  0215    54085    8100      0    8.77e+00    0    2.97e+00
2006 12 16  0220    54085    8400      0    8.88e+00    0    3.00e+00
2006 12 16  0225    54085    8700      0    8.77e+00    0    2.95e+00
2006 12 16  0230    54085    9000      0    8.68e+00    0    2.91e+00
2006 12 16  0235    54085    9300      0    8.83e+00    0    3.00e+00
2006 12 16  0240    54085    9600      0    8.88e+00    0    3.02e+00
2006 12 16  0245    54085    9900      0    8.59e+00    0    2.90e+00
2006 12 16  0250    54085   10200      0    8.72e+00    0    2.95e+00
2006 12 16  0255    54085   10500      0    8.45e+00    0    2.89e+00
2006 12 16  0300    54085   10800      0    8.52e+00    0    2.89e+00
2006 12 16  0305    54085   11100      0    8.36e+00    0    2.85e+00
2006 12 16  0310    54085   11400      9   -1.00e+05    9   -1.00e+05
2006 12 16  0315    54085   11700      9   -1.00e+05    9   -1.00e+05
2006 12 16  0320    54085   12000      9   -1.00e+05    9   -1.00e+05
2006 12 16  0325    54085   12300      9   -1.00e+05    9   -1.00e+05
2006 12 16  0330    54085   12600      9   -1.00e+05    9   -1.00e+05
2006 12 16  0335    54085   12900      9   -1.00e+05    9   -1.00e+05
2006 12 16  0340    54085   13200      9   -1.00e+05    9   -1.00e+05
2006 12 16  0345    54085   13500      0    8.01e+00    0    2.69e+00
2006 12 16  0350    54085   13800      0    8.16e+00    0    2.79e+00
2006 12 16  0355    54085   14100      0    8.02e+00    0    2.75e+00
2006 12 16  0400    54085   14400      0    7.92e+00    0    2.77e+00
2006 12 16  0405    54085   14700      0    7.87e+00    0    2.71e+00
2006 12 16  0410    54085   15000      0    7.83e+00    0    2.73e+00
2006 12 16  0415    54085   15300      0    7.98e+00    0    2.73e+00
2006 12 16  0420    54085   15600      9   -1.00e+05    9   -1.00e+05
2006 12 16  0425    54085   15900      9   -1.00e+05    9   -1.00e+05
2006 12 16  0430    54085   16200      9   -1.00e+05    9   -1.00e+05
2006 12 16  0435    54085   16500      9   -1.00e+05    9   -1.00e+05
2006 12 16  0440    54085   16800      9   -1.00e+05    9   -1.00e+05
2006 12 16  0445    54085   17100      9   -1.00e+05    9   -1.00e+05
2006 12 16  0450    54085   17400      9   -1.00e+05    9   -1.00e+05
2006 12 16  0455    54085   17700      9   -1.00e+05    9   -1.00e+05
2006 12 16  0500    54085   18000      9   -1.00e+05    9   -1.00e+05
2006 12 16  0505    54085   18300      9   -1.00e+05    9   -1.00e+05
2006 12 16  0510    54085   18600      9   -1.00e+05    9   -1.00e+05
2006 12 16  0515    54085   18900      9   -1.00e+05    9   -1.00e+05
2006 12 16  0520    54085   19200      9   -1.00e+05    9   -1.00e+05
2006 12 16  0525    54085   19500      9   -1.00e+05    9   -1.00e+05
2006 12 16  0530    54085   19800      9   -1.00e+05    9   -1.00e+05
2006 12 16  0535    54085   20100      9   -1.00e+05    9   -1.00e+05
2006 12 16  0540    54085   20400      9   -1.00e+05    9   -1.00e+05
2006 12 16  0545    54085   20700      9   -1.00e+05    9   -1.00e+05
2006 12 16  0550    54085   21000      9   -1.00e+05    9   -1.00e+05
2006 12 16  0555    54085   21300      9   -1.00e+05    9   -1.00e+05
2006 12 16  0600    54085   21600      9   -1.00e+05    9   -1.00e+05
2006 12 16  0605    54085   21900      9   -1.00e+05    9   -1.00e+05
2006 12 16  0610    54085   22200      9   -1.00e+05    9   -1.00e+05
2006 12 16  0615    54085   22500      9   -1.00e+05    9   -1.00e+05
2006 12 16  0620    54085   22800      9   -1.00e+05    9   -1.00e+05
2006 12 16  0625    54085   23100      9   -1.00e+05    9   -1.00e+05
2006 12 16  0630    54085   23400      9   -1.00e+05    9   -1.00e+05
2006 12 16  0635    54085   23700      9   -1.00e+05    9   -1.00e+05
2006 12 16  0640    54085   24000      9   -1.00e+05    9   -1.00e+05
2006 12 16  0645    54085   24300      9   -1.00e+05    9   -1.00e+05
2006 12 16  0650    54085   24600      9   -1.00e+05    9   -1.00e+05
2006 12 16  0655    54085   24900      9   -1.00e+05    9   -1.00e+05
2006 12 16  0700    54085   25200      0    6.79e+00    0    2.53e+00
2006 12 16  0705    54085   25500      0    6.64e+00    0    2.35e+00
2006 12 16  0710    54085   25800      0    6.90e+00    0    2.56e+00
2006 12 16  0715    54085   26100      0    6.72e+00    0    2.44e+00
2006 12 16  0720    54085   26400      0    6.74e+00    0    2.44e+00
2006 12 16  0725    54085   26700      0    6.77e+00    0    2.49e+00
2006 12 16  0730    54085   27000      0    6.75e+00    0    2.49e+00
2006 12 16  0735    54085   27300      0    6.69e+00    0    2.49e+00
2006 12 16  0740    54085   27600      0    6.86e+00    0    2.55e+00
2006 12 16  0745    54085   27900      0    6.83e+00    0    2.53e+00
2006 12 16  0750    54085   28200      0    6.65e+00    0    2.46e+00
2006 12 16  0755    54085   28500      0    6.50e+00    0    2.43e+00
2006 12 16  0800    54085   28800      0    6.55e+00    0    2.41e+00
2006 12 16  0805    54085   29100      0    6.55e+00    0    2.43e+00
2006 12 16  0810    54085   29400      0    6.47e+00    0    2.39e+00
2006 12 16  0815    54085   29700      0    6.57e+00    0    2.47e+00
2006 12 16  0820    54085   30000      0    6.64e+00    0    2.44e+00
2006 12 16  0825    54085   30300      0    6.52e+00    0    2.39e+00
2006 12 16  0830    54085   30600      0    6.51e+00    0    2.40e+00
2006 12 16  0835    54085   30900      0    6.48e+00    0    2.47e+00
2006 12 16  0840    54085   31200      0    6.41e+00    0    2.38e+00
2006 12 16  0845    54085   31500      0    6.32e+00    0    2.35e+00
2006 12 16  0850    54085   31800      0    6.42e+00    0    2.31e+00
2006 12 16  0855    54085   32100      0    6.62e+00    0    2.42e+00
2006 12 16  0900    54085   32400      0    6.52e+00    0    2.37e+00
2006 12 16  0905    54085   32700      0    6.54e+00    0    2.42e+00
2006 12 16  0910    54085   33000      0    6.55e+00    0    2.43e+00
2006 12 16  0915    54085   33300      0    6.48e+00    0    2.43e+00
2006 12 16  0920    54085   33600      0    6.39e+00    0    2.37e+00
2006 12 16  0925    54085   33900      0    6.57e+00    0    2.42e+00
2006 12 16  0930    54085   34200      0    6.49e+00    0    2.39e+00
2006 12 16  0935    54085   34500      0    6.54e+00    0    2.46e+00
2006 12 16  0940    54085   34800      0    6.35e+00    0    2.28e+00
2006 12 16  0945    54085   35100      0    6.28e+00    0    2.35e+00
2006 12 16  0950    54085   35400      0    6.24e+00    0    2.31e+00
2006 12 16  0955    54085   35700      0    6.24e+00    0    2.39e+00
2006 12 16  1000    54085   36000      0    6.41e+00    0    2.43e+00
2006 12 16  1005    54085   36300      0    6.25e+00    0    2.36e+00
2006 12 16  1010    54085   36600      0    6.16e+00    0    2.32e+00
2006 12 16  1015    54085   36900      0    6.17e+00    0    2.37e+00
2006 12 16  1020    54085   37200      0    6.22e+00    0    2.34e+00
2006 12 16  1025    54085   37500      0    6.02e+00    0    2.26e+00
2006 12 16  1030    54085   37800      0    5.96e+00    0    2.30e+00
2006 12 16  1035    54085   38100      0    6.22e+00    0    2.33e+00
2006 12 16  1040    54085   38400      0    6.19e+00    0    2.39e+00
2006 12 16  1045    54085   38700      0    6.09e+00    0    2.30e+00
2006 12 16  1050    54085   39000      0    5.95e+00    0    2.25e+00
2006 12 16  1055    54085   39300      0    5.97e+00    0    2.29e+00
2006 12 16  1100    54085   39600      0    6.00e+00    0    2.32e+00
2006 12 16  1105    54085   39900      0    5.91e+00    0    2.27e+00
2006 12 16  1110    54085   40200      0    5.98e+00    0    2.32e+00
2006 12 16  1115    54085   40500      0    5.91e+00    0    2.32e+00
2006 12 16  1120    54085   40800      0    5.91e+00    0    2.29e+00
2006 12 16  1125    54085   41100      0    5.82e+00    0    2.28e+00
2006 12 16  1130    54085   41400      0    5.80e+00    0    2.29e+00
2006 12 16  1135    54085   41700      0    5.58e+00    0    2.21e+00
2006 12 16  1140    54085   42000      0    5.76e+00    0    2.26e+00
2006 12 16  1145    54085   42300      0    5.78e+00    0    2.26e+00
2006 12 16  1150    54085   42600      0    5.66e+00    0    2.23e+00
2006 12 16  1155    54085   42900      0    5.54e+00    0    2.12e+00
2006 12 16  1200    54085   43200      0    5.50e+00    0    2.14e+00
2006 12 16  1205    54085   43500      0    5.61e+00    0    2.23e+00
2006 12 16  1210    54085   43800      0    5.47e+00    0    2.16e+00
2006 12 16  1215    54085   44100      0    5.53e+00    0    2.20e+00
2006 12 16  1220    54085   44400      0    5.60e+00    0    2.24e+00
2006 12 16  1225    54085   44700      0    5.58e+00    0    2.23e+00
2006 12 16  1230    54085   45000      0    5.53e+00    0    2.22e+00
2006 12 16  1235    54085   45300      0    5.46e+00    0    2.23e+00
2006 12 16  1240    54085   45600      0    5.37e+00    0    2.12e+00
2006 12 16  1245    54085   45900      0    5.33e+00    0    2.17e+00
2006 12 16  1250    54085   46200      0    5.38e+00    0    2.18e+00
2006 12 16  1255    54085   46500      0    5.50e+00    0    2.27e+00
2006 12 16  1300    54085   46800      0    5.45e+00    0    2.19e+00
2006 12 16  1305    54085   47100      0    5.42e+00    0    2.24e+00
2006 12 16  1310    54085   47400      0    5.42e+00    0    2.27e+00
2006 12 16  1315    54085   47700      0    5.25e+00    0    2.13e+00
2006 12 16  1320    54085   48000      0    5.33e+00    0    2.20e+00
2006 12 16  1325    54085   48300      0    5.37e+00    0    2.19e+00
2006 12 16  1330    54085   48600      0    5.23e+00    0    2.13e+00
2006 12 16  1335    54085   48900      0    5.21e+00    0    2.12e+00
2006 12 16  1340    54085   49200      0    5.21e+00    0    2.17e+00
2006 12 16  1345    54085   49500      0    5.22e+00    0    2.14e+00
2006 12 16  1350    54085   49800      0    5.21e+00    0    2.18e+00
2006 12 16  1355    54085   50100      0    5.28e+00    0    2.10e+00
2006 12 16  1400    54085   50400      0    5.26e+00    0    2.13e+00
2006 12 16  1405    54085   50700      0    5.30e+00    0    2.22e+00
2006 12 16  1410    54085   51000      0    5.21e+00    0    2.15e+00
2006 12 16  1415    54085   51300      0    5.14e+00    0    2.18e+00
2006 12 16  1420    54085   51600      0    5.23e+00    0    2.16e+00
2006 12 16  1425    54085   51900      0    5.12e+00    0    2.06e+00
2006 12 16  1430    54085   52200      0    5.15e+00    0    2.08e+00
2006 12 16  1435    54085   52500      0    5.29e+00    0    2.15e+00
2006 12 16  1440    54085   52800      0    5.17e+00    0    2.10e+00
2006 12 16  1445    54085   53100      0    5.08e+00    0    2.14e+00
2006 12 16  1450    54085   53400      0    5.08e+00    0    2.09e+00
2006 12 16  1455    54085   53700      0    5.15e+00    0    2.13e+00
2006 12 16  1500    54085   54000      0    5.01e+00    0    2.03e+00
2006 12 16  1505    54085   54300      0    5.11e+00    0    2.11e+00
2006 12 16  1510    54085   54600      0    5.08e+00    0    2.11e+00
2006 12 16  1515    54085   54900      0    4.99e+00    0    2.09e+00
2006 12 16  1520    54085   55200      0    5.09e+00    0    2.15e+00
2006 12 16  1525    54085   55500      0    5.06e+00    0    2.04e+00
2006 12 16  1530    54085   55800      0    5.09e+00    0    2.13e+00
2006 12 16  1535    54085   56100      0    5.05e+00    0    2.04e+00
2006 12 16  1540    54085   56400      0    5.13e+00    0    2.10e+00
2006 12 16  1545    54085   56700      0    5.10e+00    0    2.11e+00
2006 12 16  1550    54085   57000      0    5.11e+00    0    2.14e+00
2006 12 16  1555    54085   57300      0    4.99e+00    0    2.06e+00
2006 12 16  1600    54085   57600      0    4.94e+00    0    2.05e+00
2006 12 16  1605    54085   57900      0    4.87e+00    0    2.04e+00
2006 12 16  1610    54085   58200      0    4.80e+00    0    2.03e+00
2006 12 16  1615    54085   58500      0    4.95e+00    0    2.06e+00
2006 12 16  1620    54085   58800      0    4.95e+00    0    2.06e+00
2006 12 16  1625    54085   59100      0    4.86e+00    0    2.03e+00
2006 12 16  1630    54085   59400      0    4.89e+00    0    2.06e+00
2006 12 16  1635    54085   59700      0    4.86e+00    0    2.09e+00
2006 12 16  1640    54085   60000      0    4.71e+00    0    1.96e+00
2006 12 16  1645    54085   60300      0    4.81e+00    0    2.03e+00
2006 12 16  1650    54085   60600      0    4.85e+00    0    2.07e+00
2006 12 16  1655    54085   60900      0    4.77e+00    0    1.99e+00
2006 12 16  1700    54085   61200      0    4.89e+00    0    2.07e+00
2006 12 16  1705    54085   61500      0    4.87e+00    0    2.04e+00
2006 12 16  1710    54085   61800      0    4.89e+00    0    2.06e+00
2006 12 16  1715    54085   62100      0    4.87e+00    0    2.05e+00
2006 12 16  1720    54085   62400      0    4.89e+00    0    2.09e+00
2006 12 16  1725    54085   62700      0    4.83e+00    0    2.13e+00
2006 12 16  1730    54085   63000      0    4.73e+00    0    2.09e+00
2006 12 16  1735    54085   63300      0    4.62e+00    0    2.05e+00
2006 12 16  1740    54085   63600      0    4.74e+00    0    2.11e+00
2006 12 16  1745    54085   63900      0    4.73e+00    0    2.07e+00
2006 12 16  1750    54085   64200      0    4.68e+00    0    2.06e+00
2006 12 16  1755    54085   64500      0    4.69e+00    0    2.04e+00
2006 12 16  1800    54085   64800      0    4.76e+00    0    2.06e+00
2006 12 16  1805    54085   65100      0    4.79e+00    0    2.12e+00
2006 12 16  1810    54085   65400      0    4.82e+00    0    2.13e+00
2006 12 16  1815    54085   65700      0    4.66e+00    0    2.04e+00
2006 12 16  1820    54085   66000      0    4.67e+00    0    2.03e+00
2006 12 16  1825    54085   66300      0    4.59e+00    0    2.01e+00
2006 12 16  1830    54085   66600      0    4.58e+00    0    2.03e+00
2006 12 16  1835    54085   66900      0    4.45e+00    0    1.98e+00
2006 12 16  1840    54085   67200      0    4.40e+00    0    1.98e+00
2006 12 16  1845    54085   67500      0    4.33e+00    0    1.96e+00
2006 12 16  1850    54085   67800      0    4.30e+00    0    1.97e+00
2006 12 16  1855    54085   68100      0    4.20e+00    0    1.94e+00
2006 12 16  1900    54085   68400      0    4.18e+00    0    1.95e+00
2006 12 16  1905    54085   68700      0    4.21e+00    0    1.98e+00
2006 12 16  1910    54085   69000      0    4.17e+00    0    1.95e+00
2006 12 16  1915    54085   69300      0    4.13e+00    0    1.95e+00
2006 12 16  1920    54085   69600      0    4.05e+00    0    1.97e+00
2006 12 16  1925    54085   69900      0    4.03e+00    0    1.94e+00
2006 12 16  1930    54085   70200      0    4.01e+00    0    1.91e+00
2006 12 16  1935    54085   70500      0    4.01e+00    0    1.94e+00
2006 12 16  1940    54085   70800      0    4.09e+00    0    1.94e+00
2006 12 16  1945    54085   71100      0    3.91e+00    0    1.86e+00
2006 12 16  1950    54085   71400      0    3.98e+00    0    1.90e+00
2006 12 16  1955    54085   71700      0    3.96e+00    0    1.90e+00
2006 12 16  2000    54085   72000      0    3.99e+00    0    1.92e+00
2006 12 16  2005    54085   72300      0    3.83e+00    0    1.81e+00
2006 12 16  2010    54085   72600      0    3.73e+00    0    1.78e+00
2006 12 16  2015    54085   72900      0    3.67e+00    0    1.81e+00
2006 12 16  2020    54085   73200      0    3.64e+00    0    1.81e+00
2006 12 16  2025    54085   73500      0    3.52e+00    0    1.78e+00
2006 12 16  2030    54085   73800      0    3.50e+00    0    1.78e+00
2006 12 16  2035    54085   74100      0    3.57e+00    0    1.83e+00
2006 12 16  2040    54085   74400      0    3.51e+00    0    1.79e+00
2006 12 16  2045    54085   74700      0    3.57e+00    0    1.80e+00
2006 12 16  2050    54085   75000      0    3.77e+00    0    1.86e+00
2006 12 16  2055    54085   75300      0    3.76e+00    0    1.83e+00
2006 12 16  2100    54085   75600      0    3.67e+00    0    1.84e+00
2006 12 16  2105    54085   75900      0    3.67e+00    0    1.82e+00
2006 12 16  2110    54085   76200      0    3.73e+00    0    1.85e+00
2006 12 16  2115    54085   76500      0    3.63e+00    0    1.84e+00
2006 12 16  2120    54085   76800      0    3.65e+00    0    1.80e+00
2006 12 16  2125    54085   77100      0    3.70e+00    0    1.82e+00
2006 12 16  2130    54085   77400      0    3.74e+00    0    1.83e+00
2006 12 16  2135    54085   77700      0    3.69e+00    0    1.83e+00
2006 12 16  2140    54085   78000      0    3.70e+00    0    1.81e+00
2006 12 16  2145    54085   78300      0    3.66e+00    0    1.82e+00
2006 12 16  2150    54085   78600      0    3.61e+00    0    1.78e+00
2006 12 16  2155    54085   78900      0    3.76e+00    0    1.89e+00
2006 12 16  2200    54085   79200      0    3.74e+00    0    1.88e+00
2006 12 16  2205    54085   79500      0    3.70e+00    0    1.86e+00
2006 12 16  2210    54085   79800      0    3.69e+00    0    1.82e+00
2006 12 16  2215    54085   80100      0    3.60e+00    0    1.77e+00
2006 12 16  2220    54085   80400      0    3.72e+00    0    1.89e+00
2006 12 16  2225    54085   80700      0    3.67e+00    0    1.87e+00
2006 12 16  2230    54085   81000      0    3.66e+00    0    1.83e+00
2006 12 16  2235    54085   81300      0    3.62e+00    0    1.83e+00
2006 12 16  2240    54085   81600      0    3.67e+00    0    1.87e+00
2006 12 16  2245    54085   81900      0    3.64e+00    0    1.83e+00
2006 12 16  2250    54085   82200      0    3.58e+00    0    1.79e+00
2006 12 16  2255    54085   82500      0    3.51e+00    0    1.76e+00
2006 12 16  2300    54085   82800      0    3.47e+00    0    1.76e+00
2006 12 16  2305    54085   83100      0    3.55e+00    0    1.80e+00
2006 12 16  2310    54085   83400      0    3.60e+00    0    1.81e+00
2006 12 16  2315    54085   83700      0    3.38e+00    0    1.69e+00
2006 12 16  2320    54085   84000      0    3.56e+00    0    1.78e+00
2006 12 16  2325    54085   84300      0    3.48e+00    0    1.73e+00
2006 12 16  2330    54085   84600      0    3.44e+00    0    1.73e+00
2006 12 16  2335    54085   84900      0    3.51e+00    0    1.78e+00
2006 12 16  2340    54085   85200      0    3.61e+00    0    1.82e+00
2006 12 16  2345    54085   85500      0    3.56e+00    0    1.80e+00
2006 12 16  2350    54085   85800      0    3.54e+00    0    1.80e+00
2006 12 16  2355    54085   86100      0    3.54e+00    0    1.78e+00
