:Data_list: 20060831_ace_sis_5m.txt
:Created: 2006 Sep 01 0011 UT
# Prepared by the U.S. Dept. of Commerce, NOAA, Space Environment Center.
# Please send comments and suggestions to SEC.Webmaster@noaa.gov 
# 
# Units: proton flux p/cs2-sec-ster
# Status(S): 0 = nominal data, 1 to 8 = bad data record, 9 = no data
# Missing data values: -1.00e+05
# Source: ACE Satellite - Solar Isotope Spectrometer
#
# 5-minute averaged Real-time Integral Flux of High-energy Solar Protons
# 
#                 Modified Seconds
# UT Date   Time   Julian  of the      ---- Integral Proton Flux ----
# YR MO DA  HHMM     Day     Day       S    > 10 MeV    S    > 30 MeV
#--------------------------------------------------------------------
2006 08 31  0000    53978       0      0    1.57e+00    0    1.09e+00
2006 08 31  0005    53978     300      0    1.56e+00    0    1.09e+00
2006 08 31  0010    53978     600      0    1.59e+00    0    1.13e+00
2006 08 31  0015    53978     900      0    1.58e+00    0    1.11e+00
2006 08 31  0020    53978    1200      0    1.58e+00    0    1.11e+00
2006 08 31  0025    53978    1500      0    1.56e+00    0    1.09e+00
2006 08 31  0030    53978    1800      0    1.56e+00    0    1.09e+00
2006 08 31  0035    53978    2100      0    1.56e+00    0    1.09e+00
2006 08 31  0040    53978    2400      0    1.53e+00    0    1.07e+00
2006 08 31  0045    53978    2700      0    1.59e+00    0    1.11e+00
2006 08 31  0050    53978    3000      0    1.56e+00    0    1.10e+00
2006 08 31  0055    53978    3300      0    1.57e+00    0    1.11e+00
2006 08 31  0100    53978    3600      0    1.57e+00    0    1.11e+00
2006 08 31  0105    53978    3900      0    1.55e+00    0    1.09e+00
2006 08 31  0110    53978    4200      0    1.55e+00    0    1.09e+00
2006 08 31  0115    53978    4500      0    1.59e+00    0    1.12e+00
2006 08 31  0120    53978    4800      0    1.59e+00    0    1.13e+00
2006 08 31  0125    53978    5100      0    1.56e+00    0    1.08e+00
2006 08 31  0130    53978    5400      0    1.54e+00    0    1.09e+00
2006 08 31  0135    53978    5700      0    1.54e+00    0    1.07e+00
2006 08 31  0140    53978    6000      0    1.55e+00    0    1.09e+00
2006 08 31  0145    53978    6300      0    1.58e+00    0    1.11e+00
2006 08 31  0150    53978    6600      0    1.56e+00    0    1.10e+00
2006 08 31  0155    53978    6900      0    1.56e+00    0    1.10e+00
2006 08 31  0200    53978    7200      0    1.62e+00    0    1.14e+00
2006 08 31  0205    53978    7500      0    1.57e+00    0    1.11e+00
2006 08 31  0210    53978    7800      0    1.58e+00    0    1.12e+00
2006 08 31  0215    53978    8100      0    1.61e+00    0    1.13e+00
2006 08 31  0220    53978    8400      0    1.57e+00    0    1.09e+00
2006 08 31  0225    53978    8700      0    1.58e+00    0    1.11e+00
2006 08 31  0230    53978    9000      0    1.56e+00    0    1.10e+00
2006 08 31  0235    53978    9300      0    1.56e+00    0    1.10e+00
2006 08 31  0240    53978    9600      0    1.57e+00    0    1.11e+00
2006 08 31  0245    53978    9900      0    1.56e+00    0    1.09e+00
2006 08 31  0250    53978   10200      0    1.58e+00    0    1.11e+00
2006 08 31  0255    53978   10500      0    1.58e+00    0    1.12e+00
2006 08 31  0300    53978   10800      0    1.56e+00    0    1.08e+00
2006 08 31  0305    53978   11100      0    1.58e+00    0    1.11e+00
2006 08 31  0310    53978   11400      0    1.61e+00    0    1.13e+00
2006 08 31  0315    53978   11700      0    1.60e+00    0    1.13e+00
2006 08 31  0320    53978   12000      0    1.57e+00    0    1.10e+00
2006 08 31  0325    53978   12300      0    1.58e+00    0    1.11e+00
2006 08 31  0330    53978   12600      0    1.60e+00    0    1.12e+00
2006 08 31  0335    53978   12900      0    1.60e+00    0    1.13e+00
2006 08 31  0340    53978   13200      0    1.60e+00    0    1.13e+00
2006 08 31  0345    53978   13500      0    1.60e+00    0    1.13e+00
2006 08 31  0350    53978   13800      0    1.56e+00    0    1.10e+00
2006 08 31  0355    53978   14100      0    1.59e+00    0    1.12e+00
2006 08 31  0400    53978   14400      0    1.60e+00    0    1.12e+00
2006 08 31  0405    53978   14700      0    1.59e+00    0    1.11e+00
2006 08 31  0410    53978   15000      0    1.57e+00    0    1.09e+00
2006 08 31  0415    53978   15300      0    1.58e+00    0    1.10e+00
2006 08 31  0420    53978   15600      0    1.60e+00    0    1.12e+00
2006 08 31  0425    53978   15900      0    1.56e+00    0    1.09e+00
2006 08 31  0430    53978   16200      0    1.55e+00    0    1.09e+00
2006 08 31  0435    53978   16500      0    1.53e+00    0    1.07e+00
2006 08 31  0440    53978   16800      0    1.55e+00    0    1.09e+00
2006 08 31  0445    53978   17100      0    1.57e+00    0    1.10e+00
2006 08 31  0450    53978   17400      0    1.55e+00    0    1.09e+00
2006 08 31  0455    53978   17700      0    1.55e+00    0    1.08e+00
2006 08 31  0500    53978   18000      0    1.52e+00    0    1.05e+00
2006 08 31  0505    53978   18300      0    1.59e+00    0    1.12e+00
2006 08 31  0510    53978   18600      0    1.54e+00    0    1.08e+00
2006 08 31  0515    53978   18900      0    1.57e+00    0    1.11e+00
2006 08 31  0520    53978   19200      0    1.55e+00    0    1.09e+00
2006 08 31  0525    53978   19500      0    1.57e+00    0    1.10e+00
2006 08 31  0530    53978   19800      0    1.53e+00    0    1.07e+00
2006 08 31  0535    53978   20100      0    1.58e+00    0    1.11e+00
2006 08 31  0540    53978   20400      0    1.56e+00    0    1.09e+00
2006 08 31  0545    53978   20700      0    1.45e+00    0    1.01e+00
2006 08 31  0550    53978   21000      0    1.57e+00    0    1.10e+00
2006 08 31  0555    53978   21300      0    1.60e+00    0    1.13e+00
2006 08 31  0600    53978   21600      0    1.57e+00    0    1.10e+00
2006 08 31  0605    53978   21900      0    1.56e+00    0    1.10e+00
2006 08 31  0610    53978   22200      0    1.56e+00    0    1.10e+00
2006 08 31  0615    53978   22500      0    1.56e+00    0    1.08e+00
2006 08 31  0620    53978   22800      0    1.56e+00    0    1.09e+00
2006 08 31  0625    53978   23100      0    1.70e+00    0    1.23e+00
2006 08 31  0630    53978   23400      0    1.55e+00    0    1.09e+00
2006 08 31  0635    53978   23700      0    1.58e+00    0    1.10e+00
2006 08 31  0640    53978   24000      0    1.59e+00    0    1.11e+00
2006 08 31  0645    53978   24300      0    1.56e+00    0    1.08e+00
2006 08 31  0650    53978   24600      0    1.58e+00    0    1.10e+00
2006 08 31  0655    53978   24900      0    1.57e+00    0    1.11e+00
2006 08 31  0700    53978   25200      0    1.56e+00    0    1.10e+00
2006 08 31  0705    53978   25500      0    1.61e+00    0    1.13e+00
2006 08 31  0710    53978   25800      0    1.58e+00    0    1.10e+00
2006 08 31  0715    53978   26100      0    1.59e+00    0    1.12e+00
2006 08 31  0720    53978   26400      0    1.55e+00    0    1.09e+00
2006 08 31  0725    53978   26700      0    1.54e+00    0    1.08e+00
2006 08 31  0730    53978   27000      0    1.53e+00    0    1.07e+00
2006 08 31  0735    53978   27300      0    1.58e+00    0    1.12e+00
2006 08 31  0740    53978   27600      0    1.55e+00    0    1.08e+00
2006 08 31  0745    53978   27900      0    1.56e+00    0    1.09e+00
2006 08 31  0750    53978   28200      0    1.55e+00    0    1.09e+00
2006 08 31  0755    53978   28500      0    1.59e+00    0    1.11e+00
2006 08 31  0800    53978   28800      0    1.55e+00    0    1.09e+00
2006 08 31  0805    53978   29100      0    1.59e+00    0    1.12e+00
2006 08 31  0810    53978   29400      0    1.56e+00    0    1.09e+00
2006 08 31  0815    53978   29700      0    1.52e+00    0    1.06e+00
2006 08 31  0820    53978   30000      0    1.54e+00    0    1.07e+00
2006 08 31  0825    53978   30300      0    1.56e+00    0    1.09e+00
2006 08 31  0830    53978   30600      0    1.56e+00    0    1.07e+00
2006 08 31  0835    53978   30900      0    1.59e+00    0    1.12e+00
2006 08 31  0840    53978   31200      0    1.59e+00    0    1.12e+00
2006 08 31  0845    53978   31500      0    1.56e+00    0    1.10e+00
2006 08 31  0850    53978   31800      0    1.58e+00    0    1.11e+00
2006 08 31  0855    53978   32100      0    1.55e+00    0    1.08e+00
2006 08 31  0900    53978   32400      0    1.56e+00    0    1.09e+00
2006 08 31  0905    53978   32700      0    1.56e+00    0    1.10e+00
2006 08 31  0910    53978   33000      0    1.56e+00    0    1.10e+00
2006 08 31  0915    53978   33300      0    1.56e+00    0    1.10e+00
2006 08 31  0920    53978   33600      0    1.57e+00    0    1.09e+00
2006 08 31  0925    53978   33900      0    1.57e+00    0    1.10e+00
2006 08 31  0930    53978   34200      0    1.52e+00    0    1.06e+00
2006 08 31  0935    53978   34500      0    1.57e+00    0    1.09e+00
2006 08 31  0940    53978   34800      0    1.52e+00    0    1.07e+00
2006 08 31  0945    53978   35100      0    1.54e+00    0    1.08e+00
2006 08 31  0950    53978   35400      0    1.59e+00    0    1.09e+00
2006 08 31  0955    53978   35700      0    1.56e+00    0    1.09e+00
2006 08 31  1000    53978   36000      0    1.54e+00    0    1.08e+00
2006 08 31  1005    53978   36300      0    1.55e+00    0    1.10e+00
2006 08 31  1010    53978   36600      0    1.57e+00    0    1.11e+00
2006 08 31  1015    53978   36900      0    1.52e+00    0    1.06e+00
2006 08 31  1020    53978   37200      0    1.60e+00    0    1.11e+00
2006 08 31  1025    53978   37500      0    1.57e+00    0    1.09e+00
2006 08 31  1030    53978   37800      0    1.56e+00    0    1.09e+00
2006 08 31  1035    53978   38100      0    1.63e+00    0    1.15e+00
2006 08 31  1040    53978   38400      0    1.56e+00    0    1.10e+00
2006 08 31  1045    53978   38700      0    1.59e+00    0    1.09e+00
2006 08 31  1050    53978   39000      0    1.59e+00    0    1.12e+00
2006 08 31  1055    53978   39300      0    1.60e+00    0    1.12e+00
2006 08 31  1100    53978   39600      0    1.54e+00    0    1.08e+00
2006 08 31  1105    53978   39900      0    1.55e+00    0    1.09e+00
2006 08 31  1110    53978   40200      0    1.53e+00    0    1.06e+00
2006 08 31  1115    53978   40500      0    1.53e+00    0    1.07e+00
2006 08 31  1120    53978   40800      0    1.58e+00    0    1.12e+00
2006 08 31  1125    53978   41100      0    1.56e+00    0    1.10e+00
2006 08 31  1130    53978   41400      0    1.60e+00    0    1.13e+00
2006 08 31  1135    53978   41700      0    1.59e+00    0    1.11e+00
2006 08 31  1140    53978   42000      0    1.51e+00    0    1.05e+00
2006 08 31  1145    53978   42300      0    1.59e+00    0    1.12e+00
2006 08 31  1150    53978   42600      0    1.58e+00    0    1.10e+00
2006 08 31  1155    53978   42900      0    1.60e+00    0    1.13e+00
2006 08 31  1200    53978   43200      0    1.60e+00    0    1.12e+00
2006 08 31  1205    53978   43500      0    1.58e+00    0    1.12e+00
2006 08 31  1210    53978   43800      0    1.60e+00    0    1.12e+00
2006 08 31  1215    53978   44100      0    1.56e+00    0    1.10e+00
2006 08 31  1220    53978   44400      0    1.57e+00    0    1.11e+00
2006 08 31  1225    53978   44700      0    1.56e+00    0    1.09e+00
2006 08 31  1230    53978   45000      0    1.59e+00    0    1.11e+00
2006 08 31  1235    53978   45300      0    1.61e+00    0    1.12e+00
2006 08 31  1240    53978   45600      0    1.59e+00    0    1.12e+00
2006 08 31  1245    53978   45900      0    1.57e+00    0    1.11e+00
2006 08 31  1250    53978   46200      0    1.60e+00    0    1.11e+00
2006 08 31  1255    53978   46500      0    1.60e+00    0    1.14e+00
2006 08 31  1300    53978   46800      0    1.62e+00    0    1.14e+00
2006 08 31  1305    53978   47100      0    1.63e+00    0    1.14e+00
2006 08 31  1310    53978   47400      0    1.58e+00    0    1.10e+00
2006 08 31  1315    53978   47700      0    1.59e+00    0    1.12e+00
2006 08 31  1320    53978   48000      0    1.58e+00    0    1.11e+00
2006 08 31  1325    53978   48300      0    1.58e+00    0    1.09e+00
2006 08 31  1330    53978   48600      0    1.59e+00    0    1.10e+00
2006 08 31  1335    53978   48900      0    1.56e+00    0    1.09e+00
2006 08 31  1340    53978   49200      0    1.57e+00    0    1.09e+00
2006 08 31  1345    53978   49500      0    1.58e+00    0    1.11e+00
2006 08 31  1350    53978   49800      0    1.59e+00    0    1.11e+00
2006 08 31  1355    53978   50100      0    1.55e+00    0    1.08e+00
2006 08 31  1400    53978   50400      0    1.58e+00    0    1.10e+00
2006 08 31  1405    53978   50700      0    1.58e+00    0    1.11e+00
2006 08 31  1410    53978   51000      0    1.60e+00    0    1.11e+00
2006 08 31  1415    53978   51300      0    1.58e+00    0    1.11e+00
2006 08 31  1420    53978   51600      0    1.70e+00    0    1.22e+00
2006 08 31  1425    53978   51900      0    1.59e+00    0    1.12e+00
2006 08 31  1430    53978   52200      0    1.61e+00    0    1.11e+00
2006 08 31  1435    53978   52500      0    1.64e+00    0    1.15e+00
2006 08 31  1440    53978   52800      0    1.61e+00    0    1.12e+00
2006 08 31  1445    53978   53100      0    1.61e+00    0    1.12e+00
2006 08 31  1450    53978   53400      0    1.62e+00    0    1.14e+00
2006 08 31  1455    53978   53700      0    1.63e+00    0    1.15e+00
2006 08 31  1500    53978   54000      0    1.59e+00    0    1.12e+00
2006 08 31  1505    53978   54300      0    1.63e+00    0    1.15e+00
2006 08 31  1510    53978   54600      0    1.27e+00    0    8.74e-01
2006 08 31  1515    53978   54900      0    1.60e+00    0    1.12e+00
2006 08 31  1520    53978   55200      0    1.56e+00    0    1.09e+00
2006 08 31  1525    53978   55500      0    1.60e+00    0    1.13e+00
2006 08 31  1530    53978   55800      0    1.62e+00    0    1.14e+00
2006 08 31  1535    53978   56100      0    1.60e+00    0    1.12e+00
2006 08 31  1540    53978   56400      0    1.60e+00    0    1.13e+00
2006 08 31  1545    53978   56700      0    1.60e+00    0    1.12e+00
2006 08 31  1550    53978   57000      0    1.57e+00    0    1.10e+00
2006 08 31  1555    53978   57300      0    1.67e+00    0    1.17e+00
2006 08 31  1600    53978   57600      0    1.59e+00    0    1.11e+00
2006 08 31  1605    53978   57900      0    1.59e+00    0    1.12e+00
2006 08 31  1610    53978   58200      0    1.59e+00    0    1.11e+00
2006 08 31  1615    53978   58500      0    1.60e+00    0    1.12e+00
2006 08 31  1620    53978   58800      0    1.60e+00    0    1.12e+00
2006 08 31  1625    53978   59100      0    1.61e+00    0    1.14e+00
2006 08 31  1630    53978   59400      0    1.62e+00    0    1.14e+00
2006 08 31  1635    53978   59700      0    1.59e+00    0    1.12e+00
2006 08 31  1640    53978   60000      0    1.60e+00    0    1.12e+00
2006 08 31  1645    53978   60300      0    1.61e+00    0    1.13e+00
2006 08 31  1650    53978   60600      0    1.58e+00    0    1.12e+00
2006 08 31  1655    53978   60900      0    1.63e+00    0    1.15e+00
2006 08 31  1700    53978   61200      0    1.61e+00    0    1.14e+00
2006 08 31  1705    53978   61500      0    1.66e+00    0    1.15e+00
2006 08 31  1710    53978   61800      0    1.61e+00    0    1.14e+00
2006 08 31  1715    53978   62100      0    1.63e+00    0    1.15e+00
2006 08 31  1720    53978   62400      0    1.65e+00    0    1.15e+00
2006 08 31  1725    53978   62700      0    1.61e+00    0    1.12e+00
2006 08 31  1730    53978   63000      0    1.57e+00    0    1.10e+00
2006 08 31  1735    53978   63300      0    1.59e+00    0    1.11e+00
2006 08 31  1740    53978   63600      0    1.60e+00    0    1.12e+00
2006 08 31  1745    53978   63900      0    1.62e+00    0    1.14e+00
2006 08 31  1750    53978   64200      0    1.59e+00    0    1.12e+00
2006 08 31  1755    53978   64500      0    1.62e+00    0    1.14e+00
2006 08 31  1800    53978   64800      0    1.63e+00    0    1.13e+00
2006 08 31  1805    53978   65100      0    1.58e+00    0    1.12e+00
2006 08 31  1810    53978   65400      0    1.61e+00    0    1.13e+00
2006 08 31  1815    53978   65700      0    1.64e+00    0    1.15e+00
2006 08 31  1820    53978   66000      0    1.61e+00    0    1.12e+00
2006 08 31  1825    53978   66300      0    1.60e+00    0    1.11e+00
2006 08 31  1830    53978   66600      0    1.64e+00    0    1.14e+00
2006 08 31  1835    53978   66900      0    1.61e+00    0    1.13e+00
2006 08 31  1840    53978   67200      0    1.60e+00    0    1.13e+00
2006 08 31  1845    53978   67500      0    1.61e+00    0    1.13e+00
2006 08 31  1850    53978   67800      0    1.61e+00    0    1.12e+00
2006 08 31  1855    53978   68100      0    1.59e+00    0    1.12e+00
2006 08 31  1900    53978   68400      0    1.63e+00    0    1.13e+00
2006 08 31  1905    53978   68700      0    1.63e+00    0    1.13e+00
2006 08 31  1910    53978   69000      0    1.65e+00    0    1.16e+00
2006 08 31  1915    53978   69300      0    1.64e+00    0    1.16e+00
2006 08 31  1920    53978   69600      0    1.64e+00    0    1.15e+00
2006 08 31  1925    53978   69900      0    1.62e+00    0    1.13e+00
2006 08 31  1930    53978   70200      0    1.60e+00    0    1.11e+00
2006 08 31  1935    53978   70500      0    1.63e+00    0    1.14e+00
2006 08 31  1940    53978   70800      0    1.64e+00    0    1.14e+00
2006 08 31  1945    53978   71100      0    1.67e+00    0    1.17e+00
2006 08 31  1950    53978   71400      0    1.64e+00    0    1.15e+00
2006 08 31  1955    53978   71700      0    1.57e+00    0    1.10e+00
2006 08 31  2000    53978   72000      0    1.61e+00    0    1.12e+00
2006 08 31  2005    53978   72300      0    1.64e+00    0    1.15e+00
2006 08 31  2010    53978   72600      0    1.62e+00    0    1.13e+00
2006 08 31  2015    53978   72900      0    1.62e+00    0    1.13e+00
2006 08 31  2020    53978   73200      0    1.62e+00    0    1.12e+00
2006 08 31  2025    53978   73500      0    1.62e+00    0    1.13e+00
2006 08 31  2030    53978   73800      0    1.60e+00    0    1.13e+00
2006 08 31  2035    53978   74100      0    1.68e+00    0    1.18e+00
2006 08 31  2040    53978   74400      0    1.65e+00    0    1.14e+00
2006 08 31  2045    53978   74700      0    1.60e+00    0    1.13e+00
2006 08 31  2050    53978   75000      0    1.61e+00    0    1.13e+00
2006 08 31  2055    53978   75300      0    1.62e+00    0    1.12e+00
2006 08 31  2100    53978   75600      0    1.67e+00    0    1.15e+00
2006 08 31  2105    53978   75900      0    1.60e+00    0    1.12e+00
2006 08 31  2110    53978   76200      0    1.63e+00    0    1.14e+00
2006 08 31  2115    53978   76500      0    1.58e+00    0    1.11e+00
2006 08 31  2120    53978   76800      0    1.60e+00    0    1.13e+00
2006 08 31  2125    53978   77100      0    1.59e+00    0    1.11e+00
2006 08 31  2130    53978   77400      0    1.64e+00    0    1.14e+00
2006 08 31  2135    53978   77700      0    1.63e+00    0    1.16e+00
2006 08 31  2140    53978   78000      0    1.63e+00    0    1.15e+00
2006 08 31  2145    53978   78300      0    1.59e+00    0    1.10e+00
2006 08 31  2150    53978   78600      0    1.65e+00    0    1.16e+00
2006 08 31  2155    53978   78900      0    1.63e+00    0    1.15e+00
2006 08 31  2200    53978   79200      0    1.64e+00    0    1.15e+00
2006 08 31  2205    53978   79500      0    1.66e+00    0    1.18e+00
2006 08 31  2210    53978   79800      0    1.63e+00    0    1.15e+00
2006 08 31  2215    53978   80100      0    1.63e+00    0    1.14e+00
2006 08 31  2220    53978   80400      0    1.58e+00    0    1.10e+00
2006 08 31  2225    53978   80700      0    1.67e+00    0    1.18e+00
2006 08 31  2230    53978   81000      0    1.62e+00    0    1.14e+00
2006 08 31  2235    53978   81300      0    1.62e+00    0    1.13e+00
2006 08 31  2240    53978   81600      0    1.66e+00    0    1.16e+00
2006 08 31  2245    53978   81900      0    1.66e+00    0    1.16e+00
2006 08 31  2250    53978   82200      0    1.62e+00    0    1.13e+00
2006 08 31  2255    53978   82500      0    1.62e+00    0    1.13e+00
2006 08 31  2300    53978   82800      0    1.64e+00    0    1.15e+00
2006 08 31  2305    53978   83100      0    1.61e+00    0    1.14e+00
2006 08 31  2310    53978   83400      0    1.62e+00    0    1.14e+00
2006 08 31  2315    53978   83700      0    1.62e+00    0    1.13e+00
2006 08 31  2320    53978   84000      0    1.63e+00    0    1.14e+00
2006 08 31  2325    53978   84300      0    1.62e+00    0    1.12e+00
2006 08 31  2330    53978   84600      0    1.60e+00    0    1.12e+00
2006 08 31  2335    53978   84900      0    1.65e+00    0    1.17e+00
2006 08 31  2340    53978   85200      0    1.66e+00    0    1.15e+00
2006 08 31  2345    53978   85500      0    1.68e+00    0    1.17e+00
2006 08 31  2350    53978   85800      0    1.61e+00    0    1.13e+00
2006 08 31  2355    53978   86100      0    1.63e+00    0    1.14e+00
