:Data_list: 20060526_ace_sis_5m.txt
:Created: 2006 May 27 0011 UT
# Prepared by the U.S. Dept. of Commerce, NOAA, Space Environment Center.
# Please send comments and suggestions to SEC.Webmaster@noaa.gov 
# 
# Units: proton flux p/cs2-sec-ster
# Status(S): 0 = nominal data, 1 to 8 = bad data record, 9 = no data
# Missing data values: -1.00e+05
# Source: ACE Satellite - Solar Isotope Spectrometer
#
# 5-minute averaged Real-time Integral Flux of High-energy Solar Protons
# 
#                 Modified Seconds
# UT Date   Time   Julian  of the      ---- Integral Proton Flux ----
# YR MO DA  HHMM     Day     Day       S    > 10 MeV    S    > 30 MeV
#--------------------------------------------------------------------
2006 05 26  0000    53881       0      0    1.64e+00    0    1.15e+00
2006 05 26  0005    53881     300      0    1.64e+00    0    1.14e+00
2006 05 26  0010    53881     600      0    1.64e+00    0    1.15e+00
2006 05 26  0015    53881     900      0    1.68e+00    0    1.17e+00
2006 05 26  0020    53881    1200      0    1.62e+00    0    1.13e+00
2006 05 26  0025    53881    1500      0    1.64e+00    0    1.15e+00
2006 05 26  0030    53881    1800      0    1.63e+00    0    1.15e+00
2006 05 26  0035    53881    2100      0    1.62e+00    0    1.13e+00
2006 05 26  0040    53881    2400      0    1.65e+00    0    1.17e+00
2006 05 26  0045    53881    2700      0    1.59e+00    0    1.10e+00
2006 05 26  0050    53881    3000      0    1.64e+00    0    1.15e+00
2006 05 26  0055    53881    3300      0    1.64e+00    0    1.16e+00
2006 05 26  0100    53881    3600      0    1.66e+00    0    1.17e+00
2006 05 26  0105    53881    3900      0    1.64e+00    0    1.15e+00
2006 05 26  0110    53881    4200      0    1.64e+00    0    1.14e+00
2006 05 26  0115    53881    4500      0    1.67e+00    0    1.18e+00
2006 05 26  0120    53881    4800      0    1.62e+00    0    1.14e+00
2006 05 26  0125    53881    5100      0    1.65e+00    0    1.17e+00
2006 05 26  0130    53881    5400      0    1.63e+00    0    1.15e+00
2006 05 26  0135    53881    5700      0    1.64e+00    0    1.14e+00
2006 05 26  0140    53881    6000      0    1.63e+00    0    1.14e+00
2006 05 26  0145    53881    6300      0    1.61e+00    0    1.14e+00
2006 05 26  0150    53881    6600      0    1.59e+00    0    1.10e+00
2006 05 26  0155    53881    6900      0    1.65e+00    0    1.15e+00
2006 05 26  0200    53881    7200      0    1.63e+00    0    1.14e+00
2006 05 26  0205    53881    7500      0    1.65e+00    0    1.17e+00
2006 05 26  0210    53881    7800      0    1.62e+00    0    1.14e+00
2006 05 26  0215    53881    8100      0    1.62e+00    0    1.14e+00
2006 05 26  0220    53881    8400      0    1.66e+00    0    1.16e+00
2006 05 26  0225    53881    8700      0    1.58e+00    0    1.09e+00
2006 05 26  0230    53881    9000      0    1.62e+00    0    1.13e+00
2006 05 26  0235    53881    9300      0    1.61e+00    0    1.14e+00
2006 05 26  0240    53881    9600      0    1.63e+00    0    1.15e+00
2006 05 26  0245    53881    9900      0    1.65e+00    0    1.17e+00
2006 05 26  0250    53881   10200      0    1.64e+00    0    1.15e+00
2006 05 26  0255    53881   10500      0    1.61e+00    0    1.13e+00
2006 05 26  0300    53881   10800      0    1.62e+00    0    1.13e+00
2006 05 26  0305    53881   11100      0    1.61e+00    0    1.11e+00
2006 05 26  0310    53881   11400      0    1.59e+00    0    1.12e+00
2006 05 26  0315    53881   11700      0    1.65e+00    0    1.17e+00
2006 05 26  0320    53881   12000      0    1.66e+00    0    1.16e+00
2006 05 26  0325    53881   12300      0    1.62e+00    0    1.14e+00
2006 05 26  0330    53881   12600      0    1.64e+00    0    1.15e+00
2006 05 26  0335    53881   12900      0    1.62e+00    0    1.13e+00
2006 05 26  0340    53881   13200      0    1.64e+00    0    1.15e+00
2006 05 26  0345    53881   13500      0    1.62e+00    0    1.14e+00
2006 05 26  0350    53881   13800      0    1.63e+00    0    1.15e+00
2006 05 26  0355    53881   14100      0    1.62e+00    0    1.13e+00
2006 05 26  0400    53881   14400      0    1.65e+00    0    1.16e+00
2006 05 26  0405    53881   14700      0    1.63e+00    0    1.14e+00
2006 05 26  0410    53881   15000      0    1.65e+00    0    1.16e+00
2006 05 26  0415    53881   15300      0    1.65e+00    0    1.15e+00
2006 05 26  0420    53881   15600      0    1.63e+00    0    1.14e+00
2006 05 26  0425    53881   15900      0    1.62e+00    0    1.14e+00
2006 05 26  0430    53881   16200      0    1.61e+00    0    1.13e+00
2006 05 26  0435    53881   16500      0    1.63e+00    0    1.14e+00
2006 05 26  0440    53881   16800      0    1.64e+00    0    1.15e+00
2006 05 26  0445    53881   17100      0    1.63e+00    0    1.14e+00
2006 05 26  0450    53881   17400      0    1.63e+00    0    1.15e+00
2006 05 26  0455    53881   17700      0    1.64e+00    0    1.14e+00
2006 05 26  0500    53881   18000      0    1.58e+00    0    1.11e+00
2006 05 26  0505    53881   18300      0    1.64e+00    0    1.15e+00
2006 05 26  0510    53881   18600      0    1.60e+00    0    1.12e+00
2006 05 26  0515    53881   18900      0    1.60e+00    0    1.12e+00
2006 05 26  0520    53881   19200      0    1.63e+00    0    1.14e+00
2006 05 26  0525    53881   19500      0    1.62e+00    0    1.14e+00
2006 05 26  0530    53881   19800      0    1.57e+00    0    1.10e+00
2006 05 26  0535    53881   20100      0    1.65e+00    0    1.17e+00
2006 05 26  0540    53881   20400      0    1.65e+00    0    1.16e+00
2006 05 26  0545    53881   20700      0    1.65e+00    0    1.15e+00
2006 05 26  0550    53881   21000      0    1.61e+00    0    1.13e+00
2006 05 26  0555    53881   21300      0    1.65e+00    0    1.16e+00
2006 05 26  0600    53881   21600      0    1.67e+00    0    1.17e+00
2006 05 26  0605    53881   21900      0    1.67e+00    0    1.17e+00
2006 05 26  0610    53881   22200      0    1.62e+00    0    1.13e+00
2006 05 26  0615    53881   22500      0    1.63e+00    0    1.14e+00
2006 05 26  0620    53881   22800      0    1.60e+00    0    1.13e+00
2006 05 26  0625    53881   23100      0    1.68e+00    0    1.18e+00
2006 05 26  0630    53881   23400      0    1.63e+00    0    1.15e+00
2006 05 26  0635    53881   23700      0    1.64e+00    0    1.16e+00
2006 05 26  0640    53881   24000      0    1.65e+00    0    1.16e+00
2006 05 26  0645    53881   24300      0    1.64e+00    0    1.15e+00
2006 05 26  0650    53881   24600      0    1.66e+00    0    1.16e+00
2006 05 26  0655    53881   24900      0    1.64e+00    0    1.15e+00
2006 05 26  0700    53881   25200      0    1.62e+00    0    1.13e+00
2006 05 26  0705    53881   25500      0    1.64e+00    0    1.15e+00
2006 05 26  0710    53881   25800      0    1.65e+00    0    1.15e+00
2006 05 26  0715    53881   26100      0    1.62e+00    0    1.13e+00
2006 05 26  0720    53881   26400      0    1.60e+00    0    1.13e+00
2006 05 26  0725    53881   26700      0    1.64e+00    0    1.15e+00
2006 05 26  0730    53881   27000      0    1.60e+00    0    1.13e+00
2006 05 26  0735    53881   27300      0    1.63e+00    0    1.14e+00
2006 05 26  0740    53881   27600      0    1.64e+00    0    1.16e+00
2006 05 26  0745    53881   27900      0    1.63e+00    0    1.15e+00
2006 05 26  0750    53881   28200      0    1.61e+00    0    1.12e+00
2006 05 26  0755    53881   28500      0    1.64e+00    0    1.14e+00
2006 05 26  0800    53881   28800      0    1.66e+00    0    1.16e+00
2006 05 26  0805    53881   29100      0    1.60e+00    0    1.12e+00
2006 05 26  0810    53881   29400      0    1.65e+00    0    1.15e+00
2006 05 26  0815    53881   29700      0    1.61e+00    0    1.12e+00
2006 05 26  0820    53881   30000      0    1.64e+00    0    1.16e+00
2006 05 26  0825    53881   30300      0    1.65e+00    0    1.14e+00
2006 05 26  0830    53881   30600      0    1.63e+00    0    1.14e+00
2006 05 26  0835    53881   30900      0    1.60e+00    0    1.12e+00
2006 05 26  0840    53881   31200      0    1.64e+00    0    1.14e+00
2006 05 26  0845    53881   31500      0    1.62e+00    0    1.15e+00
2006 05 26  0850    53881   31800      0    1.63e+00    0    1.14e+00
2006 05 26  0855    53881   32100      0    1.67e+00    0    1.18e+00
2006 05 26  0900    53881   32400      0    1.62e+00    0    1.13e+00
2006 05 26  0905    53881   32700      0    1.61e+00    0    1.13e+00
2006 05 26  0910    53881   33000      0    1.61e+00    0    1.11e+00
2006 05 26  0915    53881   33300      0    1.63e+00    0    1.15e+00
2006 05 26  0920    53881   33600      0    1.54e+00    0    1.08e+00
2006 05 26  0925    53881   33900      0    1.63e+00    0    1.15e+00
2006 05 26  0930    53881   34200      0    1.63e+00    0    1.15e+00
2006 05 26  0935    53881   34500      0    1.62e+00    0    1.13e+00
2006 05 26  0940    53881   34800      0    1.62e+00    0    1.14e+00
2006 05 26  0945    53881   35100      0    1.58e+00    0    1.10e+00
2006 05 26  0950    53881   35400      0    1.56e+00    0    1.10e+00
2006 05 26  0955    53881   35700      0    1.68e+00    0    1.17e+00
2006 05 26  1000    53881   36000      0    1.62e+00    0    1.13e+00
2006 05 26  1005    53881   36300      0    1.58e+00    0    1.10e+00
2006 05 26  1010    53881   36600      0    1.66e+00    0    1.17e+00
2006 05 26  1015    53881   36900      0    1.60e+00    0    1.13e+00
2006 05 26  1020    53881   37200      0    1.64e+00    0    1.15e+00
2006 05 26  1025    53881   37500      0    1.64e+00    0    1.15e+00
2006 05 26  1030    53881   37800      0    1.63e+00    0    1.15e+00
2006 05 26  1035    53881   38100      0    1.61e+00    0    1.13e+00
2006 05 26  1040    53881   38400      0    1.67e+00    0    1.18e+00
2006 05 26  1045    53881   38700      0    1.64e+00    0    1.16e+00
2006 05 26  1050    53881   39000      0    1.65e+00    0    1.16e+00
2006 05 26  1055    53881   39300      0    1.68e+00    0    1.17e+00
2006 05 26  1100    53881   39600      0    1.61e+00    0    1.13e+00
2006 05 26  1105    53881   39900      0    1.61e+00    0    1.13e+00
2006 05 26  1110    53881   40200      0    1.57e+00    0    1.10e+00
2006 05 26  1115    53881   40500      0    1.69e+00    0    1.18e+00
2006 05 26  1120    53881   40800      0    1.67e+00    0    1.17e+00
2006 05 26  1125    53881   41100      0    1.67e+00    0    1.19e+00
2006 05 26  1130    53881   41400      0    1.67e+00    0    1.16e+00
2006 05 26  1135    53881   41700      0    1.65e+00    0    1.15e+00
2006 05 26  1140    53881   42000      0    1.65e+00    0    1.16e+00
2006 05 26  1145    53881   42300      0    1.66e+00    0    1.16e+00
2006 05 26  1150    53881   42600      0    1.64e+00    0    1.15e+00
2006 05 26  1155    53881   42900      0    1.63e+00    0    1.15e+00
2006 05 26  1200    53881   43200      0    1.65e+00    0    1.16e+00
2006 05 26  1205    53881   43500      0    1.64e+00    0    1.15e+00
2006 05 26  1210    53881   43800      0    1.63e+00    0    1.14e+00
2006 05 26  1215    53881   44100      0    1.64e+00    0    1.14e+00
2006 05 26  1220    53881   44400      0    1.65e+00    0    1.16e+00
2006 05 26  1225    53881   44700      0    1.65e+00    0    1.15e+00
2006 05 26  1230    53881   45000      0    1.64e+00    0    1.15e+00
2006 05 26  1235    53881   45300      0    1.64e+00    0    1.14e+00
2006 05 26  1240    53881   45600      0    1.65e+00    0    1.15e+00
2006 05 26  1245    53881   45900      0    1.61e+00    0    1.13e+00
2006 05 26  1250    53881   46200      0    1.66e+00    0    1.16e+00
2006 05 26  1255    53881   46500      0    1.60e+00    0    1.12e+00
2006 05 26  1300    53881   46800      0    1.64e+00    0    1.15e+00
2006 05 26  1305    53881   47100      0    1.63e+00    0    1.14e+00
2006 05 26  1310    53881   47400      0    1.62e+00    0    1.14e+00
2006 05 26  1315    53881   47700      0    1.64e+00    0    1.15e+00
2006 05 26  1320    53881   48000      0    1.66e+00    0    1.16e+00
2006 05 26  1325    53881   48300      0    1.65e+00    0    1.16e+00
2006 05 26  1330    53881   48600      0    1.65e+00    0    1.17e+00
2006 05 26  1335    53881   48900      0    1.65e+00    0    1.15e+00
2006 05 26  1340    53881   49200      0    1.61e+00    0    1.13e+00
2006 05 26  1345    53881   49500      0    1.64e+00    0    1.14e+00
2006 05 26  1350    53881   49800      0    1.66e+00    0    1.16e+00
2006 05 26  1355    53881   50100      0    1.64e+00    0    1.13e+00
2006 05 26  1400    53881   50400      0    1.66e+00    0    1.17e+00
2006 05 26  1405    53881   50700      0    1.64e+00    0    1.15e+00
2006 05 26  1410    53881   51000      0    1.64e+00    0    1.16e+00
2006 05 26  1415    53881   51300      0    1.61e+00    0    1.12e+00
2006 05 26  1420    53881   51600      0    1.65e+00    0    1.16e+00
2006 05 26  1425    53881   51900      0    1.64e+00    0    1.15e+00
2006 05 26  1430    53881   52200      0    1.67e+00    0    1.17e+00
2006 05 26  1435    53881   52500      0    1.62e+00    0    1.13e+00
2006 05 26  1440    53881   52800      0    1.65e+00    0    1.17e+00
2006 05 26  1445    53881   53100      0    1.62e+00    0    1.14e+00
2006 05 26  1450    53881   53400      0    1.66e+00    0    1.17e+00
2006 05 26  1455    53881   53700      0    1.63e+00    0    1.14e+00
2006 05 26  1500    53881   54000      0    1.62e+00    0    1.13e+00
2006 05 26  1505    53881   54300      0    1.68e+00    0    1.18e+00
2006 05 26  1510    53881   54600      0    1.63e+00    0    1.16e+00
2006 05 26  1515    53881   54900      0    1.63e+00    0    1.15e+00
2006 05 26  1520    53881   55200      0    1.64e+00    0    1.15e+00
2006 05 26  1525    53881   55500      0    1.62e+00    0    1.14e+00
2006 05 26  1530    53881   55800      0    1.65e+00    0    1.15e+00
2006 05 26  1535    53881   56100      0    1.61e+00    0    1.12e+00
2006 05 26  1540    53881   56400      0    1.70e+00    0    1.19e+00
2006 05 26  1545    53881   56700      0    1.65e+00    0    1.16e+00
2006 05 26  1550    53881   57000      0    1.61e+00    0    1.13e+00
2006 05 26  1555    53881   57300      0    1.60e+00    0    1.13e+00
2006 05 26  1600    53881   57600      0    1.59e+00    0    1.11e+00
2006 05 26  1605    53881   57900      0    1.61e+00    0    1.11e+00
2006 05 26  1610    53881   58200      0    1.59e+00    0    1.11e+00
2006 05 26  1615    53881   58500      0    1.61e+00    0    1.13e+00
2006 05 26  1620    53881   58800      0    1.62e+00    0    1.13e+00
2006 05 26  1625    53881   59100      0    1.63e+00    0    1.14e+00
2006 05 26  1630    53881   59400      0    1.63e+00    0    1.14e+00
2006 05 26  1635    53881   59700      0    1.60e+00    0    1.12e+00
2006 05 26  1640    53881   60000      0    1.60e+00    0    1.13e+00
2006 05 26  1645    53881   60300      0    1.63e+00    0    1.14e+00
2006 05 26  1650    53881   60600      0    1.62e+00    0    1.13e+00
2006 05 26  1655    53881   60900      0    1.63e+00    0    1.15e+00
2006 05 26  1700    53881   61200      0    1.61e+00    0    1.13e+00
2006 05 26  1705    53881   61500      0    1.62e+00    0    1.14e+00
2006 05 26  1710    53881   61800      0    1.61e+00    0    1.13e+00
2006 05 26  1715    53881   62100      0    1.63e+00    0    1.16e+00
2006 05 26  1720    53881   62400      0    1.65e+00    0    1.15e+00
2006 05 26  1725    53881   62700      0    1.65e+00    0    1.15e+00
2006 05 26  1730    53881   63000      0    1.63e+00    0    1.14e+00
2006 05 26  1735    53881   63300      0    1.60e+00    0    1.13e+00
2006 05 26  1740    53881   63600      0    1.60e+00    0    1.13e+00
2006 05 26  1745    53881   63900      0    1.61e+00    0    1.14e+00
2006 05 26  1750    53881   64200      0    1.64e+00    0    1.14e+00
2006 05 26  1755    53881   64500      0    1.64e+00    0    1.14e+00
2006 05 26  1800    53881   64800      0    1.60e+00    0    1.13e+00
2006 05 26  1805    53881   65100      0    1.64e+00    0    1.16e+00
2006 05 26  1810    53881   65400      0    1.58e+00    0    1.09e+00
2006 05 26  1815    53881   65700      0    1.61e+00    0    1.11e+00
2006 05 26  1820    53881   66000      0    1.60e+00    0    1.12e+00
2006 05 26  1825    53881   66300      0    1.62e+00    0    1.14e+00
2006 05 26  1830    53881   66600      0    1.59e+00    0    1.11e+00
2006 05 26  1835    53881   66900      0    1.62e+00    0    1.14e+00
2006 05 26  1840    53881   67200      0    1.60e+00    0    1.12e+00
2006 05 26  1845    53881   67500      0    1.63e+00    0    1.13e+00
2006 05 26  1850    53881   67800      0    1.57e+00    0    1.10e+00
2006 05 26  1855    53881   68100      0    1.61e+00    0    1.13e+00
2006 05 26  1900    53881   68400      0    1.59e+00    0    1.11e+00
2006 05 26  1905    53881   68700      0    1.59e+00    0    1.12e+00
2006 05 26  1910    53881   69000      0    1.64e+00    0    1.14e+00
2006 05 26  1915    53881   69300      0    1.64e+00    0    1.15e+00
2006 05 26  1920    53881   69600      0    1.64e+00    0    1.14e+00
2006 05 26  1925    53881   69900      0    1.64e+00    0    1.14e+00
2006 05 26  1930    53881   70200      0    1.64e+00    0    1.15e+00
2006 05 26  1935    53881   70500      0    1.62e+00    0    1.13e+00
2006 05 26  1940    53881   70800      0    1.61e+00    0    1.12e+00
2006 05 26  1945    53881   71100      0    1.63e+00    0    1.14e+00
2006 05 26  1950    53881   71400      0    1.59e+00    0    1.11e+00
2006 05 26  1955    53881   71700      0    1.63e+00    0    1.14e+00
2006 05 26  2000    53881   72000      0    1.64e+00    0    1.15e+00
2006 05 26  2005    53881   72300      0    1.64e+00    0    1.14e+00
2006 05 26  2010    53881   72600      0    1.60e+00    0    1.12e+00
2006 05 26  2015    53881   72900      0    1.62e+00    0    1.13e+00
2006 05 26  2020    53881   73200      0    1.60e+00    0    1.12e+00
2006 05 26  2025    53881   73500      0    1.61e+00    0    1.12e+00
2006 05 26  2030    53881   73800      0    1.62e+00    0    1.14e+00
2006 05 26  2035    53881   74100      0    1.64e+00    0    1.14e+00
2006 05 26  2040    53881   74400      0    1.60e+00    0    1.13e+00
2006 05 26  2045    53881   74700      0    1.59e+00    0    1.12e+00
2006 05 26  2050    53881   75000      0    1.64e+00    0    1.15e+00
2006 05 26  2055    53881   75300      0    1.62e+00    0    1.13e+00
2006 05 26  2100    53881   75600      0    1.63e+00    0    1.15e+00
2006 05 26  2105    53881   75900      0    1.66e+00    0    1.17e+00
2006 05 26  2110    53881   76200      0    1.63e+00    0    1.14e+00
2006 05 26  2115    53881   76500      0    1.63e+00    0    1.14e+00
2006 05 26  2120    53881   76800      0    1.65e+00    0    1.15e+00
2006 05 26  2125    53881   77100      0    1.65e+00    0    1.17e+00
2006 05 26  2130    53881   77400      0    1.65e+00    0    1.15e+00
2006 05 26  2135    53881   77700      0    1.66e+00    0    1.17e+00
2006 05 26  2140    53881   78000      0    1.61e+00    0    1.13e+00
2006 05 26  2145    53881   78300      0    1.64e+00    0    1.14e+00
2006 05 26  2150    53881   78600      0    1.66e+00    0    1.15e+00
2006 05 26  2155    53881   78900      0    1.64e+00    0    1.14e+00
2006 05 26  2200    53881   79200      0    1.61e+00    0    1.12e+00
2006 05 26  2205    53881   79500      0    1.65e+00    0    1.16e+00
2006 05 26  2210    53881   79800      0    1.64e+00    0    1.15e+00
2006 05 26  2215    53881   80100      0    1.67e+00    0    1.15e+00
2006 05 26  2220    53881   80400      0    1.66e+00    0    1.16e+00
2006 05 26  2225    53881   80700      0    1.63e+00    0    1.14e+00
2006 05 26  2230    53881   81000      0    1.64e+00    0    1.13e+00
2006 05 26  2235    53881   81300      0    1.62e+00    0    1.13e+00
2006 05 26  2240    53881   81600      0    1.62e+00    0    1.13e+00
2006 05 26  2245    53881   81900      0    1.64e+00    0    1.15e+00
2006 05 26  2250    53881   82200      0    1.65e+00    0    1.17e+00
2006 05 26  2255    53881   82500      0    1.66e+00    0    1.16e+00
2006 05 26  2300    53881   82800      0    1.65e+00    0    1.16e+00
2006 05 26  2305    53881   83100      0    1.68e+00    0    1.17e+00
2006 05 26  2310    53881   83400      0    1.66e+00    0    1.17e+00
2006 05 26  2315    53881   83700      0    1.63e+00    0    1.14e+00
2006 05 26  2320    53881   84000      0    1.63e+00    0    1.14e+00
2006 05 26  2325    53881   84300      0    1.63e+00    0    1.16e+00
2006 05 26  2330    53881   84600      0    1.68e+00    0    1.18e+00
2006 05 26  2335    53881   84900      0    1.64e+00    0    1.15e+00
2006 05 26  2340    53881   85200      0    1.62e+00    0    1.14e+00
2006 05 26  2345    53881   85500      0    1.64e+00    0    1.15e+00
2006 05 26  2350    53881   85800      0    1.68e+00    0    1.18e+00
2006 05 26  2355    53881   86100      0    1.66e+00    0    1.17e+00
