:Data_list: 20060629_ace_sis_5m.txt
:Created: 2006 Jun 30 0011 UT
# Prepared by the U.S. Dept. of Commerce, NOAA, Space Environment Center.
# Please send comments and suggestions to SEC.Webmaster@noaa.gov 
# 
# Units: proton flux p/cs2-sec-ster
# Status(S): 0 = nominal data, 1 to 8 = bad data record, 9 = no data
# Missing data values: -1.00e+05
# Source: ACE Satellite - Solar Isotope Spectrometer
#
# 5-minute averaged Real-time Integral Flux of High-energy Solar Protons
# 
#                 Modified Seconds
# UT Date   Time   Julian  of the      ---- Integral Proton Flux ----
# YR MO DA  HHMM     Day     Day       S    > 10 MeV    S    > 30 MeV
#--------------------------------------------------------------------
2006 06 29  0000    53915       0      0    1.67e+00    0    1.17e+00
2006 06 29  0005    53915     300      0    1.65e+00    0    1.17e+00
2006 06 29  0010    53915     600      0    1.62e+00    0    1.13e+00
2006 06 29  0015    53915     900      0    1.65e+00    0    1.16e+00
2006 06 29  0020    53915    1200      0    1.67e+00    0    1.17e+00
2006 06 29  0025    53915    1500      0    1.68e+00    0    1.18e+00
2006 06 29  0030    53915    1800      0    1.65e+00    0    1.16e+00
2006 06 29  0035    53915    2100      0    1.64e+00    0    1.14e+00
2006 06 29  0040    53915    2400      0    1.65e+00    0    1.15e+00
2006 06 29  0045    53915    2700      0    1.68e+00    0    1.17e+00
2006 06 29  0050    53915    3000      0    1.65e+00    0    1.16e+00
2006 06 29  0055    53915    3300      0    1.70e+00    0    1.19e+00
2006 06 29  0100    53915    3600      0    1.68e+00    0    1.17e+00
2006 06 29  0105    53915    3900      0    1.67e+00    0    1.17e+00
2006 06 29  0110    53915    4200      0    1.65e+00    0    1.15e+00
2006 06 29  0115    53915    4500      0    1.64e+00    0    1.15e+00
2006 06 29  0120    53915    4800      0    1.67e+00    0    1.18e+00
2006 06 29  0125    53915    5100      0    1.68e+00    0    1.17e+00
2006 06 29  0130    53915    5400      0    1.66e+00    0    1.17e+00
2006 06 29  0135    53915    5700      0    1.65e+00    0    1.15e+00
2006 06 29  0140    53915    6000      0    1.68e+00    0    1.18e+00
2006 06 29  0145    53915    6300      0    1.64e+00    0    1.15e+00
2006 06 29  0150    53915    6600      0    1.67e+00    0    1.16e+00
2006 06 29  0155    53915    6900      0    1.63e+00    0    1.14e+00
2006 06 29  0200    53915    7200      0    1.66e+00    0    1.17e+00
2006 06 29  0205    53915    7500      0    1.66e+00    0    1.16e+00
2006 06 29  0210    53915    7800      0    1.64e+00    0    1.15e+00
2006 06 29  0215    53915    8100      0    1.66e+00    0    1.16e+00
2006 06 29  0220    53915    8400      0    1.65e+00    0    1.15e+00
2006 06 29  0225    53915    8700      0    1.69e+00    0    1.17e+00
2006 06 29  0230    53915    9000      0    1.65e+00    0    1.17e+00
2006 06 29  0235    53915    9300      0    1.64e+00    0    1.15e+00
2006 06 29  0240    53915    9600      0    1.67e+00    0    1.17e+00
2006 06 29  0245    53915    9900      0    1.66e+00    0    1.16e+00
2006 06 29  0250    53915   10200      0    1.65e+00    0    1.15e+00
2006 06 29  0255    53915   10500      0    1.67e+00    0    1.18e+00
2006 06 29  0300    53915   10800      0    1.63e+00    0    1.14e+00
2006 06 29  0305    53915   11100      0    1.64e+00    0    1.14e+00
2006 06 29  0310    53915   11400      0    1.66e+00    0    1.17e+00
2006 06 29  0315    53915   11700      0    1.65e+00    0    1.15e+00
2006 06 29  0320    53915   12000      0    1.64e+00    0    1.16e+00
2006 06 29  0325    53915   12300      0    1.64e+00    0    1.15e+00
2006 06 29  0330    53915   12600      0    1.62e+00    0    1.14e+00
2006 06 29  0335    53915   12900      0    1.66e+00    0    1.17e+00
2006 06 29  0340    53915   13200      0    1.66e+00    0    1.16e+00
2006 06 29  0345    53915   13500      0    1.67e+00    0    1.17e+00
2006 06 29  0350    53915   13800      0    1.65e+00    0    1.16e+00
2006 06 29  0355    53915   14100      0    1.62e+00    0    1.15e+00
2006 06 29  0400    53915   14400      0    1.68e+00    0    1.17e+00
2006 06 29  0405    53915   14700      0    1.64e+00    0    1.14e+00
2006 06 29  0410    53915   15000      0    1.65e+00    0    1.16e+00
2006 06 29  0415    53915   15300      0    1.64e+00    0    1.16e+00
2006 06 29  0420    53915   15600      0    1.65e+00    0    1.14e+00
2006 06 29  0425    53915   15900      0    1.65e+00    0    1.16e+00
2006 06 29  0430    53915   16200      0    1.65e+00    0    1.17e+00
2006 06 29  0435    53915   16500      0    1.64e+00    0    1.15e+00
2006 06 29  0440    53915   16800      0    1.62e+00    0    1.14e+00
2006 06 29  0445    53915   17100      0    1.65e+00    0    1.16e+00
2006 06 29  0450    53915   17400      0    1.61e+00    0    1.12e+00
2006 06 29  0455    53915   17700      0    1.67e+00    0    1.16e+00
2006 06 29  0500    53915   18000      0    1.64e+00    0    1.14e+00
2006 06 29  0505    53915   18300      0    1.65e+00    0    1.15e+00
2006 06 29  0510    53915   18600      0    1.68e+00    0    1.17e+00
2006 06 29  0515    53915   18900      0    1.64e+00    0    1.15e+00
2006 06 29  0520    53915   19200      0    1.66e+00    0    1.17e+00
2006 06 29  0525    53915   19500      0    1.61e+00    0    1.13e+00
2006 06 29  0530    53915   19800      0    1.61e+00    0    1.12e+00
2006 06 29  0535    53915   20100      0    1.59e+00    0    1.12e+00
2006 06 29  0540    53915   20400      0    1.62e+00    0    1.13e+00
2006 06 29  0545    53915   20700      0    1.63e+00    0    1.14e+00
2006 06 29  0550    53915   21000      0    1.64e+00    0    1.16e+00
2006 06 29  0555    53915   21300      0    1.63e+00    0    1.15e+00
2006 06 29  0600    53915   21600      0    1.68e+00    0    1.19e+00
2006 06 29  0605    53915   21900      0    1.62e+00    0    1.14e+00
2006 06 29  0610    53915   22200      0    1.62e+00    0    1.14e+00
2006 06 29  0615    53915   22500      0    1.62e+00    0    1.13e+00
2006 06 29  0620    53915   22800      0    1.62e+00    0    1.13e+00
2006 06 29  0625    53915   23100      0    1.63e+00    0    1.13e+00
2006 06 29  0630    53915   23400      0    1.64e+00    0    1.14e+00
2006 06 29  0635    53915   23700      0    1.66e+00    0    1.16e+00
2006 06 29  0640    53915   24000      0    1.63e+00    0    1.15e+00
2006 06 29  0645    53915   24300      0    1.63e+00    0    1.14e+00
2006 06 29  0650    53915   24600      0    1.65e+00    0    1.15e+00
2006 06 29  0655    53915   24900      0    1.65e+00    0    1.15e+00
2006 06 29  0700    53915   25200      0    1.65e+00    0    1.15e+00
2006 06 29  0705    53915   25500      0    1.62e+00    0    1.14e+00
2006 06 29  0710    53915   25800      0    1.54e+00    0    1.09e+00
2006 06 29  0715    53915   26100      0    1.64e+00    0    1.16e+00
2006 06 29  0720    53915   26400      0    1.69e+00    0    1.19e+00
2006 06 29  0725    53915   26700      0    1.67e+00    0    1.17e+00
2006 06 29  0730    53915   27000      0    1.63e+00    0    1.15e+00
2006 06 29  0735    53915   27300      0    1.66e+00    0    1.17e+00
2006 06 29  0740    53915   27600      0    1.64e+00    0    1.15e+00
2006 06 29  0745    53915   27900      0    1.65e+00    0    1.16e+00
2006 06 29  0750    53915   28200      0    1.63e+00    0    1.14e+00
2006 06 29  0755    53915   28500      0    1.64e+00    0    1.15e+00
2006 06 29  0800    53915   28800      0    1.62e+00    0    1.14e+00
2006 06 29  0805    53915   29100      0    1.67e+00    0    1.16e+00
2006 06 29  0810    53915   29400      0    1.62e+00    0    1.14e+00
2006 06 29  0815    53915   29700      0    1.58e+00    0    1.10e+00
2006 06 29  0820    53915   30000      0    1.65e+00    0    1.16e+00
2006 06 29  0825    53915   30300      0    1.64e+00    0    1.15e+00
2006 06 29  0830    53915   30600      0    1.63e+00    0    1.13e+00
2006 06 29  0835    53915   30900      0    1.63e+00    0    1.14e+00
2006 06 29  0840    53915   31200      0    1.63e+00    0    1.13e+00
2006 06 29  0845    53915   31500      0    1.62e+00    0    1.13e+00
2006 06 29  0850    53915   31800      0    1.63e+00    0    1.15e+00
2006 06 29  0855    53915   32100      0    1.63e+00    0    1.15e+00
2006 06 29  0900    53915   32400      0    1.63e+00    0    1.14e+00
2006 06 29  0905    53915   32700      0    1.64e+00    0    1.15e+00
2006 06 29  0910    53915   33000      0    1.64e+00    0    1.15e+00
2006 06 29  0915    53915   33300      0    1.63e+00    0    1.13e+00
2006 06 29  0920    53915   33600      0    1.68e+00    0    1.18e+00
2006 06 29  0925    53915   33900      0    1.64e+00    0    1.14e+00
2006 06 29  0930    53915   34200      0    1.65e+00    0    1.16e+00
2006 06 29  0935    53915   34500      0    1.66e+00    0    1.16e+00
2006 06 29  0940    53915   34800      0    1.63e+00    0    1.15e+00
2006 06 29  0945    53915   35100      0    1.65e+00    0    1.16e+00
2006 06 29  0950    53915   35400      0    1.65e+00    0    1.16e+00
2006 06 29  0955    53915   35700      0    1.61e+00    0    1.12e+00
2006 06 29  1000    53915   36000      0    1.62e+00    0    1.13e+00
2006 06 29  1005    53915   36300      0    1.63e+00    0    1.13e+00
2006 06 29  1010    53915   36600      0    1.63e+00    0    1.16e+00
2006 06 29  1015    53915   36900      0    1.65e+00    0    1.16e+00
2006 06 29  1020    53915   37200      0    1.61e+00    0    1.13e+00
2006 06 29  1025    53915   37500      0    1.62e+00    0    1.14e+00
2006 06 29  1030    53915   37800      0    1.59e+00    0    1.12e+00
2006 06 29  1035    53915   38100      0    1.67e+00    0    1.17e+00
2006 06 29  1040    53915   38400      0    1.66e+00    0    1.17e+00
2006 06 29  1045    53915   38700      0    1.65e+00    0    1.16e+00
2006 06 29  1050    53915   39000      0    1.64e+00    0    1.15e+00
2006 06 29  1055    53915   39300      0    1.62e+00    0    1.14e+00
2006 06 29  1100    53915   39600      0    1.63e+00    0    1.14e+00
2006 06 29  1105    53915   39900      0    1.62e+00    0    1.13e+00
2006 06 29  1110    53915   40200      0    1.58e+00    0    1.11e+00
2006 06 29  1115    53915   40500      0    1.64e+00    0    1.15e+00
2006 06 29  1120    53915   40800      0    1.64e+00    0    1.16e+00
2006 06 29  1125    53915   41100      0    1.63e+00    0    1.14e+00
2006 06 29  1130    53915   41400      0    1.63e+00    0    1.14e+00
2006 06 29  1135    53915   41700      0    1.62e+00    0    1.13e+00
2006 06 29  1140    53915   42000      0    1.64e+00    0    1.15e+00
2006 06 29  1145    53915   42300      0    1.61e+00    0    1.12e+00
2006 06 29  1150    53915   42600      0    1.65e+00    0    1.17e+00
2006 06 29  1155    53915   42900      0    1.66e+00    0    1.15e+00
2006 06 29  1200    53915   43200      0    1.67e+00    0    1.17e+00
2006 06 29  1205    53915   43500      0    1.64e+00    0    1.15e+00
2006 06 29  1210    53915   43800      0    1.61e+00    0    1.13e+00
2006 06 29  1215    53915   44100      0    1.58e+00    0    1.09e+00
2006 06 29  1220    53915   44400      0    1.62e+00    0    1.13e+00
2006 06 29  1225    53915   44700      0    1.66e+00    0    1.17e+00
2006 06 29  1230    53915   45000      0    1.66e+00    0    1.16e+00
2006 06 29  1235    53915   45300      0    1.59e+00    0    1.11e+00
2006 06 29  1240    53915   45600      0    1.62e+00    0    1.13e+00
2006 06 29  1245    53915   45900      0    1.64e+00    0    1.15e+00
2006 06 29  1250    53915   46200      0    1.64e+00    0    1.14e+00
2006 06 29  1255    53915   46500      0    1.59e+00    0    1.12e+00
2006 06 29  1300    53915   46800      0    1.66e+00    0    1.15e+00
2006 06 29  1305    53915   47100      0    1.66e+00    0    1.17e+00
2006 06 29  1310    53915   47400      0    1.67e+00    0    1.18e+00
2006 06 29  1315    53915   47700      0    1.64e+00    0    1.14e+00
2006 06 29  1320    53915   48000      0    1.64e+00    0    1.14e+00
2006 06 29  1325    53915   48300      0    1.67e+00    0    1.17e+00
2006 06 29  1330    53915   48600      0    1.60e+00    0    1.11e+00
2006 06 29  1335    53915   48900      0    1.59e+00    0    1.11e+00
2006 06 29  1340    53915   49200      0    1.60e+00    0    1.12e+00
2006 06 29  1345    53915   49500      0    1.66e+00    0    1.16e+00
2006 06 29  1350    53915   49800      0    1.67e+00    0    1.18e+00
2006 06 29  1355    53915   50100      0    1.63e+00    0    1.13e+00
2006 06 29  1400    53915   50400      0    1.63e+00    0    1.15e+00
2006 06 29  1405    53915   50700      0    1.65e+00    0    1.16e+00
2006 06 29  1410    53915   51000      0    1.66e+00    0    1.18e+00
2006 06 29  1415    53915   51300      0    1.62e+00    0    1.14e+00
2006 06 29  1420    53915   51600      0    1.66e+00    0    1.17e+00
2006 06 29  1425    53915   51900      0    1.63e+00    0    1.14e+00
2006 06 29  1430    53915   52200      0    1.61e+00    0    1.13e+00
2006 06 29  1435    53915   52500      0    1.62e+00    0    1.15e+00
2006 06 29  1440    53915   52800      0    1.66e+00    0    1.16e+00
2006 06 29  1445    53915   53100      0    1.63e+00    0    1.15e+00
2006 06 29  1450    53915   53400      0    1.64e+00    0    1.15e+00
2006 06 29  1455    53915   53700      0    1.64e+00    0    1.15e+00
2006 06 29  1500    53915   54000      0    1.65e+00    0    1.15e+00
2006 06 29  1505    53915   54300      0    1.64e+00    0    1.15e+00
2006 06 29  1510    53915   54600      0    1.67e+00    0    1.16e+00
2006 06 29  1515    53915   54900      0    1.64e+00    0    1.16e+00
2006 06 29  1520    53915   55200      0    1.67e+00    0    1.18e+00
2006 06 29  1525    53915   55500      0    1.63e+00    0    1.13e+00
2006 06 29  1530    53915   55800      0    1.65e+00    0    1.15e+00
2006 06 29  1535    53915   56100      0    1.64e+00    0    1.14e+00
2006 06 29  1540    53915   56400      0    1.62e+00    0    1.14e+00
2006 06 29  1545    53915   56700      0    1.64e+00    0    1.16e+00
2006 06 29  1550    53915   57000      0    1.69e+00    0    1.19e+00
2006 06 29  1555    53915   57300      0    1.64e+00    0    1.16e+00
2006 06 29  1600    53915   57600      0    1.64e+00    0    1.14e+00
2006 06 29  1605    53915   57900      0    1.61e+00    0    1.13e+00
2006 06 29  1610    53915   58200      0    1.64e+00    0    1.15e+00
2006 06 29  1615    53915   58500      0    1.64e+00    0    1.15e+00
2006 06 29  1620    53915   58800      0    1.63e+00    0    1.15e+00
2006 06 29  1625    53915   59100      0    1.63e+00    0    1.11e+00
2006 06 29  1630    53915   59400      0    1.66e+00    0    1.17e+00
2006 06 29  1635    53915   59700      0    1.68e+00    0    1.18e+00
2006 06 29  1640    53915   60000      0    1.63e+00    0    1.13e+00
2006 06 29  1645    53915   60300      0    1.64e+00    0    1.15e+00
2006 06 29  1650    53915   60600      0    1.67e+00    0    1.17e+00
2006 06 29  1655    53915   60900      0    1.67e+00    0    1.18e+00
2006 06 29  1700    53915   61200      0    1.67e+00    0    1.17e+00
2006 06 29  1705    53915   61500      0    1.68e+00    0    1.18e+00
2006 06 29  1710    53915   61800      0    1.65e+00    0    1.17e+00
2006 06 29  1715    53915   62100      0    1.60e+00    0    1.11e+00
2006 06 29  1720    53915   62400      0    1.64e+00    0    1.15e+00
2006 06 29  1725    53915   62700      0    1.65e+00    0    1.15e+00
2006 06 29  1730    53915   63000      0    1.65e+00    0    1.16e+00
2006 06 29  1735    53915   63300      0    1.66e+00    0    1.15e+00
2006 06 29  1740    53915   63600      0    1.64e+00    0    1.14e+00
2006 06 29  1745    53915   63900      0    1.62e+00    0    1.14e+00
2006 06 29  1750    53915   64200      0    1.64e+00    0    1.15e+00
2006 06 29  1755    53915   64500      0    1.65e+00    0    1.16e+00
2006 06 29  1800    53915   64800      0    1.66e+00    0    1.15e+00
2006 06 29  1805    53915   65100      0    1.66e+00    0    1.17e+00
2006 06 29  1810    53915   65400      0    1.66e+00    0    1.16e+00
2006 06 29  1815    53915   65700      0    1.62e+00    0    1.12e+00
2006 06 29  1820    53915   66000      0    1.64e+00    0    1.16e+00
2006 06 29  1825    53915   66300      0    1.61e+00    0    1.12e+00
2006 06 29  1830    53915   66600      0    1.65e+00    0    1.16e+00
2006 06 29  1835    53915   66900      0    1.66e+00    0    1.16e+00
2006 06 29  1840    53915   67200      0    1.67e+00    0    1.16e+00
2006 06 29  1845    53915   67500      0    1.64e+00    0    1.14e+00
2006 06 29  1850    53915   67800      0    1.66e+00    0    1.17e+00
2006 06 29  1855    53915   68100      0    1.66e+00    0    1.17e+00
2006 06 29  1900    53915   68400      0    1.62e+00    0    1.14e+00
2006 06 29  1905    53915   68700      0    1.65e+00    0    1.17e+00
2006 06 29  1910    53915   69000      0    1.63e+00    0    1.14e+00
2006 06 29  1915    53915   69300      0    1.64e+00    0    1.15e+00
2006 06 29  1920    53915   69600      0    1.65e+00    0    1.16e+00
2006 06 29  1925    53915   69900      0    1.64e+00    0    1.15e+00
2006 06 29  1930    53915   70200      0    1.65e+00    0    1.15e+00
2006 06 29  1935    53915   70500      0    1.63e+00    0    1.15e+00
2006 06 29  1940    53915   70800      0    1.64e+00    0    1.15e+00
2006 06 29  1945    53915   71100      0    1.67e+00    0    1.18e+00
2006 06 29  1950    53915   71400      0    1.68e+00    0    1.19e+00
2006 06 29  1955    53915   71700      0    1.63e+00    0    1.14e+00
2006 06 29  2000    53915   72000      0    1.64e+00    0    1.15e+00
2006 06 29  2005    53915   72300      0    1.68e+00    0    1.17e+00
2006 06 29  2010    53915   72600      0    1.66e+00    0    1.17e+00
2006 06 29  2015    53915   72900      0    1.64e+00    0    1.16e+00
2006 06 29  2020    53915   73200      0    1.65e+00    0    1.16e+00
2006 06 29  2025    53915   73500      0    1.61e+00    0    1.12e+00
2006 06 29  2030    53915   73800      0    1.63e+00    0    1.15e+00
2006 06 29  2035    53915   74100      0    1.60e+00    0    1.13e+00
2006 06 29  2040    53915   74400      0    1.67e+00    0    1.17e+00
2006 06 29  2045    53915   74700      0    1.65e+00    0    1.16e+00
2006 06 29  2050    53915   75000      0    1.65e+00    0    1.16e+00
2006 06 29  2055    53915   75300      0    1.68e+00    0    1.18e+00
2006 06 29  2100    53915   75600      0    1.62e+00    0    1.15e+00
2006 06 29  2105    53915   75900      0    1.63e+00    0    1.14e+00
2006 06 29  2110    53915   76200      0    1.66e+00    0    1.17e+00
2006 06 29  2115    53915   76500      0    1.67e+00    0    1.16e+00
2006 06 29  2120    53915   76800      0    1.61e+00    0    1.12e+00
2006 06 29  2125    53915   77100      0    1.62e+00    0    1.13e+00
2006 06 29  2130    53915   77400      0    1.65e+00    0    1.16e+00
2006 06 29  2135    53915   77700      0    1.62e+00    0    1.14e+00
2006 06 29  2140    53915   78000      0    1.67e+00    0    1.16e+00
2006 06 29  2145    53915   78300      0    1.66e+00    0    1.16e+00
2006 06 29  2150    53915   78600      0    1.62e+00    0    1.14e+00
2006 06 29  2155    53915   78900      0    1.67e+00    0    1.17e+00
2006 06 29  2200    53915   79200      0    1.64e+00    0    1.16e+00
2006 06 29  2205    53915   79500      0    1.65e+00    0    1.16e+00
2006 06 29  2210    53915   79800      0    1.63e+00    0    1.14e+00
2006 06 29  2215    53915   80100      0    1.64e+00    0    1.15e+00
2006 06 29  2220    53915   80400      0    1.63e+00    0    1.14e+00
2006 06 29  2225    53915   80700      0    1.65e+00    0    1.15e+00
2006 06 29  2230    53915   81000      0    1.66e+00    0    1.18e+00
2006 06 29  2235    53915   81300      0    1.66e+00    0    1.16e+00
2006 06 29  2240    53915   81600      0    1.66e+00    0    1.16e+00
2006 06 29  2245    53915   81900      0    1.64e+00    0    1.14e+00
2006 06 29  2250    53915   82200      0    1.67e+00    0    1.17e+00
2006 06 29  2255    53915   82500      0    1.67e+00    0    1.16e+00
2006 06 29  2300    53915   82800      0    1.68e+00    0    1.18e+00
2006 06 29  2305    53915   83100      0    1.65e+00    0    1.15e+00
2006 06 29  2310    53915   83400      0    1.62e+00    0    1.13e+00
2006 06 29  2315    53915   83700      0    1.65e+00    0    1.16e+00
2006 06 29  2320    53915   84000      0    1.66e+00    0    1.16e+00
2006 06 29  2325    53915   84300      0    1.66e+00    0    1.17e+00
2006 06 29  2330    53915   84600      0    1.65e+00    0    1.15e+00
2006 06 29  2335    53915   84900      0    1.64e+00    0    1.15e+00
2006 06 29  2340    53915   85200      0    1.75e+00    0    1.22e+00
2006 06 29  2345    53915   85500      0    1.66e+00    0    1.17e+00
2006 06 29  2350    53915   85800      0    1.62e+00    0    1.13e+00
2006 06 29  2355    53915   86100      0    1.66e+00    0    1.15e+00
