:Data_list: 20060625_ace_sis_5m.txt
:Created: 2006 Jun 26 0011 UT
# Prepared by the U.S. Dept. of Commerce, NOAA, Space Environment Center.
# Please send comments and suggestions to SEC.Webmaster@noaa.gov 
# 
# Units: proton flux p/cs2-sec-ster
# Status(S): 0 = nominal data, 1 to 8 = bad data record, 9 = no data
# Missing data values: -1.00e+05
# Source: ACE Satellite - Solar Isotope Spectrometer
#
# 5-minute averaged Real-time Integral Flux of High-energy Solar Protons
# 
#                 Modified Seconds
# UT Date   Time   Julian  of the      ---- Integral Proton Flux ----
# YR MO DA  HHMM     Day     Day       S    > 10 MeV    S    > 30 MeV
#--------------------------------------------------------------------
2006 06 25  0000    53911       0      0    1.69e+00    0    1.17e+00
2006 06 25  0005    53911     300      0    1.65e+00    0    1.16e+00
2006 06 25  0010    53911     600      0    1.67e+00    0    1.18e+00
2006 06 25  0015    53911     900      0    1.66e+00    0    1.15e+00
2006 06 25  0020    53911    1200      0    1.64e+00    0    1.15e+00
2006 06 25  0025    53911    1500      0    1.63e+00    0    1.15e+00
2006 06 25  0030    53911    1800      0    1.64e+00    0    1.15e+00
2006 06 25  0035    53911    2100      0    1.67e+00    0    1.17e+00
2006 06 25  0040    53911    2400      0    1.66e+00    0    1.16e+00
2006 06 25  0045    53911    2700      0    1.68e+00    0    1.16e+00
2006 06 25  0050    53911    3000      0    1.65e+00    0    1.17e+00
2006 06 25  0055    53911    3300      0    1.66e+00    0    1.18e+00
2006 06 25  0100    53911    3600      0    1.63e+00    0    1.15e+00
2006 06 25  0105    53911    3900      0    1.67e+00    0    1.16e+00
2006 06 25  0110    53911    4200      0    1.69e+00    0    1.19e+00
2006 06 25  0115    53911    4500      0    1.66e+00    0    1.16e+00
2006 06 25  0120    53911    4800      0    1.69e+00    0    1.19e+00
2006 06 25  0125    53911    5100      0    1.65e+00    0    1.16e+00
2006 06 25  0130    53911    5400      0    1.63e+00    0    1.15e+00
2006 06 25  0135    53911    5700      0    1.64e+00    0    1.15e+00
2006 06 25  0140    53911    6000      0    1.68e+00    0    1.16e+00
2006 06 25  0145    53911    6300      0    1.67e+00    0    1.17e+00
2006 06 25  0150    53911    6600      0    1.65e+00    0    1.16e+00
2006 06 25  0155    53911    6900      0    1.65e+00    0    1.14e+00
2006 06 25  0200    53911    7200      0    1.67e+00    0    1.16e+00
2006 06 25  0205    53911    7500      0    1.65e+00    0    1.16e+00
2006 06 25  0210    53911    7800      0    1.68e+00    0    1.18e+00
2006 06 25  0215    53911    8100      0    1.66e+00    0    1.15e+00
2006 06 25  0220    53911    8400      0    1.65e+00    0    1.15e+00
2006 06 25  0225    53911    8700      0    1.63e+00    0    1.14e+00
2006 06 25  0230    53911    9000      0    1.63e+00    0    1.13e+00
2006 06 25  0235    53911    9300      0    1.62e+00    0    1.14e+00
2006 06 25  0240    53911    9600      0    1.63e+00    0    1.13e+00
2006 06 25  0245    53911    9900      0    1.63e+00    0    1.14e+00
2006 06 25  0250    53911   10200      0    1.64e+00    0    1.15e+00
2006 06 25  0255    53911   10500      0    1.65e+00    0    1.15e+00
2006 06 25  0300    53911   10800      0    1.66e+00    0    1.16e+00
2006 06 25  0305    53911   11100      0    1.61e+00    0    1.12e+00
2006 06 25  0310    53911   11400      0    1.65e+00    0    1.15e+00
2006 06 25  0315    53911   11700      0    1.67e+00    0    1.16e+00
2006 06 25  0320    53911   12000      0    1.61e+00    0    1.12e+00
2006 06 25  0325    53911   12300      0    1.66e+00    0    1.17e+00
2006 06 25  0330    53911   12600      0    1.67e+00    0    1.16e+00
2006 06 25  0335    53911   12900      0    1.68e+00    0    1.19e+00
2006 06 25  0340    53911   13200      0    1.67e+00    0    1.19e+00
2006 06 25  0345    53911   13500      0    1.65e+00    0    1.15e+00
2006 06 25  0350    53911   13800      0    1.66e+00    0    1.16e+00
2006 06 25  0355    53911   14100      0    1.64e+00    0    1.15e+00
2006 06 25  0400    53911   14400      0    1.68e+00    0    1.16e+00
2006 06 25  0405    53911   14700      0    1.64e+00    0    1.15e+00
2006 06 25  0410    53911   15000      0    1.66e+00    0    1.16e+00
2006 06 25  0415    53911   15300      0    1.68e+00    0    1.18e+00
2006 06 25  0420    53911   15600      0    1.65e+00    0    1.15e+00
2006 06 25  0425    53911   15900      0    1.66e+00    0    1.16e+00
2006 06 25  0430    53911   16200      0    1.70e+00    0    1.19e+00
2006 06 25  0435    53911   16500      0    1.68e+00    0    1.18e+00
2006 06 25  0440    53911   16800      0    1.69e+00    0    1.19e+00
2006 06 25  0445    53911   17100      0    1.69e+00    0    1.19e+00
2006 06 25  0450    53911   17400      0    1.64e+00    0    1.15e+00
2006 06 25  0455    53911   17700      0    1.70e+00    0    1.19e+00
2006 06 25  0500    53911   18000      0    1.66e+00    0    1.16e+00
2006 06 25  0505    53911   18300      0    1.66e+00    0    1.16e+00
2006 06 25  0510    53911   18600      0    1.67e+00    0    1.17e+00
2006 06 25  0515    53911   18900      0    1.69e+00    0    1.18e+00
2006 06 25  0520    53911   19200      0    1.63e+00    0    1.15e+00
2006 06 25  0525    53911   19500      0    1.68e+00    0    1.18e+00
2006 06 25  0530    53911   19800      0    1.67e+00    0    1.18e+00
2006 06 25  0535    53911   20100      0    1.67e+00    0    1.17e+00
2006 06 25  0540    53911   20400      0    1.68e+00    0    1.18e+00
2006 06 25  0545    53911   20700      0    1.65e+00    0    1.16e+00
2006 06 25  0550    53911   21000      0    1.65e+00    0    1.16e+00
2006 06 25  0555    53911   21300      0    1.67e+00    0    1.17e+00
2006 06 25  0600    53911   21600      0    1.68e+00    0    1.19e+00
2006 06 25  0605    53911   21900      0    1.70e+00    0    1.17e+00
2006 06 25  0610    53911   22200      0    1.69e+00    0    1.18e+00
2006 06 25  0615    53911   22500      0    1.68e+00    0    1.17e+00
2006 06 25  0620    53911   22800      0    1.66e+00    0    1.16e+00
2006 06 25  0625    53911   23100      0    1.67e+00    0    1.17e+00
2006 06 25  0630    53911   23400      0    1.67e+00    0    1.18e+00
2006 06 25  0635    53911   23700      0    1.65e+00    0    1.16e+00
2006 06 25  0640    53911   24000      0    1.70e+00    0    1.20e+00
2006 06 25  0645    53911   24300      0    1.65e+00    0    1.15e+00
2006 06 25  0650    53911   24600      0    1.69e+00    0    1.19e+00
2006 06 25  0655    53911   24900      0    1.67e+00    0    1.19e+00
2006 06 25  0700    53911   25200      0    1.70e+00    0    1.20e+00
2006 06 25  0705    53911   25500      0    1.69e+00    0    1.18e+00
2006 06 25  0710    53911   25800      0    1.67e+00    0    1.18e+00
2006 06 25  0715    53911   26100      0    1.67e+00    0    1.15e+00
2006 06 25  0720    53911   26400      0    1.67e+00    0    1.17e+00
2006 06 25  0725    53911   26700      0    1.69e+00    0    1.18e+00
2006 06 25  0730    53911   27000      0    1.69e+00    0    1.18e+00
2006 06 25  0735    53911   27300      0    1.66e+00    0    1.16e+00
2006 06 25  0740    53911   27600      0    1.67e+00    0    1.18e+00
2006 06 25  0745    53911   27900      0    1.67e+00    0    1.16e+00
2006 06 25  0750    53911   28200      0    1.68e+00    0    1.17e+00
2006 06 25  0755    53911   28500      0    1.65e+00    0    1.15e+00
2006 06 25  0800    53911   28800      0    1.70e+00    0    1.19e+00
2006 06 25  0805    53911   29100      0    1.67e+00    0    1.17e+00
2006 06 25  0810    53911   29400      0    1.69e+00    0    1.18e+00
2006 06 25  0815    53911   29700      0    1.71e+00    0    1.20e+00
2006 06 25  0820    53911   30000      0    1.71e+00    0    1.19e+00
2006 06 25  0825    53911   30300      0    1.67e+00    0    1.16e+00
2006 06 25  0830    53911   30600      0    1.70e+00    0    1.18e+00
2006 06 25  0835    53911   30900      0    1.68e+00    0    1.19e+00
2006 06 25  0840    53911   31200      0    1.69e+00    0    1.19e+00
2006 06 25  0845    53911   31500      0    1.69e+00    0    1.19e+00
2006 06 25  0850    53911   31800      0    1.69e+00    0    1.18e+00
2006 06 25  0855    53911   32100      0    1.71e+00    0    1.20e+00
2006 06 25  0900    53911   32400      0    1.67e+00    0    1.15e+00
2006 06 25  0905    53911   32700      0    1.68e+00    0    1.19e+00
2006 06 25  0910    53911   33000      0    1.71e+00    0    1.20e+00
2006 06 25  0915    53911   33300      0    1.68e+00    0    1.17e+00
2006 06 25  0920    53911   33600      0    1.69e+00    0    1.19e+00
2006 06 25  0925    53911   33900      0    1.73e+00    0    1.22e+00
2006 06 25  0930    53911   34200      0    1.68e+00    0    1.17e+00
2006 06 25  0935    53911   34500      0    1.67e+00    0    1.18e+00
2006 06 25  0940    53911   34800      0    1.67e+00    0    1.18e+00
2006 06 25  0945    53911   35100      0    1.69e+00    0    1.20e+00
2006 06 25  0950    53911   35400      0    1.68e+00    0    1.18e+00
2006 06 25  0955    53911   35700      0    1.68e+00    0    1.18e+00
2006 06 25  1000    53911   36000      0    1.68e+00    0    1.18e+00
2006 06 25  1005    53911   36300      0    1.70e+00    0    1.20e+00
2006 06 25  1010    53911   36600      0    1.70e+00    0    1.19e+00
2006 06 25  1015    53911   36900      0    1.71e+00    0    1.20e+00
2006 06 25  1020    53911   37200      0    1.64e+00    0    1.15e+00
2006 06 25  1025    53911   37500      0    1.68e+00    0    1.18e+00
2006 06 25  1030    53911   37800      0    1.69e+00    0    1.19e+00
2006 06 25  1035    53911   38100      0    1.68e+00    0    1.17e+00
2006 06 25  1040    53911   38400      0    1.68e+00    0    1.18e+00
2006 06 25  1045    53911   38700      0    1.70e+00    0    1.20e+00
2006 06 25  1050    53911   39000      0    1.71e+00    0    1.21e+00
2006 06 25  1055    53911   39300      0    1.70e+00    0    1.20e+00
2006 06 25  1100    53911   39600      0    1.69e+00    0    1.17e+00
2006 06 25  1105    53911   39900      0    1.72e+00    0    1.21e+00
2006 06 25  1110    53911   40200      0    1.68e+00    0    1.18e+00
2006 06 25  1115    53911   40500      0    1.68e+00    0    1.17e+00
2006 06 25  1120    53911   40800      0    1.76e+00    0    1.24e+00
2006 06 25  1125    53911   41100      0    1.66e+00    0    1.17e+00
2006 06 25  1130    53911   41400      0    1.69e+00    0    1.19e+00
2006 06 25  1135    53911   41700      0    1.67e+00    0    1.15e+00
2006 06 25  1140    53911   42000      0    1.67e+00    0    1.17e+00
2006 06 25  1145    53911   42300      0    1.71e+00    0    1.21e+00
2006 06 25  1150    53911   42600      0    1.70e+00    0    1.18e+00
2006 06 25  1155    53911   42900      0    1.68e+00    0    1.18e+00
2006 06 25  1200    53911   43200      0    1.71e+00    0    1.20e+00
2006 06 25  1205    53911   43500      0    1.68e+00    0    1.18e+00
2006 06 25  1210    53911   43800      0    1.65e+00    0    1.17e+00
2006 06 25  1215    53911   44100      0    1.70e+00    0    1.18e+00
2006 06 25  1220    53911   44400      0    1.72e+00    0    1.20e+00
2006 06 25  1225    53911   44700      0    1.62e+00    0    1.14e+00
2006 06 25  1230    53911   45000      0    1.67e+00    0    1.17e+00
2006 06 25  1235    53911   45300      0    1.68e+00    0    1.18e+00
2006 06 25  1240    53911   45600      0    1.67e+00    0    1.17e+00
2006 06 25  1245    53911   45900      0    1.74e+00    0    1.22e+00
2006 06 25  1250    53911   46200      0    1.67e+00    0    1.17e+00
2006 06 25  1255    53911   46500      0    1.70e+00    0    1.20e+00
2006 06 25  1300    53911   46800      0    1.71e+00    0    1.20e+00
2006 06 25  1305    53911   47100      0    1.71e+00    0    1.19e+00
2006 06 25  1310    53911   47400      0    1.68e+00    0    1.18e+00
2006 06 25  1315    53911   47700      0    1.69e+00    0    1.19e+00
2006 06 25  1320    53911   48000      0    1.71e+00    0    1.19e+00
2006 06 25  1325    53911   48300      0    1.71e+00    0    1.21e+00
2006 06 25  1330    53911   48600      0    1.68e+00    0    1.17e+00
2006 06 25  1335    53911   48900      0    1.68e+00    0    1.17e+00
2006 06 25  1340    53911   49200      0    1.69e+00    0    1.17e+00
2006 06 25  1345    53911   49500      0    1.71e+00    0    1.20e+00
2006 06 25  1350    53911   49800      0    1.71e+00    0    1.19e+00
2006 06 25  1355    53911   50100      0    1.67e+00    0    1.16e+00
2006 06 25  1400    53911   50400      0    1.70e+00    0    1.19e+00
2006 06 25  1405    53911   50700      0    1.67e+00    0    1.17e+00
2006 06 25  1410    53911   51000      0    1.69e+00    0    1.17e+00
2006 06 25  1415    53911   51300      0    1.66e+00    0    1.17e+00
2006 06 25  1420    53911   51600      0    1.66e+00    0    1.17e+00
2006 06 25  1425    53911   51900      0    1.67e+00    0    1.17e+00
2006 06 25  1430    53911   52200      0    1.72e+00    0    1.21e+00
2006 06 25  1435    53911   52500      0    1.70e+00    0    1.18e+00
2006 06 25  1440    53911   52800      0    1.66e+00    0    1.16e+00
2006 06 25  1445    53911   53100      0    1.68e+00    0    1.17e+00
2006 06 25  1450    53911   53400      0    1.68e+00    0    1.19e+00
2006 06 25  1455    53911   53700      0    1.72e+00    0    1.20e+00
2006 06 25  1500    53911   54000      0    1.70e+00    0    1.20e+00
2006 06 25  1505    53911   54300      0    1.67e+00    0    1.17e+00
2006 06 25  1510    53911   54600      0    1.67e+00    0    1.18e+00
2006 06 25  1515    53911   54900      0    1.69e+00    0    1.18e+00
2006 06 25  1520    53911   55200      0    1.66e+00    0    1.17e+00
2006 06 25  1525    53911   55500      0    1.69e+00    0    1.18e+00
2006 06 25  1530    53911   55800      0    1.68e+00    0    1.18e+00
2006 06 25  1535    53911   56100      0    1.69e+00    0    1.19e+00
2006 06 25  1540    53911   56400      0    1.73e+00    0    1.23e+00
2006 06 25  1545    53911   56700      0    1.70e+00    0    1.20e+00
2006 06 25  1550    53911   57000      0    1.74e+00    0    1.22e+00
2006 06 25  1555    53911   57300      0    1.69e+00    0    1.19e+00
2006 06 25  1600    53911   57600      0    1.64e+00    0    1.16e+00
2006 06 25  1605    53911   57900      0    1.69e+00    0    1.19e+00
2006 06 25  1610    53911   58200      0    1.69e+00    0    1.19e+00
2006 06 25  1615    53911   58500      0    1.70e+00    0    1.19e+00
2006 06 25  1620    53911   58800      0    1.68e+00    0    1.18e+00
2006 06 25  1625    53911   59100      0    1.70e+00    0    1.18e+00
2006 06 25  1630    53911   59400      0    1.68e+00    0    1.17e+00
2006 06 25  1635    53911   59700      0    1.66e+00    0    1.16e+00
2006 06 25  1640    53911   60000      0    2.03e+00    0    1.16e+00
2006 06 25  1645    53911   60300      0    1.70e+00    0    1.19e+00
2006 06 25  1650    53911   60600      0    1.68e+00    0    1.18e+00
2006 06 25  1655    53911   60900      0    1.66e+00    0    1.17e+00
2006 06 25  1700    53911   61200      0    1.67e+00    0    1.18e+00
2006 06 25  1705    53911   61500      0    1.65e+00    0    1.15e+00
2006 06 25  1710    53911   61800      0    1.61e+00    0    1.11e+00
2006 06 25  1715    53911   62100      0    1.71e+00    0    1.19e+00
2006 06 25  1720    53911   62400      0    1.72e+00    0    1.20e+00
2006 06 25  1725    53911   62700      0    1.74e+00    0    1.23e+00
2006 06 25  1730    53911   63000      0    1.68e+00    0    1.18e+00
2006 06 25  1735    53911   63300      0    1.74e+00    0    1.22e+00
2006 06 25  1740    53911   63600      0    1.67e+00    0    1.17e+00
2006 06 25  1745    53911   63900      0    1.72e+00    0    1.22e+00
2006 06 25  1750    53911   64200      0    1.72e+00    0    1.20e+00
2006 06 25  1755    53911   64500      0    1.67e+00    0    1.17e+00
2006 06 25  1800    53911   64800      0    1.67e+00    0    1.16e+00
2006 06 25  1805    53911   65100      0    1.70e+00    0    1.19e+00
2006 06 25  1810    53911   65400      0    1.68e+00    0    1.18e+00
2006 06 25  1815    53911   65700      0    1.72e+00    0    1.20e+00
2006 06 25  1820    53911   66000      0    1.66e+00    0    1.15e+00
2006 06 25  1825    53911   66300      0    1.66e+00    0    1.18e+00
2006 06 25  1830    53911   66600      0    1.70e+00    0    1.19e+00
2006 06 25  1835    53911   66900      0    1.68e+00    0    1.18e+00
2006 06 25  1840    53911   67200      0    1.70e+00    0    1.20e+00
2006 06 25  1845    53911   67500      0    1.70e+00    0    1.19e+00
2006 06 25  1850    53911   67800      0    1.66e+00    0    1.18e+00
2006 06 25  1855    53911   68100      0    1.67e+00    0    1.19e+00
2006 06 25  1900    53911   68400      0    1.71e+00    0    1.20e+00
2006 06 25  1905    53911   68700      0    1.69e+00    0    1.19e+00
2006 06 25  1910    53911   69000      0    1.71e+00    0    1.21e+00
2006 06 25  1915    53911   69300      0    1.67e+00    0    1.15e+00
2006 06 25  1920    53911   69600      0    1.67e+00    0    1.18e+00
2006 06 25  1925    53911   69900      0    1.67e+00    0    1.18e+00
2006 06 25  1930    53911   70200      0    1.66e+00    0    1.16e+00
2006 06 25  1935    53911   70500      0    1.69e+00    0    1.18e+00
2006 06 25  1940    53911   70800      0    1.69e+00    0    1.19e+00
2006 06 25  1945    53911   71100      0    1.69e+00    0    1.18e+00
2006 06 25  1950    53911   71400      0    1.69e+00    0    1.19e+00
2006 06 25  1955    53911   71700      0    1.65e+00    0    1.15e+00
2006 06 25  2000    53911   72000      0    1.66e+00    0    1.17e+00
2006 06 25  2005    53911   72300      0    1.67e+00    0    1.16e+00
2006 06 25  2010    53911   72600      0    1.69e+00    0    1.19e+00
2006 06 25  2015    53911   72900      0    1.72e+00    0    1.22e+00
2006 06 25  2020    53911   73200      0    1.68e+00    0    1.18e+00
2006 06 25  2025    53911   73500      0    1.68e+00    0    1.18e+00
2006 06 25  2030    53911   73800      0    1.70e+00    0    1.19e+00
2006 06 25  2035    53911   74100      0    1.69e+00    0    1.19e+00
2006 06 25  2040    53911   74400      0    1.72e+00    0    1.21e+00
2006 06 25  2045    53911   74700      0    1.68e+00    0    1.17e+00
2006 06 25  2050    53911   75000      0    1.68e+00    0    1.16e+00
2006 06 25  2055    53911   75300      0    1.74e+00    0    1.23e+00
2006 06 25  2100    53911   75600      0    1.69e+00    0    1.18e+00
2006 06 25  2105    53911   75900      0    1.68e+00    0    1.18e+00
2006 06 25  2110    53911   76200      0    1.70e+00    0    1.19e+00
2006 06 25  2115    53911   76500      0    1.70e+00    0    1.19e+00
2006 06 25  2120    53911   76800      0    1.71e+00    0    1.19e+00
2006 06 25  2125    53911   77100      0    1.70e+00    0    1.20e+00
2006 06 25  2130    53911   77400      0    1.70e+00    0    1.19e+00
2006 06 25  2135    53911   77700      0    1.69e+00    0    1.19e+00
2006 06 25  2140    53911   78000      0    1.69e+00    0    1.19e+00
2006 06 25  2145    53911   78300      0    1.69e+00    0    1.19e+00
2006 06 25  2150    53911   78600      0    1.68e+00    0    1.19e+00
2006 06 25  2155    53911   78900      0    1.71e+00    0    1.19e+00
2006 06 25  2200    53911   79200      0    1.74e+00    0    1.22e+00
2006 06 25  2205    53911   79500      0    1.72e+00    0    1.20e+00
2006 06 25  2210    53911   79800      0    1.71e+00    0    1.20e+00
2006 06 25  2215    53911   80100      0    1.66e+00    0    1.17e+00
2006 06 25  2220    53911   80400      0    1.66e+00    0    1.16e+00
2006 06 25  2225    53911   80700      0    1.71e+00    0    1.20e+00
2006 06 25  2230    53911   81000      0    1.71e+00    0    1.20e+00
2006 06 25  2235    53911   81300      0    1.66e+00    0    1.14e+00
2006 06 25  2240    53911   81600      0    1.68e+00    0    1.18e+00
2006 06 25  2245    53911   81900      0    1.71e+00    0    1.20e+00
2006 06 25  2250    53911   82200      0    1.74e+00    0    1.23e+00
2006 06 25  2255    53911   82500      0    1.69e+00    0    1.19e+00
2006 06 25  2300    53911   82800      0    1.68e+00    0    1.17e+00
2006 06 25  2305    53911   83100      0    1.69e+00    0    1.20e+00
2006 06 25  2310    53911   83400      0    1.70e+00    0    1.20e+00
2006 06 25  2315    53911   83700      0    1.71e+00    0    1.21e+00
2006 06 25  2320    53911   84000      0    1.73e+00    0    1.21e+00
2006 06 25  2325    53911   84300      0    1.68e+00    0    1.17e+00
2006 06 25  2330    53911   84600      0    1.71e+00    0    1.20e+00
2006 06 25  2335    53911   84900      0    1.70e+00    0    1.19e+00
2006 06 25  2340    53911   85200      0    1.74e+00    0    1.21e+00
2006 06 25  2345    53911   85500      0    1.69e+00    0    1.19e+00
2006 06 25  2350    53911   85800      0    1.71e+00    0    1.20e+00
2006 06 25  2355    53911   86100      0    1.71e+00    0    1.21e+00
