:Data_list: 20060413_ace_sis_5m.txt
:Created: 2006 Apr 14 0011 UT
# Prepared by the U.S. Dept. of Commerce, NOAA, Space Environment Center.
# Please send comments and suggestions to SEC.Webmaster@noaa.gov 
# 
# Units: proton flux p/cs2-sec-ster
# Status(S): 0 = nominal data, 1 to 8 = bad data record, 9 = no data
# Missing data values: -1.00e+05
# Source: ACE Satellite - Solar Isotope Spectrometer
#
# 5-minute averaged Real-time Integral Flux of High-energy Solar Protons
# 
#                 Modified Seconds
# UT Date   Time   Julian  of the      ---- Integral Proton Flux ----
# YR MO DA  HHMM     Day     Day       S    > 10 MeV    S    > 30 MeV
#--------------------------------------------------------------------
2006 04 13  0000    53838       0      0    1.54e+00    0    1.08e+00
2006 04 13  0005    53838     300      0    1.57e+00    0    1.11e+00
2006 04 13  0010    53838     600      0    1.57e+00    0    1.10e+00
2006 04 13  0015    53838     900      0    1.55e+00    0    1.08e+00
2006 04 13  0020    53838    1200      0    1.56e+00    0    1.10e+00
2006 04 13  0025    53838    1500      0    1.59e+00    0    1.11e+00
2006 04 13  0030    53838    1800      0    1.57e+00    0    1.10e+00
2006 04 13  0035    53838    2100      0    1.59e+00    0    1.12e+00
2006 04 13  0040    53838    2400      0    1.55e+00    0    1.10e+00
2006 04 13  0045    53838    2700      0    1.54e+00    0    1.08e+00
2006 04 13  0050    53838    3000      0    1.58e+00    0    1.12e+00
2006 04 13  0055    53838    3300      0    1.57e+00    0    1.11e+00
2006 04 13  0100    53838    3600      0    1.61e+00    0    1.13e+00
2006 04 13  0105    53838    3900      0    1.59e+00    0    1.12e+00
2006 04 13  0110    53838    4200      0    1.53e+00    0    1.06e+00
2006 04 13  0115    53838    4500      0    1.56e+00    0    1.10e+00
2006 04 13  0120    53838    4800      0    1.57e+00    0    1.10e+00
2006 04 13  0125    53838    5100      0    1.57e+00    0    1.10e+00
2006 04 13  0130    53838    5400      0    1.54e+00    0    1.06e+00
2006 04 13  0135    53838    5700      0    1.54e+00    0    1.08e+00
2006 04 13  0140    53838    6000      0    1.57e+00    0    1.11e+00
2006 04 13  0145    53838    6300      0    1.59e+00    0    1.11e+00
2006 04 13  0150    53838    6600      0    1.58e+00    0    1.11e+00
2006 04 13  0155    53838    6900      0    1.58e+00    0    1.11e+00
2006 04 13  0200    53838    7200      0    1.54e+00    0    1.08e+00
2006 04 13  0205    53838    7500      0    1.56e+00    0    1.10e+00
2006 04 13  0210    53838    7800      0    1.56e+00    0    1.10e+00
2006 04 13  0215    53838    8100      0    1.57e+00    0    1.10e+00
2006 04 13  0220    53838    8400      0    1.54e+00    0    1.08e+00
2006 04 13  0225    53838    8700      0    1.55e+00    0    1.08e+00
2006 04 13  0230    53838    9000      0    1.61e+00    0    1.12e+00
2006 04 13  0235    53838    9300      0    1.57e+00    0    1.09e+00
2006 04 13  0240    53838    9600      0    1.56e+00    0    1.10e+00
2006 04 13  0245    53838    9900      0    1.58e+00    0    1.11e+00
2006 04 13  0250    53838   10200      0    1.57e+00    0    1.10e+00
2006 04 13  0255    53838   10500      0    1.54e+00    0    1.09e+00
2006 04 13  0300    53838   10800      0    1.52e+00    0    1.06e+00
2006 04 13  0305    53838   11100      0    1.55e+00    0    1.09e+00
2006 04 13  0310    53838   11400      0    1.52e+00    0    1.05e+00
2006 04 13  0315    53838   11700      0    1.59e+00    0    1.11e+00
2006 04 13  0320    53838   12000      0    1.57e+00    0    1.10e+00
2006 04 13  0325    53838   12300      0    1.55e+00    0    1.10e+00
2006 04 13  0330    53838   12600      0    1.54e+00    0    1.08e+00
2006 04 13  0335    53838   12900      0    1.56e+00    0    1.10e+00
2006 04 13  0340    53838   13200      0    1.55e+00    0    1.07e+00
2006 04 13  0345    53838   13500      0    1.52e+00    0    1.07e+00
2006 04 13  0350    53838   13800      0    1.57e+00    0    1.10e+00
2006 04 13  0355    53838   14100      0    1.55e+00    0    1.09e+00
2006 04 13  0400    53838   14400      0    1.54e+00    0    1.07e+00
2006 04 13  0405    53838   14700      0    1.52e+00    0    1.07e+00
2006 04 13  0410    53838   15000      0    1.53e+00    0    1.06e+00
2006 04 13  0415    53838   15300      0    1.52e+00    0    1.05e+00
2006 04 13  0420    53838   15600      0    1.54e+00    0    1.08e+00
2006 04 13  0425    53838   15900      0    1.54e+00    0    1.07e+00
2006 04 13  0430    53838   16200      0    1.53e+00    0    1.08e+00
2006 04 13  0435    53838   16500      0    1.56e+00    0    1.08e+00
2006 04 13  0440    53838   16800      0    1.50e+00    0    1.06e+00
2006 04 13  0445    53838   17100      0    1.56e+00    0    1.09e+00
2006 04 13  0450    53838   17400      0    1.56e+00    0    1.09e+00
2006 04 13  0455    53838   17700      0    1.57e+00    0    1.10e+00
2006 04 13  0500    53838   18000      0    1.56e+00    0    1.10e+00
2006 04 13  0505    53838   18300      0    1.54e+00    0    1.09e+00
2006 04 13  0510    53838   18600      0    1.51e+00    0    1.05e+00
2006 04 13  0515    53838   18900      0    1.55e+00    0    1.09e+00
2006 04 13  0520    53838   19200      0    1.56e+00    0    1.10e+00
2006 04 13  0525    53838   19500      0    1.58e+00    0    1.12e+00
2006 04 13  0530    53838   19800      0    1.58e+00    0    1.11e+00
2006 04 13  0535    53838   20100      0    1.59e+00    0    1.11e+00
2006 04 13  0540    53838   20400      0    1.56e+00    0    1.09e+00
2006 04 13  0545    53838   20700      0    1.51e+00    0    1.06e+00
2006 04 13  0550    53838   21000      0    1.55e+00    0    1.09e+00
2006 04 13  0555    53838   21300      0    1.57e+00    0    1.11e+00
2006 04 13  0600    53838   21600      0    1.57e+00    0    1.10e+00
2006 04 13  0605    53838   21900      0    1.51e+00    0    1.05e+00
2006 04 13  0610    53838   22200      0    1.53e+00    0    1.08e+00
2006 04 13  0615    53838   22500      0    1.55e+00    0    1.09e+00
2006 04 13  0620    53838   22800      0    1.57e+00    0    1.10e+00
2006 04 13  0625    53838   23100      0    1.58e+00    0    1.12e+00
2006 04 13  0630    53838   23400      0    1.49e+00    0    1.05e+00
2006 04 13  0635    53838   23700      0    1.51e+00    0    1.06e+00
2006 04 13  0640    53838   24000      0    1.56e+00    0    1.10e+00
2006 04 13  0645    53838   24300      0    1.54e+00    0    1.09e+00
2006 04 13  0650    53838   24600      0    1.56e+00    0    1.09e+00
2006 04 13  0655    53838   24900      0    1.51e+00    0    1.07e+00
2006 04 13  0700    53838   25200      0    1.57e+00    0    1.10e+00
2006 04 13  0705    53838   25500      0    1.52e+00    0    1.08e+00
2006 04 13  0710    53838   25800      0    1.56e+00    0    1.10e+00
2006 04 13  0715    53838   26100      0    1.55e+00    0    1.09e+00
2006 04 13  0720    53838   26400      0    1.55e+00    0    1.08e+00
2006 04 13  0725    53838   26700      0    1.52e+00    0    1.07e+00
2006 04 13  0730    53838   27000      0    1.52e+00    0    1.06e+00
2006 04 13  0735    53838   27300      0    1.56e+00    0    1.10e+00
2006 04 13  0740    53838   27600      0    1.56e+00    0    1.10e+00
2006 04 13  0745    53838   27900      0    1.53e+00    0    1.07e+00
2006 04 13  0750    53838   28200      0    1.52e+00    0    1.07e+00
2006 04 13  0755    53838   28500      0    1.54e+00    0    1.09e+00
2006 04 13  0800    53838   28800      0    1.55e+00    0    1.07e+00
2006 04 13  0805    53838   29100      0    1.54e+00    0    1.09e+00
2006 04 13  0810    53838   29400      0    1.53e+00    0    1.06e+00
2006 04 13  0815    53838   29700      0    1.56e+00    0    1.10e+00
2006 04 13  0820    53838   30000      0    1.55e+00    0    1.10e+00
2006 04 13  0825    53838   30300      0    1.54e+00    0    1.09e+00
2006 04 13  0830    53838   30600      0    1.54e+00    0    1.08e+00
2006 04 13  0835    53838   30900      0    1.58e+00    0    1.10e+00
2006 04 13  0840    53838   31200      0    1.56e+00    0    1.10e+00
2006 04 13  0845    53838   31500      0    1.54e+00    0    1.08e+00
2006 04 13  0850    53838   31800      0    1.56e+00    0    1.09e+00
2006 04 13  0855    53838   32100      0    1.55e+00    0    1.09e+00
2006 04 13  0900    53838   32400      0    1.59e+00    0    1.12e+00
2006 04 13  0905    53838   32700      0    1.53e+00    0    1.07e+00
2006 04 13  0910    53838   33000      0    1.57e+00    0    1.11e+00
2006 04 13  0915    53838   33300      0    1.53e+00    0    1.07e+00
2006 04 13  0920    53838   33600      0    1.57e+00    0    1.11e+00
2006 04 13  0925    53838   33900      0    1.55e+00    0    1.08e+00
2006 04 13  0930    53838   34200      0    1.56e+00    0    1.10e+00
2006 04 13  0935    53838   34500      0    1.57e+00    0    1.11e+00
2006 04 13  0940    53838   34800      0    1.56e+00    0    1.09e+00
2006 04 13  0945    53838   35100      0    1.56e+00    0    1.11e+00
2006 04 13  0950    53838   35400      0    1.56e+00    0    1.08e+00
2006 04 13  0955    53838   35700      0    1.54e+00    0    1.08e+00
2006 04 13  1000    53838   36000      0    1.56e+00    0    1.10e+00
2006 04 13  1005    53838   36300      0    1.58e+00    0    1.11e+00
2006 04 13  1010    53838   36600      0    1.57e+00    0    1.10e+00
2006 04 13  1015    53838   36900      0    1.52e+00    0    1.06e+00
2006 04 13  1020    53838   37200      0    1.58e+00    0    1.10e+00
2006 04 13  1025    53838   37500      0    1.46e+00    0    1.03e+00
2006 04 13  1030    53838   37800      0    1.57e+00    0    1.10e+00
2006 04 13  1035    53838   38100      0    1.58e+00    0    1.10e+00
2006 04 13  1040    53838   38400      0    1.56e+00    0    1.08e+00
2006 04 13  1045    53838   38700      0    1.57e+00    0    1.11e+00
2006 04 13  1050    53838   39000      0    1.55e+00    0    1.10e+00
2006 04 13  1055    53838   39300      0    1.54e+00    0    1.08e+00
2006 04 13  1100    53838   39600      0    1.54e+00    0    1.09e+00
2006 04 13  1105    53838   39900      0    1.57e+00    0    1.10e+00
2006 04 13  1110    53838   40200      0    1.56e+00    0    1.10e+00
2006 04 13  1115    53838   40500      0    1.57e+00    0    1.09e+00
2006 04 13  1120    53838   40800      0    1.55e+00    0    1.09e+00
2006 04 13  1125    53838   41100      0    1.54e+00    0    1.08e+00
2006 04 13  1130    53838   41400      0    1.55e+00    0    1.08e+00
2006 04 13  1135    53838   41700      0    1.55e+00    0    1.10e+00
2006 04 13  1140    53838   42000      0    1.54e+00    0    1.08e+00
2006 04 13  1145    53838   42300      0    1.54e+00    0    1.07e+00
2006 04 13  1150    53838   42600      0    1.58e+00    0    1.13e+00
2006 04 13  1155    53838   42900      0    1.55e+00    0    1.10e+00
2006 04 13  1200    53838   43200      0    1.56e+00    0    1.09e+00
2006 04 13  1205    53838   43500      0    1.55e+00    0    1.08e+00
2006 04 13  1210    53838   43800      0    1.58e+00    0    1.09e+00
2006 04 13  1215    53838   44100      0    1.58e+00    0    1.11e+00
2006 04 13  1220    53838   44400      0    1.60e+00    0    1.13e+00
2006 04 13  1225    53838   44700      0    1.52e+00    0    1.07e+00
2006 04 13  1230    53838   45000      0    1.57e+00    0    1.11e+00
2006 04 13  1235    53838   45300      0    1.54e+00    0    1.08e+00
2006 04 13  1240    53838   45600      0    1.54e+00    0    1.09e+00
2006 04 13  1245    53838   45900      0    1.53e+00    0    1.07e+00
2006 04 13  1250    53838   46200      0    1.57e+00    0    1.10e+00
2006 04 13  1255    53838   46500      0    1.55e+00    0    1.08e+00
2006 04 13  1300    53838   46800      0    1.53e+00    0    1.06e+00
2006 04 13  1305    53838   47100      0    1.54e+00    0    1.09e+00
2006 04 13  1310    53838   47400      0    1.58e+00    0    1.12e+00
2006 04 13  1315    53838   47700      0    1.56e+00    0    1.09e+00
2006 04 13  1320    53838   48000      0    1.55e+00    0    1.08e+00
2006 04 13  1325    53838   48300      0    1.53e+00    0    1.07e+00
2006 04 13  1330    53838   48600      0    1.57e+00    0    1.10e+00
2006 04 13  1335    53838   48900      0    1.58e+00    0    1.11e+00
2006 04 13  1340    53838   49200      0    1.57e+00    0    1.09e+00
2006 04 13  1345    53838   49500      0    1.52e+00    0    1.06e+00
2006 04 13  1350    53838   49800      0    1.54e+00    0    1.08e+00
2006 04 13  1355    53838   50100      0    1.52e+00    0    1.07e+00
2006 04 13  1400    53838   50400      0    1.52e+00    0    1.07e+00
2006 04 13  1405    53838   50700      0    1.56e+00    0    1.11e+00
2006 04 13  1410    53838   51000      0    1.57e+00    0    1.10e+00
2006 04 13  1415    53838   51300      0    1.54e+00    0    1.08e+00
2006 04 13  1420    53838   51600      0    1.57e+00    0    1.09e+00
2006 04 13  1425    53838   51900      0    1.54e+00    0    1.08e+00
2006 04 13  1430    53838   52200      0    1.54e+00    0    1.08e+00
2006 04 13  1435    53838   52500      0    1.54e+00    0    1.07e+00
2006 04 13  1440    53838   52800      0    1.55e+00    0    1.08e+00
2006 04 13  1445    53838   53100      0    1.56e+00    0    1.09e+00
2006 04 13  1450    53838   53400      0    1.51e+00    0    1.07e+00
2006 04 13  1455    53838   53700      0    1.52e+00    0    1.08e+00
2006 04 13  1500    53838   54000      0    1.51e+00    0    1.06e+00
2006 04 13  1505    53838   54300      0    1.54e+00    0    1.09e+00
2006 04 13  1510    53838   54600      0    1.49e+00    0    1.05e+00
2006 04 13  1515    53838   54900      0    1.51e+00    0    1.06e+00
2006 04 13  1520    53838   55200      0    1.49e+00    0    1.04e+00
2006 04 13  1525    53838   55500      0    1.53e+00    0    1.08e+00
2006 04 13  1530    53838   55800      0    1.54e+00    0    1.08e+00
2006 04 13  1535    53838   56100      0    1.52e+00    0    1.06e+00
2006 04 13  1540    53838   56400      0    1.49e+00    0    1.04e+00
2006 04 13  1545    53838   56700      0    1.51e+00    0    1.07e+00
2006 04 13  1550    53838   57000      0    1.52e+00    0    1.06e+00
2006 04 13  1555    53838   57300      0    1.52e+00    0    1.07e+00
2006 04 13  1600    53838   57600      0    1.50e+00    0    1.06e+00
2006 04 13  1605    53838   57900      0    1.50e+00    0    1.05e+00
2006 04 13  1610    53838   58200      0    1.52e+00    0    1.07e+00
2006 04 13  1615    53838   58500      0    1.46e+00    0    1.02e+00
2006 04 13  1620    53838   58800      0    1.48e+00    0    1.04e+00
2006 04 13  1625    53838   59100      0    1.46e+00    0    1.03e+00
2006 04 13  1630    53838   59400      0    1.46e+00    0    1.02e+00
2006 04 13  1635    53838   59700      0    1.48e+00    0    1.03e+00
2006 04 13  1640    53838   60000      0    1.51e+00    0    1.06e+00
2006 04 13  1645    53838   60300      0    1.50e+00    0    1.06e+00
2006 04 13  1650    53838   60600      0    1.49e+00    0    1.05e+00
2006 04 13  1655    53838   60900      0    1.47e+00    0    1.02e+00
2006 04 13  1700    53838   61200      0    1.48e+00    0    1.05e+00
2006 04 13  1705    53838   61500      0    1.50e+00    0    1.06e+00
2006 04 13  1710    53838   61800      0    1.49e+00    0    1.06e+00
2006 04 13  1715    53838   62100      0    1.50e+00    0    1.07e+00
2006 04 13  1720    53838   62400      0    1.42e+00    0    9.96e-01
2006 04 13  1725    53838   62700      0    1.46e+00    0    1.03e+00
2006 04 13  1730    53838   63000      0    1.47e+00    0    1.05e+00
2006 04 13  1735    53838   63300      0    1.47e+00    0    1.02e+00
2006 04 13  1740    53838   63600      0    1.44e+00    0    1.00e+00
2006 04 13  1745    53838   63900      0    1.45e+00    0    1.02e+00
2006 04 13  1750    53838   64200      0    1.48e+00    0    1.04e+00
2006 04 13  1755    53838   64500      0    1.48e+00    0    1.04e+00
2006 04 13  1800    53838   64800      0    1.46e+00    0    1.02e+00
2006 04 13  1805    53838   65100      0    1.47e+00    0    1.02e+00
2006 04 13  1810    53838   65400      0    1.47e+00    0    1.03e+00
2006 04 13  1815    53838   65700      0    1.48e+00    0    1.05e+00
2006 04 13  1820    53838   66000      0    1.46e+00    0    1.02e+00
2006 04 13  1825    53838   66300      0    1.49e+00    0    1.04e+00
2006 04 13  1830    53838   66600      0    1.45e+00    0    1.02e+00
2006 04 13  1835    53838   66900      0    1.47e+00    0    1.03e+00
2006 04 13  1840    53838   67200      0    1.44e+00    0    1.01e+00
2006 04 13  1845    53838   67500      0    1.45e+00    0    1.02e+00
2006 04 13  1850    53838   67800      0    1.42e+00    0    9.86e-01
2006 04 13  1855    53838   68100      0    1.47e+00    0    1.04e+00
2006 04 13  1900    53838   68400      0    1.44e+00    0    1.02e+00
2006 04 13  1905    53838   68700      0    1.46e+00    0    1.03e+00
2006 04 13  1910    53838   69000      0    1.48e+00    0    1.04e+00
2006 04 13  1915    53838   69300      0    1.51e+00    0    1.06e+00
2006 04 13  1920    53838   69600      0    1.48e+00    0    1.04e+00
2006 04 13  1925    53838   69900      0    1.43e+00    0    1.01e+00
2006 04 13  1930    53838   70200      0    1.50e+00    0    1.05e+00
2006 04 13  1935    53838   70500      0    1.49e+00    0    1.04e+00
2006 04 13  1940    53838   70800      0    1.51e+00    0    1.07e+00
2006 04 13  1945    53838   71100      0    1.47e+00    0    1.03e+00
2006 04 13  1950    53838   71400      0    1.49e+00    0    1.04e+00
2006 04 13  1955    53838   71700      0    1.46e+00    0    1.02e+00
2006 04 13  2000    53838   72000      0    1.48e+00    0    1.03e+00
2006 04 13  2005    53838   72300      0    1.50e+00    0    1.05e+00
2006 04 13  2010    53838   72600      0    1.49e+00    0    1.05e+00
2006 04 13  2015    53838   72900      0    1.51e+00    0    1.06e+00
2006 04 13  2020    53838   73200      0    1.48e+00    0    1.04e+00
2006 04 13  2025    53838   73500      0    1.45e+00    0    1.02e+00
2006 04 13  2030    53838   73800      0    1.48e+00    0    1.03e+00
2006 04 13  2035    53838   74100      0    1.49e+00    0    1.05e+00
2006 04 13  2040    53838   74400      0    1.47e+00    0    1.03e+00
2006 04 13  2045    53838   74700      0    1.49e+00    0    1.06e+00
2006 04 13  2050    53838   75000      0    1.46e+00    0    1.02e+00
2006 04 13  2055    53838   75300      0    1.49e+00    0    1.05e+00
2006 04 13  2100    53838   75600      0    1.45e+00    0    1.02e+00
2006 04 13  2105    53838   75900      0    1.48e+00    0    1.02e+00
2006 04 13  2110    53838   76200      0    1.49e+00    0    1.04e+00
2006 04 13  2115    53838   76500      0    1.48e+00    0    1.04e+00
2006 04 13  2120    53838   76800      0    1.41e+00    0    9.92e-01
2006 04 13  2125    53838   77100      0    1.47e+00    0    1.04e+00
2006 04 13  2130    53838   77400      0    1.49e+00    0    1.05e+00
2006 04 13  2135    53838   77700      0    1.52e+00    0    1.07e+00
2006 04 13  2140    53838   78000      0    1.51e+00    0    1.07e+00
2006 04 13  2145    53838   78300      0    1.51e+00    0    1.05e+00
2006 04 13  2150    53838   78600      0    1.49e+00    0    1.05e+00
2006 04 13  2155    53838   78900      0    1.55e+00    0    1.08e+00
2006 04 13  2200    53838   79200      0    1.50e+00    0    1.06e+00
2006 04 13  2205    53838   79500      0    1.51e+00    0    1.06e+00
2006 04 13  2210    53838   79800      0    1.50e+00    0    1.04e+00
2006 04 13  2215    53838   80100      0    1.49e+00    0    1.04e+00
2006 04 13  2220    53838   80400      0    1.52e+00    0    1.07e+00
2006 04 13  2225    53838   80700      0    1.54e+00    0    1.07e+00
2006 04 13  2230    53838   81000      0    1.53e+00    0    1.08e+00
2006 04 13  2235    53838   81300      0    1.51e+00    0    1.07e+00
2006 04 13  2240    53838   81600      0    1.52e+00    0    1.07e+00
2006 04 13  2245    53838   81900      0    1.48e+00    0    1.04e+00
2006 04 13  2250    53838   82200      0    1.52e+00    0    1.06e+00
2006 04 13  2255    53838   82500      0    1.53e+00    0    1.07e+00
2006 04 13  2300    53838   82800      0    1.50e+00    0    1.06e+00
2006 04 13  2305    53838   83100      0    1.52e+00    0    1.06e+00
2006 04 13  2310    53838   83400      0    1.52e+00    0    1.07e+00
2006 04 13  2315    53838   83700      0    1.54e+00    0    1.08e+00
2006 04 13  2320    53838   84000      0    1.52e+00    0    1.07e+00
2006 04 13  2325    53838   84300      0    1.51e+00    0    1.07e+00
2006 04 13  2330    53838   84600      0    1.53e+00    0    1.08e+00
2006 04 13  2335    53838   84900      0    1.51e+00    0    1.07e+00
2006 04 13  2340    53838   85200      0    1.54e+00    0    1.08e+00
2006 04 13  2345    53838   85500      0    1.49e+00    0    1.05e+00
2006 04 13  2350    53838   85800      0    1.51e+00    0    1.06e+00
2006 04 13  2355    53838   86100      0    1.45e+00    0    1.02e+00
