:Data_list: 20060223_ace_sis_5m.txt
:Created: 2006 Feb 24 0011 UT
# Prepared by the U.S. Dept. of Commerce, NOAA, Space Environment Center.
# Please send comments and suggestions to SEC.Webmaster@noaa.gov 
# 
# Units: proton flux p/cs2-sec-ster
# Status(S): 0 = nominal data, 1 to 8 = bad data record, 9 = no data
# Missing data values: -1.00e+05
# Source: ACE Satellite - Solar Isotope Spectrometer
#
# 5-minute averaged Real-time Integral Flux of High-energy Solar Protons
# 
#                 Modified Seconds
# UT Date   Time   Julian  of the      ---- Integral Proton Flux ----
# YR MO DA  HHMM     Day     Day       S    > 10 MeV    S    > 30 MeV
#--------------------------------------------------------------------
2006 02 23  0000    53789       0      0    1.46e+00    0    1.02e+00
2006 02 23  0005    53789     300      0    1.47e+00    0    1.03e+00
2006 02 23  0010    53789     600      0    1.47e+00    0    1.04e+00
2006 02 23  0015    53789     900      0    1.49e+00    0    1.06e+00
2006 02 23  0020    53789    1200      0    1.49e+00    0    1.05e+00
2006 02 23  0025    53789    1500      0    1.46e+00    0    1.02e+00
2006 02 23  0030    53789    1800      0    1.50e+00    0    1.05e+00
2006 02 23  0035    53789    2100      0    1.48e+00    0    1.04e+00
2006 02 23  0040    53789    2400      0    1.47e+00    0    1.04e+00
2006 02 23  0045    53789    2700      0    1.47e+00    0    1.04e+00
2006 02 23  0050    53789    3000      0    1.51e+00    0    1.07e+00
2006 02 23  0055    53789    3300      0    1.50e+00    0    1.05e+00
2006 02 23  0100    53789    3600      0    1.46e+00    0    1.01e+00
2006 02 23  0105    53789    3900      0    1.47e+00    0    1.03e+00
2006 02 23  0110    53789    4200      0    1.46e+00    0    1.02e+00
2006 02 23  0115    53789    4500      0    1.49e+00    0    1.05e+00
2006 02 23  0120    53789    4800      0    1.48e+00    0    1.04e+00
2006 02 23  0125    53789    5100      0    1.49e+00    0    1.05e+00
2006 02 23  0130    53789    5400      0    1.49e+00    0    1.06e+00
2006 02 23  0135    53789    5700      0    1.48e+00    0    1.04e+00
2006 02 23  0140    53789    6000      0    1.48e+00    0    1.04e+00
2006 02 23  0145    53789    6300      0    1.47e+00    0    1.03e+00
2006 02 23  0150    53789    6600      0    1.47e+00    0    1.03e+00
2006 02 23  0155    53789    6900      0    1.50e+00    0    1.06e+00
2006 02 23  0200    53789    7200      0    1.45e+00    0    1.02e+00
2006 02 23  0205    53789    7500      0    1.47e+00    0    1.02e+00
2006 02 23  0210    53789    7800      0    1.44e+00    0    1.01e+00
2006 02 23  0215    53789    8100      0    1.46e+00    0    1.02e+00
2006 02 23  0220    53789    8400      0    1.47e+00    0    1.03e+00
2006 02 23  0225    53789    8700      0    1.47e+00    0    1.03e+00
2006 02 23  0230    53789    9000      0    1.45e+00    0    1.00e+00
2006 02 23  0235    53789    9300      0    1.48e+00    0    1.05e+00
2006 02 23  0240    53789    9600      0    1.47e+00    0    1.03e+00
2006 02 23  0245    53789    9900      0    1.41e+00    0    9.92e-01
2006 02 23  0250    53789   10200      0    1.46e+00    0    1.01e+00
2006 02 23  0255    53789   10500      0    1.48e+00    0    1.04e+00
2006 02 23  0300    53789   10800      0    1.48e+00    0    1.05e+00
2006 02 23  0305    53789   11100      0    1.52e+00    0    1.07e+00
2006 02 23  0310    53789   11400      0    1.45e+00    0    1.02e+00
2006 02 23  0315    53789   11700      0    1.48e+00    0    1.04e+00
2006 02 23  0320    53789   12000      0    1.46e+00    0    1.02e+00
2006 02 23  0325    53789   12300      0    1.44e+00    0    1.02e+00
2006 02 23  0330    53789   12600      0    1.45e+00    0    1.02e+00
2006 02 23  0335    53789   12900      0    1.45e+00    0    1.01e+00
2006 02 23  0340    53789   13200      0    1.45e+00    0    1.01e+00
2006 02 23  0345    53789   13500      0    1.46e+00    0    1.03e+00
2006 02 23  0350    53789   13800      0    1.45e+00    0    1.02e+00
2006 02 23  0355    53789   14100      0    1.45e+00    0    1.02e+00
2006 02 23  0400    53789   14400      0    1.45e+00    0    1.01e+00
2006 02 23  0405    53789   14700      0    1.45e+00    0    1.03e+00
2006 02 23  0410    53789   15000      0    1.50e+00    0    1.05e+00
2006 02 23  0415    53789   15300      0    1.47e+00    0    1.03e+00
2006 02 23  0420    53789   15600      0    1.45e+00    0    1.02e+00
2006 02 23  0425    53789   15900      0    1.47e+00    0    1.04e+00
2006 02 23  0430    53789   16200      0    1.38e+00    0    9.74e-01
2006 02 23  0435    53789   16500      0    1.48e+00    0    1.04e+00
2006 02 23  0440    53789   16800      0    1.45e+00    0    1.02e+00
2006 02 23  0445    53789   17100      0    1.48e+00    0    1.02e+00
2006 02 23  0450    53789   17400      0    1.48e+00    0    1.04e+00
2006 02 23  0455    53789   17700      0    1.46e+00    0    1.03e+00
2006 02 23  0500    53789   18000      0    1.50e+00    0    1.05e+00
2006 02 23  0505    53789   18300      0    1.46e+00    0    1.02e+00
2006 02 23  0510    53789   18600      0    1.47e+00    0    1.04e+00
2006 02 23  0515    53789   18900      0    1.46e+00    0    1.03e+00
2006 02 23  0520    53789   19200      0    1.49e+00    0    1.06e+00
2006 02 23  0525    53789   19500      0    1.46e+00    0    1.02e+00
2006 02 23  0530    53789   19800      0    1.45e+00    0    1.02e+00
2006 02 23  0535    53789   20100      0    1.47e+00    0    1.03e+00
2006 02 23  0540    53789   20400      0    1.47e+00    0    1.04e+00
2006 02 23  0545    53789   20700      0    1.49e+00    0    1.04e+00
2006 02 23  0550    53789   21000      0    1.48e+00    0    1.03e+00
2006 02 23  0555    53789   21300      0    1.45e+00    0    1.00e+00
2006 02 23  0600    53789   21600      0    1.49e+00    0    1.04e+00
2006 02 23  0605    53789   21900      0    1.46e+00    0    1.02e+00
2006 02 23  0610    53789   22200      0    1.47e+00    0    1.04e+00
2006 02 23  0615    53789   22500      0    1.48e+00    0    1.03e+00
2006 02 23  0620    53789   22800      0    1.46e+00    0    1.03e+00
2006 02 23  0625    53789   23100      0    1.47e+00    0    1.04e+00
2006 02 23  0630    53789   23400      0    1.44e+00    0    1.02e+00
2006 02 23  0635    53789   23700      0    1.48e+00    0    1.04e+00
2006 02 23  0640    53789   24000      0    1.50e+00    0    1.05e+00
2006 02 23  0645    53789   24300      0    1.47e+00    0    1.04e+00
2006 02 23  0650    53789   24600      0    1.50e+00    0    1.05e+00
2006 02 23  0655    53789   24900      0    1.46e+00    0    1.03e+00
2006 02 23  0700    53789   25200      0    1.47e+00    0    1.04e+00
2006 02 23  0705    53789   25500      0    1.47e+00    0    1.03e+00
2006 02 23  0710    53789   25800      0    1.47e+00    0    1.03e+00
2006 02 23  0715    53789   26100      0    1.46e+00    0    1.04e+00
2006 02 23  0720    53789   26400      0    1.49e+00    0    1.03e+00
2006 02 23  0725    53789   26700      0    1.50e+00    0    1.05e+00
2006 02 23  0730    53789   27000      0    1.48e+00    0    1.04e+00
2006 02 23  0735    53789   27300      0    1.49e+00    0    1.06e+00
2006 02 23  0740    53789   27600      0    1.46e+00    0    1.02e+00
2006 02 23  0745    53789   27900      0    1.47e+00    0    1.05e+00
2006 02 23  0750    53789   28200      0    1.48e+00    0    1.04e+00
2006 02 23  0755    53789   28500      0    1.48e+00    0    1.03e+00
2006 02 23  0800    53789   28800      0    1.50e+00    0    1.06e+00
2006 02 23  0805    53789   29100      0    1.48e+00    0    1.05e+00
2006 02 23  0810    53789   29400      0    1.47e+00    0    1.03e+00
2006 02 23  0815    53789   29700      0    1.45e+00    0    1.01e+00
2006 02 23  0820    53789   30000      0    1.43e+00    0    1.01e+00
2006 02 23  0825    53789   30300      0    1.48e+00    0    1.04e+00
2006 02 23  0830    53789   30600      0    1.46e+00    0    1.03e+00
2006 02 23  0835    53789   30900      0    1.48e+00    0    1.04e+00
2006 02 23  0840    53789   31200      0    1.47e+00    0    1.05e+00
2006 02 23  0845    53789   31500      0    1.45e+00    0    1.02e+00
2006 02 23  0850    53789   31800      0    1.47e+00    0    1.04e+00
2006 02 23  0855    53789   32100      0    1.47e+00    0    1.03e+00
2006 02 23  0900    53789   32400      0    1.47e+00    0    1.04e+00
2006 02 23  0905    53789   32700      0    1.49e+00    0    1.05e+00
2006 02 23  0910    53789   33000      0    1.54e+00    0    1.12e+00
2006 02 23  0915    53789   33300      0    1.45e+00    0    1.02e+00
2006 02 23  0920    53789   33600      0    1.46e+00    0    1.03e+00
2006 02 23  0925    53789   33900      0    1.43e+00    0    1.00e+00
2006 02 23  0930    53789   34200      0    1.45e+00    0    1.02e+00
2006 02 23  0935    53789   34500      0    1.49e+00    0    1.05e+00
2006 02 23  0940    53789   34800      0    1.49e+00    0    1.05e+00
2006 02 23  0945    53789   35100      0    1.47e+00    0    1.03e+00
2006 02 23  0950    53789   35400      0    1.48e+00    0    1.04e+00
2006 02 23  0955    53789   35700      0    1.46e+00    0    1.04e+00
2006 02 23  1000    53789   36000      0    1.43e+00    0    1.01e+00
2006 02 23  1005    53789   36300      0    1.47e+00    0    1.04e+00
2006 02 23  1010    53789   36600      0    1.48e+00    0    1.04e+00
2006 02 23  1015    53789   36900      0    1.49e+00    0    1.04e+00
2006 02 23  1020    53789   37200      0    1.47e+00    0    1.04e+00
2006 02 23  1025    53789   37500      0    1.45e+00    0    1.02e+00
2006 02 23  1030    53789   37800      0    1.44e+00    0    1.01e+00
2006 02 23  1035    53789   38100      0    1.45e+00    0    1.01e+00
2006 02 23  1040    53789   38400      0    1.47e+00    0    1.04e+00
2006 02 23  1045    53789   38700      0    1.43e+00    0    1.02e+00
2006 02 23  1050    53789   39000      0    1.44e+00    0    1.00e+00
2006 02 23  1055    53789   39300      0    1.48e+00    0    1.04e+00
2006 02 23  1100    53789   39600      0    1.46e+00    0    1.02e+00
2006 02 23  1105    53789   39900      0    1.42e+00    0    1.01e+00
2006 02 23  1110    53789   40200      0    1.47e+00    0    1.03e+00
2006 02 23  1115    53789   40500      0    1.47e+00    0    1.02e+00
2006 02 23  1120    53789   40800      0    1.48e+00    0    1.05e+00
2006 02 23  1125    53789   41100      0    1.45e+00    0    1.02e+00
2006 02 23  1130    53789   41400      0    1.44e+00    0    1.00e+00
2006 02 23  1135    53789   41700      0    1.44e+00    0    1.02e+00
2006 02 23  1140    53789   42000      0    1.46e+00    0    1.03e+00
2006 02 23  1145    53789   42300      0    1.52e+00    0    1.07e+00
2006 02 23  1150    53789   42600      0    1.46e+00    0    1.02e+00
2006 02 23  1155    53789   42900      0    1.48e+00    0    1.02e+00
2006 02 23  1200    53789   43200      0    1.46e+00    0    1.02e+00
2006 02 23  1205    53789   43500      0    1.47e+00    0    1.03e+00
2006 02 23  1210    53789   43800      0    1.48e+00    0    1.04e+00
2006 02 23  1215    53789   44100      0    1.48e+00    0    1.04e+00
2006 02 23  1220    53789   44400      0    1.45e+00    0    1.02e+00
2006 02 23  1225    53789   44700      0    1.48e+00    0    1.04e+00
2006 02 23  1230    53789   45000      0    1.47e+00    0    1.04e+00
2006 02 23  1235    53789   45300      0    1.44e+00    0    1.01e+00
2006 02 23  1240    53789   45600      0    1.51e+00    0    1.06e+00
2006 02 23  1245    53789   45900      0    1.48e+00    0    1.03e+00
2006 02 23  1250    53789   46200      0    1.46e+00    0    1.02e+00
2006 02 23  1255    53789   46500      0    1.44e+00    0    1.02e+00
2006 02 23  1300    53789   46800      0    1.43e+00    0    1.00e+00
2006 02 23  1305    53789   47100      0    1.48e+00    0    1.04e+00
2006 02 23  1310    53789   47400      0    1.46e+00    0    1.02e+00
2006 02 23  1315    53789   47700      0    1.47e+00    0    1.03e+00
2006 02 23  1320    53789   48000      0    1.46e+00    0    1.02e+00
2006 02 23  1325    53789   48300      0    1.52e+00    0    1.06e+00
2006 02 23  1330    53789   48600      0    1.50e+00    0    1.05e+00
2006 02 23  1335    53789   48900      0    1.45e+00    0    1.02e+00
2006 02 23  1340    53789   49200      0    1.45e+00    0    1.02e+00
2006 02 23  1345    53789   49500      0    1.46e+00    0    1.03e+00
2006 02 23  1350    53789   49800      0    1.45e+00    0    1.01e+00
2006 02 23  1355    53789   50100      0    1.47e+00    0    1.04e+00
2006 02 23  1400    53789   50400      0    1.48e+00    0    1.03e+00
2006 02 23  1405    53789   50700      0    1.50e+00    0    1.06e+00
2006 02 23  1410    53789   51000      0    1.44e+00    0    1.01e+00
2006 02 23  1415    53789   51300      0    1.43e+00    0    1.00e+00
2006 02 23  1420    53789   51600      0    1.46e+00    0    1.02e+00
2006 02 23  1425    53789   51900      0    1.49e+00    0    1.05e+00
2006 02 23  1430    53789   52200      0    1.50e+00    0    1.06e+00
2006 02 23  1435    53789   52500      0    1.43e+00    0    1.01e+00
2006 02 23  1440    53789   52800      0    1.45e+00    0    1.01e+00
2006 02 23  1445    53789   53100      0    1.46e+00    0    1.03e+00
2006 02 23  1450    53789   53400      0    1.44e+00    0    1.01e+00
2006 02 23  1455    53789   53700      0    1.49e+00    0    1.04e+00
2006 02 23  1500    53789   54000      0    1.45e+00    0    1.02e+00
2006 02 23  1505    53789   54300      0    1.47e+00    0    1.03e+00
2006 02 23  1510    53789   54600      0    1.47e+00    0    1.04e+00
2006 02 23  1515    53789   54900      0    1.45e+00    0    1.01e+00
2006 02 23  1520    53789   55200      0    1.47e+00    0    1.04e+00
2006 02 23  1525    53789   55500      0    1.45e+00    0    1.03e+00
2006 02 23  1530    53789   55800      0    1.45e+00    0    1.01e+00
2006 02 23  1535    53789   56100      0    1.50e+00    0    1.05e+00
2006 02 23  1540    53789   56400      0    1.46e+00    0    1.02e+00
2006 02 23  1545    53789   56700      0    1.48e+00    0    1.04e+00
2006 02 23  1550    53789   57000      0    1.44e+00    0    1.02e+00
2006 02 23  1555    53789   57300      0    1.48e+00    0    1.03e+00
2006 02 23  1600    53789   57600      0    1.48e+00    0    1.04e+00
2006 02 23  1605    53789   57900      0    1.49e+00    0    1.04e+00
2006 02 23  1610    53789   58200      0    1.48e+00    0    1.04e+00
2006 02 23  1615    53789   58500      0    1.51e+00    0    1.07e+00
2006 02 23  1620    53789   58800      0    1.43e+00    0    1.01e+00
2006 02 23  1625    53789   59100      0    1.47e+00    0    1.03e+00
2006 02 23  1630    53789   59400      0    1.48e+00    0    1.03e+00
2006 02 23  1635    53789   59700      0    1.48e+00    0    1.03e+00
2006 02 23  1640    53789   60000      0    1.47e+00    0    1.04e+00
2006 02 23  1645    53789   60300      0    1.48e+00    0    1.04e+00
2006 02 23  1650    53789   60600      0    1.50e+00    0    1.05e+00
2006 02 23  1655    53789   60900      0    1.48e+00    0    1.05e+00
2006 02 23  1700    53789   61200      0    1.48e+00    0    1.05e+00
2006 02 23  1705    53789   61500      0    1.47e+00    0    1.04e+00
2006 02 23  1710    53789   61800      0    1.50e+00    0    1.05e+00
2006 02 23  1715    53789   62100      0    1.49e+00    0    1.04e+00
2006 02 23  1720    53789   62400      0    1.45e+00    0    1.02e+00
2006 02 23  1725    53789   62700      0    1.44e+00    0    1.01e+00
2006 02 23  1730    53789   63000      0    1.48e+00    0    1.04e+00
2006 02 23  1735    53789   63300      0    1.47e+00    0    1.04e+00
2006 02 23  1740    53789   63600      0    1.47e+00    0    1.04e+00
2006 02 23  1745    53789   63900      0    1.51e+00    0    1.06e+00
2006 02 23  1750    53789   64200      0    1.50e+00    0    1.07e+00
2006 02 23  1755    53789   64500      0    1.49e+00    0    1.04e+00
2006 02 23  1800    53789   64800      0    1.51e+00    0    1.06e+00
2006 02 23  1805    53789   65100      0    1.47e+00    0    1.04e+00
2006 02 23  1810    53789   65400      0    1.49e+00    0    1.05e+00
2006 02 23  1815    53789   65700      0    1.51e+00    0    1.07e+00
2006 02 23  1820    53789   66000      0    1.50e+00    0    1.05e+00
2006 02 23  1825    53789   66300      0    1.49e+00    0    1.05e+00
2006 02 23  1830    53789   66600      0    1.47e+00    0    1.04e+00
2006 02 23  1835    53789   66900      0    1.47e+00    0    1.03e+00
2006 02 23  1840    53789   67200      0    1.46e+00    0    1.03e+00
2006 02 23  1845    53789   67500      0    1.49e+00    0    1.04e+00
2006 02 23  1850    53789   67800      0    1.51e+00    0    1.05e+00
2006 02 23  1855    53789   68100      0    1.50e+00    0    1.05e+00
2006 02 23  1900    53789   68400      0    1.48e+00    0    1.05e+00
2006 02 23  1905    53789   68700      0    1.49e+00    0    1.05e+00
2006 02 23  1910    53789   69000      0    1.48e+00    0    1.04e+00
2006 02 23  1915    53789   69300      0    1.50e+00    0    1.07e+00
2006 02 23  1920    53789   69600      0    1.49e+00    0    1.06e+00
2006 02 23  1925    53789   69900      0    1.47e+00    0    1.03e+00
2006 02 23  1930    53789   70200      0    1.49e+00    0    1.03e+00
2006 02 23  1935    53789   70500      0    1.50e+00    0    1.04e+00
2006 02 23  1940    53789   70800      0    1.45e+00    0    1.02e+00
2006 02 23  1945    53789   71100      0    1.46e+00    0    1.03e+00
2006 02 23  1950    53789   71400      0    1.49e+00    0    1.05e+00
2006 02 23  1955    53789   71700      0    1.49e+00    0    1.06e+00
2006 02 23  2000    53789   72000      0    1.50e+00    0    1.06e+00
2006 02 23  2005    53789   72300      0    1.48e+00    0    1.03e+00
2006 02 23  2010    53789   72600      0    1.50e+00    0    1.05e+00
2006 02 23  2015    53789   72900      0    1.49e+00    0    1.04e+00
2006 02 23  2020    53789   73200      0    1.47e+00    0    1.03e+00
2006 02 23  2025    53789   73500      0    1.48e+00    0    1.05e+00
2006 02 23  2030    53789   73800      0    1.46e+00    0    1.02e+00
2006 02 23  2035    53789   74100      0    1.52e+00    0    1.07e+00
2006 02 23  2040    53789   74400      0    1.48e+00    0    1.03e+00
2006 02 23  2045    53789   74700      0    1.48e+00    0    1.04e+00
2006 02 23  2050    53789   75000      0    1.54e+00    0    1.08e+00
2006 02 23  2055    53789   75300      0    1.51e+00    0    1.05e+00
2006 02 23  2100    53789   75600      0    1.47e+00    0    1.03e+00
2006 02 23  2105    53789   75900      0    1.48e+00    0    1.04e+00
2006 02 23  2110    53789   76200      0    1.49e+00    0    1.05e+00
2006 02 23  2115    53789   76500      0    1.51e+00    0    1.06e+00
2006 02 23  2120    53789   76800      0    1.46e+00    0    1.02e+00
2006 02 23  2125    53789   77100      0    1.49e+00    0    1.05e+00
2006 02 23  2130    53789   77400      0    1.48e+00    0    1.05e+00
2006 02 23  2135    53789   77700      0    1.48e+00    0    1.04e+00
2006 02 23  2140    53789   78000      0    1.52e+00    0    1.07e+00
2006 02 23  2145    53789   78300      0    1.51e+00    0    1.07e+00
2006 02 23  2150    53789   78600      0    1.48e+00    0    1.03e+00
2006 02 23  2155    53789   78900      0    1.49e+00    0    1.05e+00
2006 02 23  2200    53789   79200      0    1.45e+00    0    1.02e+00
2006 02 23  2205    53789   79500      0    1.49e+00    0    1.04e+00
2006 02 23  2210    53789   79800      0    1.49e+00    0    1.04e+00
2006 02 23  2215    53789   80100      0    1.47e+00    0    1.02e+00
2006 02 23  2220    53789   80400      0    1.51e+00    0    1.05e+00
2006 02 23  2225    53789   80700      0    1.49e+00    0    1.04e+00
2006 02 23  2230    53789   81000      0    1.49e+00    0    1.04e+00
2006 02 23  2235    53789   81300      0    1.48e+00    0    1.04e+00
2006 02 23  2240    53789   81600      0    1.50e+00    0    1.05e+00
2006 02 23  2245    53789   81900      0    1.51e+00    0    1.06e+00
2006 02 23  2250    53789   82200      0    1.46e+00    0    1.03e+00
2006 02 23  2255    53789   82500      0    1.50e+00    0    1.06e+00
2006 02 23  2300    53789   82800      0    1.50e+00    0    1.05e+00
2006 02 23  2305    53789   83100      0    1.46e+00    0    1.04e+00
2006 02 23  2310    53789   83400      0    1.46e+00    0    1.02e+00
2006 02 23  2315    53789   83700      0    1.46e+00    0    1.03e+00
2006 02 23  2320    53789   84000      0    1.49e+00    0    1.04e+00
2006 02 23  2325    53789   84300      0    1.50e+00    0    1.05e+00
2006 02 23  2330    53789   84600      0    1.45e+00    0    1.02e+00
2006 02 23  2335    53789   84900      0    1.45e+00    0    1.02e+00
2006 02 23  2340    53789   85200      0    1.48e+00    0    1.03e+00
2006 02 23  2345    53789   85500      0    1.50e+00    0    1.05e+00
2006 02 23  2350    53789   85800      0    1.48e+00    0    1.04e+00
2006 02 23  2355    53789   86100      0    1.45e+00    0    1.01e+00
