:Data_list: 20060405_ace_sis_5m.txt
:Created: 2006 Apr 06 0011 UT
# Prepared by the U.S. Dept. of Commerce, NOAA, Space Environment Center.
# Please send comments and suggestions to SEC.Webmaster@noaa.gov 
# 
# Units: proton flux p/cs2-sec-ster
# Status(S): 0 = nominal data, 1 to 8 = bad data record, 9 = no data
# Missing data values: -1.00e+05
# Source: ACE Satellite - Solar Isotope Spectrometer
#
# 5-minute averaged Real-time Integral Flux of High-energy Solar Protons
# 
#                 Modified Seconds
# UT Date   Time   Julian  of the      ---- Integral Proton Flux ----
# YR MO DA  HHMM     Day     Day       S    > 10 MeV    S    > 30 MeV
#--------------------------------------------------------------------
2006 04 05  0000    53830       0      0    1.58e+00    0    1.11e+00
2006 04 05  0005    53830     300      0    1.57e+00    0    1.10e+00
2006 04 05  0010    53830     600      0    1.59e+00    0    1.11e+00
2006 04 05  0015    53830     900      0    1.57e+00    0    1.10e+00
2006 04 05  0020    53830    1200      0    1.52e+00    0    1.07e+00
2006 04 05  0025    53830    1500      0    1.57e+00    0    1.09e+00
2006 04 05  0030    53830    1800      0    1.54e+00    0    1.08e+00
2006 04 05  0035    53830    2100      0    1.57e+00    0    1.11e+00
2006 04 05  0040    53830    2400      0    1.59e+00    0    1.12e+00
2006 04 05  0045    53830    2700      0    1.52e+00    0    1.07e+00
2006 04 05  0050    53830    3000      0    1.51e+00    0    1.06e+00
2006 04 05  0055    53830    3300      0    1.57e+00    0    1.12e+00
2006 04 05  0100    53830    3600      0    1.57e+00    0    1.11e+00
2006 04 05  0105    53830    3900      0    1.57e+00    0    1.10e+00
2006 04 05  0110    53830    4200      0    1.58e+00    0    1.11e+00
2006 04 05  0115    53830    4500      0    1.55e+00    0    1.10e+00
2006 04 05  0120    53830    4800      0    1.58e+00    0    1.12e+00
2006 04 05  0125    53830    5100      0    1.55e+00    0    1.10e+00
2006 04 05  0130    53830    5400      0    1.53e+00    0    1.07e+00
2006 04 05  0135    53830    5700      0    1.57e+00    0    1.11e+00
2006 04 05  0140    53830    6000      0    1.60e+00    0    1.12e+00
2006 04 05  0145    53830    6300      0    1.56e+00    0    1.09e+00
2006 04 05  0150    53830    6600      0    1.56e+00    0    1.09e+00
2006 04 05  0155    53830    6900      0    1.59e+00    0    1.11e+00
2006 04 05  0200    53830    7200      0    1.59e+00    0    1.11e+00
2006 04 05  0205    53830    7500      0    1.55e+00    0    1.09e+00
2006 04 05  0210    53830    7800      0    1.58e+00    0    1.10e+00
2006 04 05  0215    53830    8100      0    1.54e+00    0    1.09e+00
2006 04 05  0220    53830    8400      0    1.57e+00    0    1.11e+00
2006 04 05  0225    53830    8700      0    1.54e+00    0    1.07e+00
2006 04 05  0230    53830    9000      0    1.55e+00    0    1.08e+00
2006 04 05  0235    53830    9300      0    1.58e+00    0    1.11e+00
2006 04 05  0240    53830    9600      0    1.56e+00    0    1.10e+00
2006 04 05  0245    53830    9900      0    1.58e+00    0    1.11e+00
2006 04 05  0250    53830   10200      0    1.56e+00    0    1.08e+00
2006 04 05  0255    53830   10500      0    1.59e+00    0    1.13e+00
2006 04 05  0300    53830   10800      0    1.56e+00    0    1.10e+00
2006 04 05  0305    53830   11100      0    1.53e+00    0    1.07e+00
2006 04 05  0310    53830   11400      0    1.57e+00    0    1.10e+00
2006 04 05  0315    53830   11700      0    1.59e+00    0    1.12e+00
2006 04 05  0320    53830   12000      0    1.58e+00    0    1.11e+00
2006 04 05  0325    53830   12300      0    1.54e+00    0    1.07e+00
2006 04 05  0330    53830   12600      0    1.61e+00    0    1.13e+00
2006 04 05  0335    53830   12900      0    1.53e+00    0    1.08e+00
2006 04 05  0340    53830   13200      0    1.55e+00    0    1.09e+00
2006 04 05  0345    53830   13500      0    1.54e+00    0    1.08e+00
2006 04 05  0350    53830   13800      0    1.58e+00    0    1.10e+00
2006 04 05  0355    53830   14100      0    1.55e+00    0    1.09e+00
2006 04 05  0400    53830   14400      0    1.55e+00    0    1.08e+00
2006 04 05  0405    53830   14700      0    1.57e+00    0    1.11e+00
2006 04 05  0410    53830   15000      0    1.56e+00    0    1.10e+00
2006 04 05  0415    53830   15300      0    1.56e+00    0    1.09e+00
2006 04 05  0420    53830   15600      0    1.55e+00    0    1.09e+00
2006 04 05  0425    53830   15900      0    1.53e+00    0    1.07e+00
2006 04 05  0430    53830   16200      0    1.54e+00    0    1.08e+00
2006 04 05  0435    53830   16500      0    1.53e+00    0    1.08e+00
2006 04 05  0440    53830   16800      0    1.53e+00    0    1.07e+00
2006 04 05  0445    53830   17100      0    1.55e+00    0    1.10e+00
2006 04 05  0450    53830   17400      0    1.55e+00    0    1.08e+00
2006 04 05  0455    53830   17700      0    1.54e+00    0    1.08e+00
2006 04 05  0500    53830   18000      0    1.57e+00    0    1.10e+00
2006 04 05  0505    53830   18300      0    1.53e+00    0    1.08e+00
2006 04 05  0510    53830   18600      0    1.56e+00    0    1.09e+00
2006 04 05  0515    53830   18900      0    1.57e+00    0    1.10e+00
2006 04 05  0520    53830   19200      0    1.52e+00    0    1.06e+00
2006 04 05  0525    53830   19500      0    1.56e+00    0    1.10e+00
2006 04 05  0530    53830   19800      0    1.56e+00    0    1.08e+00
2006 04 05  0535    53830   20100      0    1.57e+00    0    1.11e+00
2006 04 05  0540    53830   20400      0    1.56e+00    0    1.09e+00
2006 04 05  0545    53830   20700      0    1.55e+00    0    1.09e+00
2006 04 05  0550    53830   21000      0    1.57e+00    0    1.10e+00
2006 04 05  0555    53830   21300      0    1.59e+00    0    1.12e+00
2006 04 05  0600    53830   21600      0    1.60e+00    0    1.13e+00
2006 04 05  0605    53830   21900      0    1.55e+00    0    1.09e+00
2006 04 05  0610    53830   22200      0    1.59e+00    0    1.12e+00
2006 04 05  0615    53830   22500      0    1.60e+00    0    1.12e+00
2006 04 05  0620    53830   22800      0    1.60e+00    0    1.12e+00
2006 04 05  0625    53830   23100      0    1.61e+00    0    1.12e+00
2006 04 05  0630    53830   23400      0    1.58e+00    0    1.12e+00
2006 04 05  0635    53830   23700      0    1.54e+00    0    1.08e+00
2006 04 05  0640    53830   24000      0    1.56e+00    0    1.08e+00
2006 04 05  0645    53830   24300      0    1.60e+00    0    1.12e+00
2006 04 05  0650    53830   24600      0    1.60e+00    0    1.12e+00
2006 04 05  0655    53830   24900      0    1.56e+00    0    1.11e+00
2006 04 05  0700    53830   25200      0    1.54e+00    0    1.07e+00
2006 04 05  0705    53830   25500      0    1.57e+00    0    1.09e+00
2006 04 05  0710    53830   25800      0    1.57e+00    0    1.09e+00
2006 04 05  0715    53830   26100      0    1.56e+00    0    1.09e+00
2006 04 05  0720    53830   26400      0    1.55e+00    0    1.10e+00
2006 04 05  0725    53830   26700      0    1.56e+00    0    1.08e+00
2006 04 05  0730    53830   27000      0    1.56e+00    0    1.08e+00
2006 04 05  0735    53830   27300      0    1.56e+00    0    1.10e+00
2006 04 05  0740    53830   27600      0    1.55e+00    0    1.08e+00
2006 04 05  0745    53830   27900      0    1.58e+00    0    1.09e+00
2006 04 05  0750    53830   28200      0    1.54e+00    0    1.07e+00
2006 04 05  0755    53830   28500      0    1.60e+00    0    1.14e+00
2006 04 05  0800    53830   28800      0    1.53e+00    0    1.08e+00
2006 04 05  0805    53830   29100      0    1.57e+00    0    1.11e+00
2006 04 05  0810    53830   29400      0    1.57e+00    0    1.10e+00
2006 04 05  0815    53830   29700      0    1.58e+00    0    1.11e+00
2006 04 05  0820    53830   30000      0    1.56e+00    0    1.09e+00
2006 04 05  0825    53830   30300      0    1.56e+00    0    1.10e+00
2006 04 05  0830    53830   30600      0    1.56e+00    0    1.09e+00
2006 04 05  0835    53830   30900      0    1.57e+00    0    1.10e+00
2006 04 05  0840    53830   31200      0    1.57e+00    0    1.10e+00
2006 04 05  0845    53830   31500      0    1.54e+00    0    1.09e+00
2006 04 05  0850    53830   31800      0    1.56e+00    0    1.10e+00
2006 04 05  0855    53830   32100      0    1.57e+00    0    1.09e+00
2006 04 05  0900    53830   32400      0    1.56e+00    0    1.09e+00
2006 04 05  0905    53830   32700      0    1.59e+00    0    1.13e+00
2006 04 05  0910    53830   33000      0    1.59e+00    0    1.12e+00
2006 04 05  0915    53830   33300      0    1.56e+00    0    1.09e+00
2006 04 05  0920    53830   33600      0    1.59e+00    0    1.12e+00
2006 04 05  0925    53830   33900      0    1.54e+00    0    1.07e+00
2006 04 05  0930    53830   34200      0    1.56e+00    0    1.10e+00
2006 04 05  0935    53830   34500      0    1.58e+00    0    1.11e+00
2006 04 05  0940    53830   34800      0    1.59e+00    0    1.10e+00
2006 04 05  0945    53830   35100      0    1.58e+00    0    1.13e+00
2006 04 05  0950    53830   35400      0    1.59e+00    0    1.13e+00
2006 04 05  0955    53830   35700      0    1.58e+00    0    1.11e+00
2006 04 05  1000    53830   36000      0    1.62e+00    0    1.14e+00
2006 04 05  1005    53830   36300      0    1.61e+00    0    1.14e+00
2006 04 05  1010    53830   36600      0    1.59e+00    0    1.12e+00
2006 04 05  1015    53830   36900      0    1.60e+00    0    1.12e+00
2006 04 05  1020    53830   37200      0    1.57e+00    0    1.11e+00
2006 04 05  1025    53830   37500      0    1.61e+00    0    1.13e+00
2006 04 05  1030    53830   37800      0    1.58e+00    0    1.11e+00
2006 04 05  1035    53830   38100      0    1.56e+00    0    1.09e+00
2006 04 05  1040    53830   38400      0    1.62e+00    0    1.13e+00
2006 04 05  1045    53830   38700      0    1.58e+00    0    1.10e+00
2006 04 05  1050    53830   39000      0    1.60e+00    0    1.12e+00
2006 04 05  1055    53830   39300      0    1.58e+00    0    1.11e+00
2006 04 05  1100    53830   39600      0    1.56e+00    0    1.10e+00
2006 04 05  1105    53830   39900      0    1.59e+00    0    1.12e+00
2006 04 05  1110    53830   40200      0    1.56e+00    0    1.09e+00
2006 04 05  1115    53830   40500      0    1.56e+00    0    1.10e+00
2006 04 05  1120    53830   40800      0    1.56e+00    0    1.09e+00
2006 04 05  1125    53830   41100      0    1.57e+00    0    1.10e+00
2006 04 05  1130    53830   41400      0    1.60e+00    0    1.13e+00
2006 04 05  1135    53830   41700      0    1.61e+00    0    1.13e+00
2006 04 05  1140    53830   42000      0    1.61e+00    0    1.13e+00
2006 04 05  1145    53830   42300      0    1.60e+00    0    1.13e+00
2006 04 05  1150    53830   42600      0    1.58e+00    0    1.11e+00
2006 04 05  1155    53830   42900      0    1.60e+00    0    1.14e+00
2006 04 05  1200    53830   43200      0    1.56e+00    0    1.10e+00
2006 04 05  1205    53830   43500      0    1.59e+00    0    1.11e+00
2006 04 05  1210    53830   43800      0    1.56e+00    0    1.08e+00
2006 04 05  1215    53830   44100      0    1.59e+00    0    1.11e+00
2006 04 05  1220    53830   44400      0    1.56e+00    0    1.09e+00
2006 04 05  1225    53830   44700      0    1.57e+00    0    1.10e+00
2006 04 05  1230    53830   45000      0    1.58e+00    0    1.10e+00
2006 04 05  1235    53830   45300      0    1.59e+00    0    1.11e+00
2006 04 05  1240    53830   45600      0    1.57e+00    0    1.10e+00
2006 04 05  1245    53830   45900      0    1.61e+00    0    1.13e+00
2006 04 05  1250    53830   46200      0    1.61e+00    0    1.12e+00
2006 04 05  1255    53830   46500      0    1.62e+00    0    1.13e+00
2006 04 05  1300    53830   46800      0    1.61e+00    0    1.12e+00
2006 04 05  1305    53830   47100      0    1.59e+00    0    1.12e+00
2006 04 05  1310    53830   47400      0    1.55e+00    0    1.10e+00
2006 04 05  1315    53830   47700      0    1.61e+00    0    1.13e+00
2006 04 05  1320    53830   48000      0    1.59e+00    0    1.12e+00
2006 04 05  1325    53830   48300      0    1.60e+00    0    1.12e+00
2006 04 05  1330    53830   48600      0    1.56e+00    0    1.09e+00
2006 04 05  1335    53830   48900      0    1.60e+00    0    1.13e+00
2006 04 05  1340    53830   49200      0    1.61e+00    0    1.14e+00
2006 04 05  1345    53830   49500      0    1.56e+00    0    1.10e+00
2006 04 05  1350    53830   49800      0    1.59e+00    0    1.12e+00
2006 04 05  1355    53830   50100      0    1.58e+00    0    1.11e+00
2006 04 05  1400    53830   50400      0    1.58e+00    0    1.11e+00
2006 04 05  1405    53830   50700      0    1.55e+00    0    1.09e+00
2006 04 05  1410    53830   51000      0    1.62e+00    0    1.14e+00
2006 04 05  1415    53830   51300      0    1.58e+00    0    1.13e+00
2006 04 05  1420    53830   51600      0    1.59e+00    0    1.12e+00
2006 04 05  1425    53830   51900      0    1.61e+00    0    1.13e+00
2006 04 05  1430    53830   52200      0    1.56e+00    0    1.10e+00
2006 04 05  1435    53830   52500      0    1.60e+00    0    1.12e+00
2006 04 05  1440    53830   52800      0    1.61e+00    0    1.13e+00
2006 04 05  1445    53830   53100      0    1.60e+00    0    1.13e+00
2006 04 05  1450    53830   53400      0    1.59e+00    0    1.12e+00
2006 04 05  1455    53830   53700      0    1.62e+00    0    1.13e+00
2006 04 05  1500    53830   54000      0    1.60e+00    0    1.12e+00
2006 04 05  1505    53830   54300      0    1.56e+00    0    1.09e+00
2006 04 05  1510    53830   54600      0    1.59e+00    0    1.10e+00
2006 04 05  1515    53830   54900      0    1.58e+00    0    1.10e+00
2006 04 05  1520    53830   55200      0    1.62e+00    0    1.14e+00
2006 04 05  1525    53830   55500      0    1.58e+00    0    1.11e+00
2006 04 05  1530    53830   55800      0    1.54e+00    0    1.09e+00
2006 04 05  1535    53830   56100      0    1.57e+00    0    1.10e+00
2006 04 05  1540    53830   56400      0    1.56e+00    0    1.10e+00
2006 04 05  1545    53830   56700      0    1.59e+00    0    1.12e+00
2006 04 05  1550    53830   57000      0    1.58e+00    0    1.10e+00
2006 04 05  1555    53830   57300      0    1.60e+00    0    1.13e+00
2006 04 05  1600    53830   57600      0    1.57e+00    0    1.10e+00
2006 04 05  1605    53830   57900      0    1.58e+00    0    1.11e+00
2006 04 05  1610    53830   58200      0    1.59e+00    0    1.12e+00
2006 04 05  1615    53830   58500      0    1.58e+00    0    1.11e+00
2006 04 05  1620    53830   58800      0    1.53e+00    0    1.07e+00
2006 04 05  1625    53830   59100      0    1.55e+00    0    1.09e+00
2006 04 05  1630    53830   59400      0    1.60e+00    0    1.11e+00
2006 04 05  1635    53830   59700      0    1.55e+00    0    1.09e+00
2006 04 05  1640    53830   60000      0    1.60e+00    0    1.12e+00
2006 04 05  1645    53830   60300      0    1.58e+00    0    1.11e+00
2006 04 05  1650    53830   60600      0    1.58e+00    0    1.10e+00
2006 04 05  1655    53830   60900      0    1.58e+00    0    1.11e+00
2006 04 05  1700    53830   61200      0    1.55e+00    0    1.09e+00
2006 04 05  1705    53830   61500      0    1.61e+00    0    1.14e+00
2006 04 05  1710    53830   61800      0    1.60e+00    0    1.11e+00
2006 04 05  1715    53830   62100      0    1.58e+00    0    1.11e+00
2006 04 05  1720    53830   62400      0    1.62e+00    0    1.13e+00
2006 04 05  1725    53830   62700      0    1.59e+00    0    1.11e+00
2006 04 05  1730    53830   63000      0    1.57e+00    0    1.11e+00
2006 04 05  1735    53830   63300      0    1.56e+00    0    1.10e+00
2006 04 05  1740    53830   63600      0    1.59e+00    0    1.12e+00
2006 04 05  1745    53830   63900      0    1.61e+00    0    1.14e+00
2006 04 05  1750    53830   64200      0    1.61e+00    0    1.13e+00
2006 04 05  1755    53830   64500      0    1.55e+00    0    1.09e+00
2006 04 05  1800    53830   64800      0    1.58e+00    0    1.12e+00
2006 04 05  1805    53830   65100      0    1.55e+00    0    1.09e+00
2006 04 05  1810    53830   65400      0    1.59e+00    0    1.13e+00
2006 04 05  1815    53830   65700      0    1.57e+00    0    1.09e+00
2006 04 05  1820    53830   66000      0    1.55e+00    0    1.07e+00
2006 04 05  1825    53830   66300      0    1.59e+00    0    1.11e+00
2006 04 05  1830    53830   66600      0    1.57e+00    0    1.11e+00
2006 04 05  1835    53830   66900      0    1.56e+00    0    1.09e+00
2006 04 05  1840    53830   67200      0    1.55e+00    0    1.09e+00
2006 04 05  1845    53830   67500      0    1.55e+00    0    1.08e+00
2006 04 05  1850    53830   67800      0    1.57e+00    0    1.10e+00
2006 04 05  1855    53830   68100      0    1.60e+00    0    1.13e+00
2006 04 05  1900    53830   68400      0    1.59e+00    0    1.11e+00
2006 04 05  1905    53830   68700      0    1.56e+00    0    1.09e+00
2006 04 05  1910    53830   69000      0    1.58e+00    0    1.12e+00
2006 04 05  1915    53830   69300      0    1.57e+00    0    1.10e+00
2006 04 05  1920    53830   69600      0    1.57e+00    0    1.09e+00
2006 04 05  1925    53830   69900      0    1.56e+00    0    1.10e+00
2006 04 05  1930    53830   70200      0    1.57e+00    0    1.11e+00
2006 04 05  1935    53830   70500      0    1.59e+00    0    1.12e+00
2006 04 05  1940    53830   70800      0    1.50e+00    0    1.06e+00
2006 04 05  1945    53830   71100      0    1.57e+00    0    1.10e+00
2006 04 05  1950    53830   71400      0    1.52e+00    0    1.06e+00
2006 04 05  1955    53830   71700      0    1.60e+00    0    1.13e+00
2006 04 05  2000    53830   72000      0    1.61e+00    0    1.13e+00
2006 04 05  2005    53830   72300      0    1.58e+00    0    1.11e+00
2006 04 05  2010    53830   72600      0    1.56e+00    0    1.09e+00
2006 04 05  2015    53830   72900      0    1.58e+00    0    1.11e+00
2006 04 05  2020    53830   73200      0    1.56e+00    0    1.09e+00
2006 04 05  2025    53830   73500      0    1.56e+00    0    1.09e+00
2006 04 05  2030    53830   73800      0    1.58e+00    0    1.11e+00
2006 04 05  2035    53830   74100      0    1.55e+00    0    1.10e+00
2006 04 05  2040    53830   74400      0    1.53e+00    0    1.07e+00
2006 04 05  2045    53830   74700      0    1.60e+00    0    1.13e+00
2006 04 05  2050    53830   75000      0    1.62e+00    0    1.15e+00
2006 04 05  2055    53830   75300      0    1.52e+00    0    1.06e+00
2006 04 05  2100    53830   75600      0    1.60e+00    0    1.12e+00
2006 04 05  2105    53830   75900      0    1.58e+00    0    1.10e+00
2006 04 05  2110    53830   76200      0    1.59e+00    0    1.12e+00
2006 04 05  2115    53830   76500      0    1.59e+00    0    1.12e+00
2006 04 05  2120    53830   76800      0    1.53e+00    0    1.08e+00
2006 04 05  2125    53830   77100      0    1.56e+00    0    1.10e+00
2006 04 05  2130    53830   77400      0    1.58e+00    0    1.11e+00
2006 04 05  2135    53830   77700      0    1.60e+00    0    1.12e+00
2006 04 05  2140    53830   78000      0    1.53e+00    0    1.08e+00
2006 04 05  2145    53830   78300      0    1.61e+00    0    1.13e+00
2006 04 05  2150    53830   78600      0    1.47e+00    0    1.01e+00
2006 04 05  2155    53830   78900      0    1.61e+00    0    1.13e+00
2006 04 05  2200    53830   79200      0    1.56e+00    0    1.10e+00
2006 04 05  2205    53830   79500      0    1.55e+00    0    1.09e+00
2006 04 05  2210    53830   79800      0    1.57e+00    0    1.10e+00
2006 04 05  2215    53830   80100      0    1.51e+00    0    1.06e+00
2006 04 05  2220    53830   80400      0    1.59e+00    0    1.12e+00
2006 04 05  2225    53830   80700      0    1.56e+00    0    1.08e+00
2006 04 05  2230    53830   81000      0    1.53e+00    0    1.07e+00
2006 04 05  2235    53830   81300      0    1.57e+00    0    1.11e+00
2006 04 05  2240    53830   81600      0    1.56e+00    0    1.10e+00
2006 04 05  2245    53830   81900      0    1.56e+00    0    1.10e+00
2006 04 05  2250    53830   82200      0    1.43e+00    0    1.00e+00
2006 04 05  2255    53830   82500      0    1.59e+00    0    1.12e+00
2006 04 05  2300    53830   82800      0    1.57e+00    0    1.10e+00
2006 04 05  2305    53830   83100      0    1.52e+00    0    1.06e+00
2006 04 05  2310    53830   83400      0    1.64e+00    0    1.15e+00
2006 04 05  2315    53830   83700      0    1.60e+00    0    1.12e+00
2006 04 05  2320    53830   84000      0    1.54e+00    0    1.09e+00
2006 04 05  2325    53830   84300      0    1.57e+00    0    1.10e+00
2006 04 05  2330    53830   84600      0    1.55e+00    0    1.08e+00
2006 04 05  2335    53830   84900      0    1.57e+00    0    1.10e+00
2006 04 05  2340    53830   85200      0    1.53e+00    0    1.07e+00
2006 04 05  2345    53830   85500      0    1.57e+00    0    1.10e+00
2006 04 05  2350    53830   85800      0    1.57e+00    0    1.10e+00
2006 04 05  2355    53830   86100      0    1.57e+00    0    1.10e+00
