:Data_list: 20060416_ace_sis_5m.txt
:Created: 2006 Apr 17 0011 UT
# Prepared by the U.S. Dept. of Commerce, NOAA, Space Environment Center.
# Please send comments and suggestions to SEC.Webmaster@noaa.gov 
# 
# Units: proton flux p/cs2-sec-ster
# Status(S): 0 = nominal data, 1 to 8 = bad data record, 9 = no data
# Missing data values: -1.00e+05
# Source: ACE Satellite - Solar Isotope Spectrometer
#
# 5-minute averaged Real-time Integral Flux of High-energy Solar Protons
# 
#                 Modified Seconds
# UT Date   Time   Julian  of the      ---- Integral Proton Flux ----
# YR MO DA  HHMM     Day     Day       S    > 10 MeV    S    > 30 MeV
#--------------------------------------------------------------------
2006 04 16  0000    53841       0      0    1.53e+00    0    1.08e+00
2006 04 16  0005    53841     300      0    1.53e+00    0    1.07e+00
2006 04 16  0010    53841     600      0    1.54e+00    0    1.08e+00
2006 04 16  0015    53841     900      0    1.55e+00    0    1.08e+00
2006 04 16  0020    53841    1200      0    1.53e+00    0    1.08e+00
2006 04 16  0025    53841    1500      0    1.54e+00    0    1.08e+00
2006 04 16  0030    53841    1800      0    1.55e+00    0    1.08e+00
2006 04 16  0035    53841    2100      0    1.53e+00    0    1.08e+00
2006 04 16  0040    53841    2400      0    1.56e+00    0    1.09e+00
2006 04 16  0045    53841    2700      0    1.53e+00    0    1.08e+00
2006 04 16  0050    53841    3000      0    1.54e+00    0    1.07e+00
2006 04 16  0055    53841    3300      0    1.51e+00    0    1.07e+00
2006 04 16  0100    53841    3600      0    1.50e+00    0    1.05e+00
2006 04 16  0105    53841    3900      0    1.55e+00    0    1.08e+00
2006 04 16  0110    53841    4200      0    1.52e+00    0    1.06e+00
2006 04 16  0115    53841    4500      0    1.54e+00    0    1.08e+00
2006 04 16  0120    53841    4800      0    1.51e+00    0    1.06e+00
2006 04 16  0125    53841    5100      0    1.51e+00    0    1.05e+00
2006 04 16  0130    53841    5400      0    1.54e+00    0    1.08e+00
2006 04 16  0135    53841    5700      0    1.56e+00    0    1.09e+00
2006 04 16  0140    53841    6000      0    1.53e+00    0    1.07e+00
2006 04 16  0145    53841    6300      0    1.52e+00    0    1.07e+00
2006 04 16  0150    53841    6600      0    1.54e+00    0    1.08e+00
2006 04 16  0155    53841    6900      0    1.55e+00    0    1.09e+00
2006 04 16  0200    53841    7200      0    1.54e+00    0    1.08e+00
2006 04 16  0205    53841    7500      0    1.54e+00    0    1.09e+00
2006 04 16  0210    53841    7800      0    1.55e+00    0    1.09e+00
2006 04 16  0215    53841    8100      0    1.52e+00    0    1.06e+00
2006 04 16  0220    53841    8400      0    1.55e+00    0    1.09e+00
2006 04 16  0225    53841    8700      0    1.51e+00    0    1.05e+00
2006 04 16  0230    53841    9000      0    1.51e+00    0    1.06e+00
2006 04 16  0235    53841    9300      0    1.55e+00    0    1.09e+00
2006 04 16  0240    53841    9600      0    1.55e+00    0    1.08e+00
2006 04 16  0245    53841    9900      0    1.52e+00    0    1.06e+00
2006 04 16  0250    53841   10200      0    1.54e+00    0    1.07e+00
2006 04 16  0255    53841   10500      0    1.54e+00    0    1.08e+00
2006 04 16  0300    53841   10800      0    1.54e+00    0    1.09e+00
2006 04 16  0305    53841   11100      0    1.55e+00    0    1.08e+00
2006 04 16  0310    53841   11400      0    1.52e+00    0    1.07e+00
2006 04 16  0315    53841   11700      0    1.51e+00    0    1.07e+00
2006 04 16  0320    53841   12000      0    1.55e+00    0    1.09e+00
2006 04 16  0325    53841   12300      0    1.55e+00    0    1.10e+00
2006 04 16  0330    53841   12600      0    1.52e+00    0    1.07e+00
2006 04 16  0335    53841   12900      0    1.55e+00    0    1.08e+00
2006 04 16  0340    53841   13200      0    1.55e+00    0    1.09e+00
2006 04 16  0345    53841   13500      0    1.53e+00    0    1.07e+00
2006 04 16  0350    53841   13800      0    1.55e+00    0    1.09e+00
2006 04 16  0355    53841   14100      0    1.56e+00    0    1.10e+00
2006 04 16  0400    53841   14400      0    1.57e+00    0    1.10e+00
2006 04 16  0405    53841   14700      0    1.54e+00    0    1.08e+00
2006 04 16  0410    53841   15000      0    1.52e+00    0    1.06e+00
2006 04 16  0415    53841   15300      0    1.54e+00    0    1.08e+00
2006 04 16  0420    53841   15600      0    1.51e+00    0    1.05e+00
2006 04 16  0425    53841   15900      0    1.54e+00    0    1.08e+00
2006 04 16  0430    53841   16200      0    1.52e+00    0    1.06e+00
2006 04 16  0435    53841   16500      0    1.49e+00    0    1.05e+00
2006 04 16  0440    53841   16800      0    1.53e+00    0    1.07e+00
2006 04 16  0445    53841   17100      0    1.52e+00    0    1.06e+00
2006 04 16  0450    53841   17400      0    1.52e+00    0    1.08e+00
2006 04 16  0455    53841   17700      0    1.50e+00    0    1.06e+00
2006 04 16  0500    53841   18000      0    1.55e+00    0    1.09e+00
2006 04 16  0505    53841   18300      0    1.54e+00    0    1.08e+00
2006 04 16  0510    53841   18600      0    1.56e+00    0    1.09e+00
2006 04 16  0515    53841   18900      0    1.53e+00    0    1.07e+00
2006 04 16  0520    53841   19200      0    1.54e+00    0    1.09e+00
2006 04 16  0525    53841   19500      0    1.56e+00    0    1.09e+00
2006 04 16  0530    53841   19800      0    1.54e+00    0    1.09e+00
2006 04 16  0535    53841   20100      0    1.56e+00    0    1.11e+00
2006 04 16  0540    53841   20400      0    1.57e+00    0    1.10e+00
2006 04 16  0545    53841   20700      0    1.56e+00    0    1.09e+00
2006 04 16  0550    53841   21000      0    1.55e+00    0    1.08e+00
2006 04 16  0555    53841   21300      0    1.54e+00    0    1.08e+00
2006 04 16  0600    53841   21600      0    1.54e+00    0    1.07e+00
2006 04 16  0605    53841   21900      0    1.57e+00    0    1.10e+00
2006 04 16  0610    53841   22200      0    1.57e+00    0    1.11e+00
2006 04 16  0615    53841   22500      0    1.53e+00    0    1.06e+00
2006 04 16  0620    53841   22800      0    1.52e+00    0    1.06e+00
2006 04 16  0625    53841   23100      0    1.50e+00    0    1.04e+00
2006 04 16  0630    53841   23400      0    1.52e+00    0    1.06e+00
2006 04 16  0635    53841   23700      0    1.55e+00    0    1.08e+00
2006 04 16  0640    53841   24000      0    1.56e+00    0    1.10e+00
2006 04 16  0645    53841   24300      0    1.57e+00    0    1.11e+00
2006 04 16  0650    53841   24600      0    1.54e+00    0    1.09e+00
2006 04 16  0655    53841   24900      0    1.55e+00    0    1.09e+00
2006 04 16  0700    53841   25200      0    1.56e+00    0    1.09e+00
2006 04 16  0705    53841   25500      0    1.52e+00    0    1.07e+00
2006 04 16  0710    53841   25800      0    1.58e+00    0    1.12e+00
2006 04 16  0715    53841   26100      0    1.54e+00    0    1.09e+00
2006 04 16  0720    53841   26400      0    1.54e+00    0    1.08e+00
2006 04 16  0725    53841   26700      0    1.62e+00    0    1.15e+00
2006 04 16  0730    53841   27000      0    1.54e+00    0    1.08e+00
2006 04 16  0735    53841   27300      0    1.55e+00    0    1.10e+00
2006 04 16  0740    53841   27600      0    1.54e+00    0    1.09e+00
2006 04 16  0745    53841   27900      0    1.59e+00    0    1.12e+00
2006 04 16  0750    53841   28200      0    1.57e+00    0    1.09e+00
2006 04 16  0755    53841   28500      0    1.55e+00    0    1.09e+00
2006 04 16  0800    53841   28800      0    1.54e+00    0    1.07e+00
2006 04 16  0805    53841   29100      0    1.55e+00    0    1.10e+00
2006 04 16  0810    53841   29400      0    1.56e+00    0    1.09e+00
2006 04 16  0815    53841   29700      0    1.58e+00    0    1.11e+00
2006 04 16  0820    53841   30000      0    1.53e+00    0    1.07e+00
2006 04 16  0825    53841   30300      0    1.55e+00    0    1.09e+00
2006 04 16  0830    53841   30600      0    1.59e+00    0    1.13e+00
2006 04 16  0835    53841   30900      0    1.57e+00    0    1.10e+00
2006 04 16  0840    53841   31200      0    1.57e+00    0    1.11e+00
2006 04 16  0845    53841   31500      0    1.53e+00    0    1.07e+00
2006 04 16  0850    53841   31800      0    1.55e+00    0    1.09e+00
2006 04 16  0855    53841   32100      0    1.53e+00    0    1.07e+00
2006 04 16  0900    53841   32400      0    1.57e+00    0    1.10e+00
2006 04 16  0905    53841   32700      0    1.55e+00    0    1.08e+00
2006 04 16  0910    53841   33000      0    1.51e+00    0    1.06e+00
2006 04 16  0915    53841   33300      0    1.54e+00    0    1.08e+00
2006 04 16  0920    53841   33600      0    1.55e+00    0    1.09e+00
2006 04 16  0925    53841   33900      0    1.58e+00    0    1.11e+00
2006 04 16  0930    53841   34200      0    1.56e+00    0    1.10e+00
2006 04 16  0935    53841   34500      0    1.55e+00    0    1.09e+00
2006 04 16  0940    53841   34800      0    1.53e+00    0    1.06e+00
2006 04 16  0945    53841   35100      0    1.58e+00    0    1.11e+00
2006 04 16  0950    53841   35400      0    1.55e+00    0    1.08e+00
2006 04 16  0955    53841   35700      0    1.54e+00    0    1.08e+00
2006 04 16  1000    53841   36000      0    1.57e+00    0    1.10e+00
2006 04 16  1005    53841   36300      0    1.58e+00    0    1.11e+00
2006 04 16  1010    53841   36600      0    1.56e+00    0    1.10e+00
2006 04 16  1015    53841   36900      0    1.55e+00    0    1.09e+00
2006 04 16  1020    53841   37200      0    1.56e+00    0    1.09e+00
2006 04 16  1025    53841   37500      0    1.56e+00    0    1.09e+00
2006 04 16  1030    53841   37800      0    1.53e+00    0    1.07e+00
2006 04 16  1035    53841   38100      0    1.55e+00    0    1.09e+00
2006 04 16  1040    53841   38400      0    1.54e+00    0    1.07e+00
2006 04 16  1045    53841   38700      0    1.55e+00    0    1.07e+00
2006 04 16  1050    53841   39000      0    1.52e+00    0    1.07e+00
2006 04 16  1055    53841   39300      0    1.63e+00    0    1.15e+00
2006 04 16  1100    53841   39600      0    1.55e+00    0    1.07e+00
2006 04 16  1105    53841   39900      0    1.55e+00    0    1.08e+00
2006 04 16  1110    53841   40200      0    1.56e+00    0    1.08e+00
2006 04 16  1115    53841   40500      0    1.57e+00    0    1.09e+00
2006 04 16  1120    53841   40800      0    1.55e+00    0    1.09e+00
2006 04 16  1125    53841   41100      0    1.55e+00    0    1.08e+00
2006 04 16  1130    53841   41400      0    1.53e+00    0    1.06e+00
2006 04 16  1135    53841   41700      0    1.54e+00    0    1.09e+00
2006 04 16  1140    53841   42000      0    1.56e+00    0    1.10e+00
2006 04 16  1145    53841   42300      0    1.55e+00    0    1.08e+00
2006 04 16  1150    53841   42600      0    1.59e+00    0    1.11e+00
2006 04 16  1155    53841   42900      0    1.54e+00    0    1.07e+00
2006 04 16  1200    53841   43200      0    1.56e+00    0    1.09e+00
2006 04 16  1205    53841   43500      0    1.54e+00    0    1.09e+00
2006 04 16  1210    53841   43800      0    1.55e+00    0    1.09e+00
2006 04 16  1215    53841   44100      0    1.56e+00    0    1.08e+00
2006 04 16  1220    53841   44400      0    1.55e+00    0    1.09e+00
2006 04 16  1225    53841   44700      0    1.56e+00    0    1.10e+00
2006 04 16  1230    53841   45000      0    1.51e+00    0    1.06e+00
2006 04 16  1235    53841   45300      0    1.57e+00    0    1.10e+00
2006 04 16  1240    53841   45600      0    1.56e+00    0    1.10e+00
2006 04 16  1245    53841   45900      0    1.60e+00    0    1.11e+00
2006 04 16  1250    53841   46200      0    1.56e+00    0    1.09e+00
2006 04 16  1255    53841   46500      0    1.54e+00    0    1.08e+00
2006 04 16  1300    53841   46800      0    1.55e+00    0    1.09e+00
2006 04 16  1305    53841   47100      0    1.54e+00    0    1.08e+00
2006 04 16  1310    53841   47400      0    1.53e+00    0    1.08e+00
2006 04 16  1315    53841   47700      0    1.53e+00    0    1.07e+00
2006 04 16  1320    53841   48000      0    1.57e+00    0    1.10e+00
2006 04 16  1325    53841   48300      0    1.54e+00    0    1.09e+00
2006 04 16  1330    53841   48600      0    1.54e+00    0    1.08e+00
2006 04 16  1335    53841   48900      0    1.55e+00    0    1.09e+00
2006 04 16  1340    53841   49200      0    1.53e+00    0    1.07e+00
2006 04 16  1345    53841   49500      0    1.55e+00    0    1.09e+00
2006 04 16  1350    53841   49800      0    1.55e+00    0    1.09e+00
2006 04 16  1355    53841   50100      0    1.56e+00    0    1.09e+00
2006 04 16  1400    53841   50400      0    1.56e+00    0    1.09e+00
2006 04 16  1405    53841   50700      0    1.54e+00    0    1.08e+00
2006 04 16  1410    53841   51000      0    1.55e+00    0    1.08e+00
2006 04 16  1415    53841   51300      0    1.56e+00    0    1.10e+00
2006 04 16  1420    53841   51600      0    1.56e+00    0    1.10e+00
2006 04 16  1425    53841   51900      0    1.51e+00    0    1.07e+00
2006 04 16  1430    53841   52200      0    1.57e+00    0    1.11e+00
2006 04 16  1435    53841   52500      0    1.58e+00    0    1.10e+00
2006 04 16  1440    53841   52800      0    1.52e+00    0    1.07e+00
2006 04 16  1445    53841   53100      0    1.53e+00    0    1.07e+00
2006 04 16  1450    53841   53400      0    1.52e+00    0    1.07e+00
2006 04 16  1455    53841   53700      0    1.59e+00    0    1.11e+00
2006 04 16  1500    53841   54000      0    1.57e+00    0    1.11e+00
2006 04 16  1505    53841   54300      0    1.53e+00    0    1.07e+00
2006 04 16  1510    53841   54600      0    1.60e+00    0    1.12e+00
2006 04 16  1515    53841   54900      0    1.57e+00    0    1.11e+00
2006 04 16  1520    53841   55200      0    1.54e+00    0    1.08e+00
2006 04 16  1525    53841   55500      0    1.58e+00    0    1.11e+00
2006 04 16  1530    53841   55800      0    1.53e+00    0    1.08e+00
2006 04 16  1535    53841   56100      0    1.54e+00    0    1.09e+00
2006 04 16  1540    53841   56400      0    1.55e+00    0    1.09e+00
2006 04 16  1545    53841   56700      0    1.52e+00    0    1.07e+00
2006 04 16  1550    53841   57000      0    1.53e+00    0    1.06e+00
2006 04 16  1555    53841   57300      0    1.57e+00    0    1.11e+00
2006 04 16  1600    53841   57600      0    1.54e+00    0    1.08e+00
2006 04 16  1605    53841   57900      0    1.54e+00    0    1.08e+00
2006 04 16  1610    53841   58200      0    1.55e+00    0    1.08e+00
2006 04 16  1615    53841   58500      0    1.55e+00    0    1.07e+00
2006 04 16  1620    53841   58800      0    1.54e+00    0    1.09e+00
2006 04 16  1625    53841   59100      0    1.54e+00    0    1.08e+00
2006 04 16  1630    53841   59400      0    1.54e+00    0    1.07e+00
2006 04 16  1635    53841   59700      0    1.57e+00    0    1.10e+00
2006 04 16  1640    53841   60000      0    1.53e+00    0    1.08e+00
2006 04 16  1645    53841   60300      0    1.57e+00    0    1.10e+00
2006 04 16  1650    53841   60600      0    1.54e+00    0    1.08e+00
2006 04 16  1655    53841   60900      0    1.54e+00    0    1.09e+00
2006 04 16  1700    53841   61200      0    1.55e+00    0    1.09e+00
2006 04 16  1705    53841   61500      0    1.53e+00    0    1.07e+00
2006 04 16  1710    53841   61800      0    1.56e+00    0    1.09e+00
2006 04 16  1715    53841   62100      0    1.56e+00    0    1.09e+00
2006 04 16  1720    53841   62400      0    1.54e+00    0    1.07e+00
2006 04 16  1725    53841   62700      0    1.54e+00    0    1.07e+00
2006 04 16  1730    53841   63000      0    1.55e+00    0    1.09e+00
2006 04 16  1735    53841   63300      0    1.54e+00    0    1.08e+00
2006 04 16  1740    53841   63600      0    1.56e+00    0    1.10e+00
2006 04 16  1745    53841   63900      0    1.58e+00    0    1.11e+00
2006 04 16  1750    53841   64200      0    1.55e+00    0    1.09e+00
2006 04 16  1755    53841   64500      0    1.56e+00    0    1.09e+00
2006 04 16  1800    53841   64800      0    1.54e+00    0    1.07e+00
2006 04 16  1805    53841   65100      0    1.53e+00    0    1.07e+00
2006 04 16  1810    53841   65400      0    1.53e+00    0    1.07e+00
2006 04 16  1815    53841   65700      0    1.56e+00    0    1.09e+00
2006 04 16  1820    53841   66000      0    1.53e+00    0    1.08e+00
2006 04 16  1825    53841   66300      0    1.55e+00    0    1.09e+00
2006 04 16  1830    53841   66600      0    1.54e+00    0    1.09e+00
2006 04 16  1835    53841   66900      0    1.52e+00    0    1.07e+00
2006 04 16  1840    53841   67200      0    1.55e+00    0    1.09e+00
2006 04 16  1845    53841   67500      0    1.56e+00    0    1.09e+00
2006 04 16  1850    53841   67800      0    1.56e+00    0    1.08e+00
2006 04 16  1855    53841   68100      0    1.54e+00    0    1.07e+00
2006 04 16  1900    53841   68400      0    1.53e+00    0    1.07e+00
2006 04 16  1905    53841   68700      0    1.57e+00    0    1.10e+00
2006 04 16  1910    53841   69000      0    1.55e+00    0    1.09e+00
2006 04 16  1915    53841   69300      0    1.58e+00    0    1.11e+00
2006 04 16  1920    53841   69600      0    1.55e+00    0    1.09e+00
2006 04 16  1925    53841   69900      0    1.56e+00    0    1.10e+00
2006 04 16  1930    53841   70200      0    1.53e+00    0    1.06e+00
2006 04 16  1935    53841   70500      0    1.56e+00    0    1.10e+00
2006 04 16  1940    53841   70800      0    1.54e+00    0    1.08e+00
2006 04 16  1945    53841   71100      0    1.54e+00    0    1.09e+00
2006 04 16  1950    53841   71400      0    1.54e+00    0    1.08e+00
2006 04 16  1955    53841   71700      0    1.54e+00    0    1.07e+00
2006 04 16  2000    53841   72000      0    1.55e+00    0    1.10e+00
2006 04 16  2005    53841   72300      0    1.51e+00    0    1.06e+00
2006 04 16  2010    53841   72600      0    1.53e+00    0    1.07e+00
2006 04 16  2015    53841   72900      0    1.56e+00    0    1.09e+00
2006 04 16  2020    53841   73200      0    1.52e+00    0    1.06e+00
2006 04 16  2025    53841   73500      0    1.53e+00    0    1.08e+00
2006 04 16  2030    53841   73800      0    1.56e+00    0    1.09e+00
2006 04 16  2035    53841   74100      0    1.51e+00    0    1.06e+00
2006 04 16  2040    53841   74400      0    1.56e+00    0    1.09e+00
2006 04 16  2045    53841   74700      0    1.57e+00    0    1.10e+00
2006 04 16  2050    53841   75000      0    1.53e+00    0    1.07e+00
2006 04 16  2055    53841   75300      0    1.56e+00    0    1.08e+00
2006 04 16  2100    53841   75600      0    1.54e+00    0    1.07e+00
2006 04 16  2105    53841   75900      0    1.55e+00    0    1.08e+00
2006 04 16  2110    53841   76200      0    1.52e+00    0    1.07e+00
2006 04 16  2115    53841   76500      0    1.55e+00    0    1.09e+00
2006 04 16  2120    53841   76800      0    1.54e+00    0    1.08e+00
2006 04 16  2125    53841   77100      0    1.53e+00    0    1.08e+00
2006 04 16  2130    53841   77400      0    1.57e+00    0    1.11e+00
2006 04 16  2135    53841   77700      0    1.51e+00    0    1.06e+00
2006 04 16  2140    53841   78000      0    1.51e+00    0    1.06e+00
2006 04 16  2145    53841   78300      0    1.55e+00    0    1.09e+00
2006 04 16  2150    53841   78600      0    1.54e+00    0    1.08e+00
2006 04 16  2155    53841   78900      0    1.53e+00    0    1.08e+00
2006 04 16  2200    53841   79200      0    1.54e+00    0    1.08e+00
2006 04 16  2205    53841   79500      0    1.58e+00    0    1.10e+00
2006 04 16  2210    53841   79800      0    1.54e+00    0    1.08e+00
2006 04 16  2215    53841   80100      0    1.55e+00    0    1.08e+00
2006 04 16  2220    53841   80400      0    1.51e+00    0    1.06e+00
2006 04 16  2225    53841   80700      0    1.51e+00    0    1.05e+00
2006 04 16  2230    53841   81000      0    1.57e+00    0    1.11e+00
2006 04 16  2235    53841   81300      0    1.54e+00    0    1.08e+00
2006 04 16  2240    53841   81600      0    1.52e+00    0    1.08e+00
2006 04 16  2245    53841   81900      0    1.58e+00    0    1.13e+00
2006 04 16  2250    53841   82200      0    1.53e+00    0    1.07e+00
2006 04 16  2255    53841   82500      0    1.53e+00    0    1.07e+00
2006 04 16  2300    53841   82800      0    1.53e+00    0    1.07e+00
2006 04 16  2305    53841   83100      0    1.56e+00    0    1.12e+00
2006 04 16  2310    53841   83400      0    1.53e+00    0    1.07e+00
2006 04 16  2315    53841   83700      0    1.59e+00    0    1.12e+00
2006 04 16  2320    53841   84000      0    1.56e+00    0    1.09e+00
2006 04 16  2325    53841   84300      0    1.55e+00    0    1.09e+00
2006 04 16  2330    53841   84600      0    1.55e+00    0    1.10e+00
2006 04 16  2335    53841   84900      0    1.51e+00    0    1.06e+00
2006 04 16  2340    53841   85200      0    1.56e+00    0    1.09e+00
2006 04 16  2345    53841   85500      0    1.55e+00    0    1.08e+00
2006 04 16  2350    53841   85800      0    1.56e+00    0    1.09e+00
2006 04 16  2355    53841   86100      0    1.53e+00    0    1.07e+00
