:Data_list: 20070405_ace_sis_5m.txt
:Created: 2007 Apr 06 0011 UT
# Prepared by the U.S. Dept. of Commerce, NOAA, Space Environment Center.
# Please send comments and suggestions to SEC.Webmaster@noaa.gov 
# 
# Units: proton flux p/cs2-sec-ster
# Status(S): 0 = nominal data, 1 to 8 = bad data record, 9 = no data
# Missing data values: -1.00e+05
# Source: ACE Satellite - Solar Isotope Spectrometer
#
# 5-minute averaged Real-time Integral Flux of High-energy Solar Protons
# 
#                 Modified Seconds
# UT Date   Time   Julian  of the      ---- Integral Proton Flux ----
# YR MO DA  HHMM     Day     Day       S    > 10 MeV    S    > 30 MeV
#--------------------------------------------------------------------
2007 04 05  0000    54195       0      0    1.77e+00    0    1.22e+00
2007 04 05  0005    54195     300      0    1.82e+00    0    1.27e+00
2007 04 05  0010    54195     600      0    1.82e+00    0    1.27e+00
2007 04 05  0015    54195     900      0    1.81e+00    0    1.27e+00
2007 04 05  0020    54195    1200      0    1.79e+00    0    1.26e+00
2007 04 05  0025    54195    1500      0    1.78e+00    0    1.24e+00
2007 04 05  0030    54195    1800      0    1.79e+00    0    1.25e+00
2007 04 05  0035    54195    2100      0    1.79e+00    0    1.26e+00
2007 04 05  0040    54195    2400      0    1.75e+00    0    1.21e+00
2007 04 05  0045    54195    2700      0    1.79e+00    0    1.25e+00
2007 04 05  0050    54195    3000      0    1.79e+00    0    1.26e+00
2007 04 05  0055    54195    3300      0    1.77e+00    0    1.23e+00
2007 04 05  0100    54195    3600      0    1.74e+00    0    1.22e+00
2007 04 05  0105    54195    3900      0    1.77e+00    0    1.24e+00
2007 04 05  0110    54195    4200      0    1.79e+00    0    1.26e+00
2007 04 05  0115    54195    4500      0    1.81e+00    0    1.27e+00
2007 04 05  0120    54195    4800      0    1.79e+00    0    1.25e+00
2007 04 05  0125    54195    5100      0    1.77e+00    0    1.24e+00
2007 04 05  0130    54195    5400      0    1.82e+00    0    1.27e+00
2007 04 05  0135    54195    5700      0    1.79e+00    0    1.25e+00
2007 04 05  0140    54195    6000      0    1.82e+00    0    1.28e+00
2007 04 05  0145    54195    6300      0    1.82e+00    0    1.28e+00
2007 04 05  0150    54195    6600      0    1.80e+00    0    1.26e+00
2007 04 05  0155    54195    6900      0    1.76e+00    0    1.24e+00
2007 04 05  0200    54195    7200      0    1.83e+00    0    1.27e+00
2007 04 05  0205    54195    7500      0    1.81e+00    0    1.27e+00
2007 04 05  0210    54195    7800      0    1.80e+00    0    1.27e+00
2007 04 05  0215    54195    8100      0    1.82e+00    0    1.28e+00
2007 04 05  0220    54195    8400      0    1.78e+00    0    1.25e+00
2007 04 05  0225    54195    8700      0    1.78e+00    0    1.24e+00
2007 04 05  0230    54195    9000      0    1.77e+00    0    1.24e+00
2007 04 05  0235    54195    9300      0    1.82e+00    0    1.26e+00
2007 04 05  0240    54195    9600      0    1.78e+00    0    1.25e+00
2007 04 05  0245    54195    9900      0    1.79e+00    0    1.25e+00
2007 04 05  0250    54195   10200      0    1.82e+00    0    1.27e+00
2007 04 05  0255    54195   10500      0    1.80e+00    0    1.25e+00
2007 04 05  0300    54195   10800      0    1.81e+00    0    1.26e+00
2007 04 05  0305    54195   11100      0    1.82e+00    0    1.27e+00
2007 04 05  0310    54195   11400      0    1.80e+00    0    1.26e+00
2007 04 05  0315    54195   11700      0    1.79e+00    0    1.26e+00
2007 04 05  0320    54195   12000      0    1.77e+00    0    1.24e+00
2007 04 05  0325    54195   12300      0    1.77e+00    0    1.24e+00
2007 04 05  0330    54195   12600      0    1.82e+00    0    1.28e+00
2007 04 05  0335    54195   12900      0    1.79e+00    0    1.26e+00
2007 04 05  0340    54195   13200      0    1.81e+00    0    1.26e+00
2007 04 05  0345    54195   13500      0    1.82e+00    0    1.27e+00
2007 04 05  0350    54195   13800      0    1.80e+00    0    1.25e+00
2007 04 05  0355    54195   14100      0    1.77e+00    0    1.26e+00
2007 04 05  0400    54195   14400      0    1.80e+00    0    1.26e+00
2007 04 05  0405    54195   14700      0    1.81e+00    0    1.27e+00
2007 04 05  0410    54195   15000      0    1.85e+00    0    1.29e+00
2007 04 05  0415    54195   15300      0    1.82e+00    0    1.28e+00
2007 04 05  0420    54195   15600      0    1.80e+00    0    1.24e+00
2007 04 05  0425    54195   15900      0    1.80e+00    0    1.25e+00
2007 04 05  0430    54195   16200      0    1.82e+00    0    1.27e+00
2007 04 05  0435    54195   16500      0    1.80e+00    0    1.26e+00
2007 04 05  0440    54195   16800      0    1.82e+00    0    1.28e+00
2007 04 05  0445    54195   17100      0    1.80e+00    0    1.25e+00
2007 04 05  0450    54195   17400      0    1.82e+00    0    1.27e+00
2007 04 05  0455    54195   17700      0    1.80e+00    0    1.28e+00
2007 04 05  0500    54195   18000      0    1.81e+00    0    1.27e+00
2007 04 05  0505    54195   18300      0    1.83e+00    0    1.29e+00
2007 04 05  0510    54195   18600      0    1.80e+00    0    1.27e+00
2007 04 05  0515    54195   18900      0    1.80e+00    0    1.24e+00
2007 04 05  0520    54195   19200      0    1.81e+00    0    1.26e+00
2007 04 05  0525    54195   19500      0    1.83e+00    0    1.28e+00
2007 04 05  0530    54195   19800      0    1.80e+00    0    1.25e+00
2007 04 05  0535    54195   20100      0    1.84e+00    0    1.28e+00
2007 04 05  0540    54195   20400      0    1.75e+00    0    1.23e+00
2007 04 05  0545    54195   20700      0    1.81e+00    0    1.26e+00
2007 04 05  0550    54195   21000      0    1.79e+00    0    1.24e+00
2007 04 05  0555    54195   21300      0    1.78e+00    0    1.25e+00
2007 04 05  0600    54195   21600      0    1.82e+00    0    1.28e+00
2007 04 05  0605    54195   21900      0    1.78e+00    0    1.23e+00
2007 04 05  0610    54195   22200      0    1.82e+00    0    1.28e+00
2007 04 05  0615    54195   22500      0    1.80e+00    0    1.25e+00
2007 04 05  0620    54195   22800      0    1.77e+00    0    1.23e+00
2007 04 05  0625    54195   23100      0    1.86e+00    0    1.29e+00
2007 04 05  0630    54195   23400      0    1.85e+00    0    1.31e+00
2007 04 05  0635    54195   23700      0    1.81e+00    0    1.26e+00
2007 04 05  0640    54195   24000      0    1.80e+00    0    1.25e+00
2007 04 05  0645    54195   24300      0    1.81e+00    0    1.28e+00
2007 04 05  0650    54195   24600      0    1.82e+00    0    1.27e+00
2007 04 05  0655    54195   24900      0    1.85e+00    0    1.29e+00
2007 04 05  0700    54195   25200      0    1.82e+00    0    1.27e+00
2007 04 05  0705    54195   25500      0    1.84e+00    0    1.30e+00
2007 04 05  0710    54195   25800      0    1.79e+00    0    1.26e+00
2007 04 05  0715    54195   26100      0    1.80e+00    0    1.26e+00
2007 04 05  0720    54195   26400      0    1.82e+00    0    1.27e+00
2007 04 05  0725    54195   26700      0    1.78e+00    0    1.25e+00
2007 04 05  0730    54195   27000      0    1.82e+00    0    1.26e+00
2007 04 05  0735    54195   27300      0    1.80e+00    0    1.27e+00
2007 04 05  0740    54195   27600      0    1.79e+00    0    1.27e+00
2007 04 05  0745    54195   27900      0    1.79e+00    0    1.25e+00
2007 04 05  0750    54195   28200      0    1.78e+00    0    1.23e+00
2007 04 05  0755    54195   28500      0    1.78e+00    0    1.25e+00
2007 04 05  0800    54195   28800      0    1.79e+00    0    1.26e+00
2007 04 05  0805    54195   29100      0    1.80e+00    0    1.26e+00
2007 04 05  0810    54195   29400      0    1.81e+00    0    1.27e+00
2007 04 05  0815    54195   29700      0    1.79e+00    0    1.25e+00
2007 04 05  0820    54195   30000      0    1.78e+00    0    1.25e+00
2007 04 05  0825    54195   30300      0    1.82e+00    0    1.27e+00
2007 04 05  0830    54195   30600      0    1.82e+00    0    1.27e+00
2007 04 05  0835    54195   30900      0    1.81e+00    0    1.27e+00
2007 04 05  0840    54195   31200      0    1.77e+00    0    1.24e+00
2007 04 05  0845    54195   31500      0    1.80e+00    0    1.26e+00
2007 04 05  0850    54195   31800      0    1.82e+00    0    1.29e+00
2007 04 05  0855    54195   32100      0    1.79e+00    0    1.26e+00
2007 04 05  0900    54195   32400      0    1.82e+00    0    1.28e+00
2007 04 05  0905    54195   32700      0    1.80e+00    0    1.26e+00
2007 04 05  0910    54195   33000      0    1.82e+00    0    1.26e+00
2007 04 05  0915    54195   33300      0    1.85e+00    0    1.28e+00
2007 04 05  0920    54195   33600      0    1.78e+00    0    1.24e+00
2007 04 05  0925    54195   33900      0    1.81e+00    0    1.27e+00
2007 04 05  0930    54195   34200      0    1.77e+00    0    1.24e+00
2007 04 05  0935    54195   34500      0    1.77e+00    0    1.23e+00
2007 04 05  0940    54195   34800      0    1.80e+00    0    1.25e+00
2007 04 05  0945    54195   35100      0    1.76e+00    0    1.22e+00
2007 04 05  0950    54195   35400      0    1.78e+00    0    1.26e+00
2007 04 05  0955    54195   35700      0    1.80e+00    0    1.26e+00
2007 04 05  1000    54195   36000      0    1.85e+00    0    1.29e+00
2007 04 05  1005    54195   36300      0    1.77e+00    0    1.23e+00
2007 04 05  1010    54195   36600      0    1.81e+00    0    1.26e+00
2007 04 05  1015    54195   36900      0    1.78e+00    0    1.25e+00
2007 04 05  1020    54195   37200      0    1.81e+00    0    1.27e+00
2007 04 05  1025    54195   37500      0    1.80e+00    0    1.25e+00
2007 04 05  1030    54195   37800      0    1.80e+00    0    1.27e+00
2007 04 05  1035    54195   38100      0    1.84e+00    0    1.30e+00
2007 04 05  1040    54195   38400      0    1.81e+00    0    1.26e+00
2007 04 05  1045    54195   38700      0    1.79e+00    0    1.25e+00
2007 04 05  1050    54195   39000      0    1.81e+00    0    1.26e+00
2007 04 05  1055    54195   39300      0    1.74e+00    0    1.22e+00
2007 04 05  1100    54195   39600      0    1.81e+00    0    1.26e+00
2007 04 05  1105    54195   39900      0    1.82e+00    0    1.27e+00
2007 04 05  1110    54195   40200      0    1.82e+00    0    1.26e+00
2007 04 05  1115    54195   40500      0    1.79e+00    0    1.26e+00
2007 04 05  1120    54195   40800      0    1.82e+00    0    1.28e+00
2007 04 05  1125    54195   41100      0    1.79e+00    0    1.26e+00
2007 04 05  1130    54195   41400      0    1.79e+00    0    1.26e+00
2007 04 05  1135    54195   41700      0    1.80e+00    0    1.26e+00
2007 04 05  1140    54195   42000      0    1.81e+00    0    1.29e+00
2007 04 05  1145    54195   42300      0    1.81e+00    0    1.28e+00
2007 04 05  1150    54195   42600      0    1.79e+00    0    1.26e+00
2007 04 05  1155    54195   42900      0    1.79e+00    0    1.26e+00
2007 04 05  1200    54195   43200      0    1.84e+00    0    1.28e+00
2007 04 05  1205    54195   43500      0    1.81e+00    0    1.27e+00
2007 04 05  1210    54195   43800      0    1.76e+00    0    1.24e+00
2007 04 05  1215    54195   44100      0    1.79e+00    0    1.25e+00
2007 04 05  1220    54195   44400      0    1.82e+00    0    1.27e+00
2007 04 05  1225    54195   44700      0    1.79e+00    0    1.26e+00
2007 04 05  1230    54195   45000      0    1.77e+00    0    1.23e+00
2007 04 05  1235    54195   45300      0    1.79e+00    0    1.25e+00
2007 04 05  1240    54195   45600      0    1.80e+00    0    1.26e+00
2007 04 05  1245    54195   45900      0    1.83e+00    0    1.28e+00
2007 04 05  1250    54195   46200      0    1.82e+00    0    1.27e+00
2007 04 05  1255    54195   46500      0    1.84e+00    0    1.30e+00
2007 04 05  1300    54195   46800      0    1.83e+00    0    1.27e+00
2007 04 05  1305    54195   47100      0    1.80e+00    0    1.26e+00
2007 04 05  1310    54195   47400      0    1.83e+00    0    1.27e+00
2007 04 05  1315    54195   47700      0    1.83e+00    0    1.29e+00
2007 04 05  1320    54195   48000      0    1.82e+00    0    1.27e+00
2007 04 05  1325    54195   48300      0    1.80e+00    0    1.25e+00
2007 04 05  1330    54195   48600      0    1.84e+00    0    1.29e+00
2007 04 05  1335    54195   48900      0    1.84e+00    0    1.29e+00
2007 04 05  1340    54195   49200      0    1.84e+00    0    1.28e+00
2007 04 05  1345    54195   49500      0    1.81e+00    0    1.25e+00
2007 04 05  1350    54195   49800      0    1.83e+00    0    1.28e+00
2007 04 05  1355    54195   50100      0    1.83e+00    0    1.27e+00
2007 04 05  1400    54195   50400      0    1.96e+00    0    1.42e+00
2007 04 05  1405    54195   50700      0    1.79e+00    0    1.26e+00
2007 04 05  1410    54195   51000      0    1.85e+00    0    1.29e+00
2007 04 05  1415    54195   51300      0    1.80e+00    0    1.24e+00
2007 04 05  1420    54195   51600      0    1.85e+00    0    1.29e+00
2007 04 05  1425    54195   51900      0    1.83e+00    0    1.30e+00
2007 04 05  1430    54195   52200      0    1.80e+00    0    1.25e+00
2007 04 05  1435    54195   52500      0    1.80e+00    0    1.27e+00
2007 04 05  1440    54195   52800      0    1.85e+00    0    1.29e+00
2007 04 05  1445    54195   53100      0    1.83e+00    0    1.29e+00
2007 04 05  1450    54195   53400      0    1.87e+00    0    1.31e+00
2007 04 05  1455    54195   53700      0    1.85e+00    0    1.29e+00
2007 04 05  1500    54195   54000      0    1.82e+00    0    1.28e+00
2007 04 05  1505    54195   54300      0    1.85e+00    0    1.30e+00
2007 04 05  1510    54195   54600      0    1.81e+00    0    1.27e+00
2007 04 05  1515    54195   54900      0    1.82e+00    0    1.27e+00
2007 04 05  1520    54195   55200      0    1.81e+00    0    1.26e+00
2007 04 05  1525    54195   55500      0    1.83e+00    0    1.27e+00
2007 04 05  1530    54195   55800      0    1.83e+00    0    1.27e+00
2007 04 05  1535    54195   56100      0    1.82e+00    0    1.27e+00
2007 04 05  1540    54195   56400      0    1.82e+00    0    1.27e+00
2007 04 05  1545    54195   56700      0    1.78e+00    0    1.24e+00
2007 04 05  1550    54195   57000      0    1.81e+00    0    1.27e+00
2007 04 05  1555    54195   57300      0    1.82e+00    0    1.27e+00
2007 04 05  1600    54195   57600      0    1.83e+00    0    1.29e+00
2007 04 05  1605    54195   57900      0    1.84e+00    0    1.29e+00
2007 04 05  1610    54195   58200      0    1.82e+00    0    1.27e+00
2007 04 05  1615    54195   58500      0    1.81e+00    0    1.26e+00
2007 04 05  1620    54195   58800      0    1.75e+00    0    1.23e+00
2007 04 05  1625    54195   59100      0    1.80e+00    0    1.26e+00
2007 04 05  1630    54195   59400      0    1.87e+00    0    1.30e+00
2007 04 05  1635    54195   59700      0    1.84e+00    0    1.28e+00
2007 04 05  1640    54195   60000      0    1.83e+00    0    1.28e+00
2007 04 05  1645    54195   60300      0    1.79e+00    0    1.25e+00
2007 04 05  1650    54195   60600      0    1.83e+00    0    1.30e+00
2007 04 05  1655    54195   60900      0    1.83e+00    0    1.29e+00
2007 04 05  1700    54195   61200      0    1.84e+00    0    1.29e+00
2007 04 05  1705    54195   61500      0    1.83e+00    0    1.29e+00
2007 04 05  1710    54195   61800      0    1.83e+00    0    1.28e+00
2007 04 05  1715    54195   62100      0    1.77e+00    0    1.24e+00
2007 04 05  1720    54195   62400      0    1.86e+00    0    1.29e+00
2007 04 05  1725    54195   62700      0    1.83e+00    0    1.28e+00
2007 04 05  1730    54195   63000      0    1.82e+00    0    1.28e+00
2007 04 05  1735    54195   63300      0    1.83e+00    0    1.29e+00
2007 04 05  1740    54195   63600      0    1.86e+00    0    1.32e+00
2007 04 05  1745    54195   63900      0    1.81e+00    0    1.27e+00
2007 04 05  1750    54195   64200      0    1.82e+00    0    1.27e+00
2007 04 05  1755    54195   64500      0    1.80e+00    0    1.28e+00
2007 04 05  1800    54195   64800      0    1.79e+00    0    1.25e+00
2007 04 05  1805    54195   65100      0    1.83e+00    0    1.29e+00
2007 04 05  1810    54195   65400      0    1.84e+00    0    1.28e+00
2007 04 05  1815    54195   65700      0    1.86e+00    0    1.31e+00
2007 04 05  1820    54195   66000      0    1.80e+00    0    1.26e+00
2007 04 05  1825    54195   66300      0    1.80e+00    0    1.27e+00
2007 04 05  1830    54195   66600      0    1.82e+00    0    1.27e+00
2007 04 05  1835    54195   66900      0    1.81e+00    0    1.27e+00
2007 04 05  1840    54195   67200      0    1.84e+00    0    1.29e+00
2007 04 05  1845    54195   67500      0    1.80e+00    0    1.26e+00
2007 04 05  1850    54195   67800      0    1.81e+00    0    1.26e+00
2007 04 05  1855    54195   68100      0    1.82e+00    0    1.28e+00
2007 04 05  1900    54195   68400      0    1.80e+00    0    1.26e+00
2007 04 05  1905    54195   68700      0    1.77e+00    0    1.23e+00
2007 04 05  1910    54195   69000      0    1.82e+00    0    1.29e+00
2007 04 05  1915    54195   69300      0    1.79e+00    0    1.25e+00
2007 04 05  1920    54195   69600      0    1.80e+00    0    1.26e+00
2007 04 05  1925    54195   69900      0    1.80e+00    0    1.24e+00
2007 04 05  1930    54195   70200      0    1.79e+00    0    1.25e+00
2007 04 05  1935    54195   70500      0    1.79e+00    0    1.27e+00
2007 04 05  1940    54195   70800      0    1.81e+00    0    1.27e+00
2007 04 05  1945    54195   71100      0    1.80e+00    0    1.26e+00
2007 04 05  1950    54195   71400      0    1.79e+00    0    1.25e+00
2007 04 05  1955    54195   71700      0    1.78e+00    0    1.25e+00
2007 04 05  2000    54195   72000      0    1.82e+00    0    1.27e+00
2007 04 05  2005    54195   72300      0    1.79e+00    0    1.25e+00
2007 04 05  2010    54195   72600      0    1.82e+00    0    1.28e+00
2007 04 05  2015    54195   72900      0    1.83e+00    0    1.27e+00
2007 04 05  2020    54195   73200      0    1.81e+00    0    1.28e+00
2007 04 05  2025    54195   73500      0    1.82e+00    0    1.27e+00
2007 04 05  2030    54195   73800      0    1.81e+00    0    1.27e+00
2007 04 05  2035    54195   74100      0    1.80e+00    0    1.25e+00
2007 04 05  2040    54195   74400      0    1.78e+00    0    1.24e+00
2007 04 05  2045    54195   74700      0    1.82e+00    0    1.27e+00
2007 04 05  2050    54195   75000      0    1.77e+00    0    1.23e+00
2007 04 05  2055    54195   75300      0    1.82e+00    0    1.27e+00
2007 04 05  2100    54195   75600      0    1.84e+00    0    1.30e+00
2007 04 05  2105    54195   75900      0    1.79e+00    0    1.26e+00
2007 04 05  2110    54195   76200      0    1.80e+00    0    1.27e+00
2007 04 05  2115    54195   76500      0    1.85e+00    0    1.30e+00
2007 04 05  2120    54195   76800      0    1.82e+00    0    1.27e+00
2007 04 05  2125    54195   77100      0    1.81e+00    0    1.28e+00
2007 04 05  2130    54195   77400      0    1.80e+00    0    1.27e+00
2007 04 05  2135    54195   77700      0    1.81e+00    0    1.27e+00
2007 04 05  2140    54195   78000      0    1.81e+00    0    1.29e+00
2007 04 05  2145    54195   78300      0    1.79e+00    0    1.25e+00
2007 04 05  2150    54195   78600      0    1.80e+00    0    1.27e+00
2007 04 05  2155    54195   78900      0    1.77e+00    0    1.23e+00
2007 04 05  2200    54195   79200      0    1.79e+00    0    1.26e+00
2007 04 05  2205    54195   79500      0    1.79e+00    0    1.24e+00
2007 04 05  2210    54195   79800      0    1.82e+00    0    1.27e+00
2007 04 05  2215    54195   80100      0    1.81e+00    0    1.27e+00
2007 04 05  2220    54195   80400      0    1.79e+00    0    1.24e+00
2007 04 05  2225    54195   80700      0    1.81e+00    0    1.27e+00
2007 04 05  2230    54195   81000      0    1.82e+00    0    1.27e+00
2007 04 05  2235    54195   81300      0    1.80e+00    0    1.26e+00
2007 04 05  2240    54195   81600      0    1.81e+00    0    1.27e+00
2007 04 05  2245    54195   81900      0    1.81e+00    0    1.27e+00
2007 04 05  2250    54195   82200      0    1.79e+00    0    1.25e+00
2007 04 05  2255    54195   82500      0    1.78e+00    0    1.24e+00
2007 04 05  2300    54195   82800      0    1.74e+00    0    1.21e+00
2007 04 05  2305    54195   83100      0    1.80e+00    0    1.26e+00
2007 04 05  2310    54195   83400      0    1.80e+00    0    1.26e+00
2007 04 05  2315    54195   83700      0    1.81e+00    0    1.27e+00
2007 04 05  2320    54195   84000      0    1.80e+00    0    1.26e+00
2007 04 05  2325    54195   84300      0    1.82e+00    0    1.27e+00
2007 04 05  2330    54195   84600      0    1.82e+00    0    1.28e+00
2007 04 05  2335    54195   84900      0    1.81e+00    0    1.26e+00
2007 04 05  2340    54195   85200      0    1.77e+00    0    1.24e+00
2007 04 05  2345    54195   85500      0    1.83e+00    0    1.28e+00
2007 04 05  2350    54195   85800      0    1.81e+00    0    1.27e+00
2007 04 05  2355    54195   86100      0    1.79e+00    0    1.24e+00
