:Data_list: 20070305_ace_sis_5m.txt
:Created: 2007 Mar 06 0011 UT
# Prepared by the U.S. Dept. of Commerce, NOAA, Space Environment Center.
# Please send comments and suggestions to SEC.Webmaster@noaa.gov 
# 
# Units: proton flux p/cs2-sec-ster
# Status(S): 0 = nominal data, 1 to 8 = bad data record, 9 = no data
# Missing data values: -1.00e+05
# Source: ACE Satellite - Solar Isotope Spectrometer
#
# 5-minute averaged Real-time Integral Flux of High-energy Solar Protons
# 
#                 Modified Seconds
# UT Date   Time   Julian  of the      ---- Integral Proton Flux ----
# YR MO DA  HHMM     Day     Day       S    > 10 MeV    S    > 30 MeV
#--------------------------------------------------------------------
2007 03 05  0000    54164       0      0    1.77e+00    0    1.25e+00
2007 03 05  0005    54164     300      0    1.76e+00    0    1.22e+00
2007 03 05  0010    54164     600      0    1.79e+00    0    1.25e+00
2007 03 05  0015    54164     900      0    1.80e+00    0    1.25e+00
2007 03 05  0020    54164    1200      0    1.75e+00    0    1.23e+00
2007 03 05  0025    54164    1500      0    1.77e+00    0    1.25e+00
2007 03 05  0030    54164    1800      0    1.73e+00    0    1.21e+00
2007 03 05  0035    54164    2100      0    1.76e+00    0    1.22e+00
2007 03 05  0040    54164    2400      0    1.78e+00    0    1.25e+00
2007 03 05  0045    54164    2700      0    1.77e+00    0    1.25e+00
2007 03 05  0050    54164    3000      0    1.78e+00    0    1.25e+00
2007 03 05  0055    54164    3300      0    1.77e+00    0    1.25e+00
2007 03 05  0100    54164    3600      0    1.74e+00    0    1.21e+00
2007 03 05  0105    54164    3900      0    1.72e+00    0    1.21e+00
2007 03 05  0110    54164    4200      0    1.76e+00    0    1.23e+00
2007 03 05  0115    54164    4500      0    1.74e+00    0    1.20e+00
2007 03 05  0120    54164    4800      0    1.75e+00    0    1.22e+00
2007 03 05  0125    54164    5100      0    1.76e+00    0    1.23e+00
2007 03 05  0130    54164    5400      0    1.77e+00    0    1.23e+00
2007 03 05  0135    54164    5700      0    1.78e+00    0    1.24e+00
2007 03 05  0140    54164    6000      0    1.72e+00    0    1.20e+00
2007 03 05  0145    54164    6300      0    1.73e+00    0    1.21e+00
2007 03 05  0150    54164    6600      0    1.77e+00    0    1.25e+00
2007 03 05  0155    54164    6900      0    1.77e+00    0    1.23e+00
2007 03 05  0200    54164    7200      0    1.76e+00    0    1.23e+00
2007 03 05  0205    54164    7500      0    1.75e+00    0    1.23e+00
2007 03 05  0210    54164    7800      0    1.73e+00    0    1.22e+00
2007 03 05  0215    54164    8100      0    1.76e+00    0    1.22e+00
2007 03 05  0220    54164    8400      0    1.74e+00    0    1.23e+00
2007 03 05  0225    54164    8700      0    1.74e+00    0    1.23e+00
2007 03 05  0230    54164    9000      9   -1.00e+05    9   -1.00e+05
2007 03 05  0235    54164    9300      9   -1.00e+05    9   -1.00e+05
2007 03 05  0240    54164    9600      9   -1.00e+05    9   -1.00e+05
2007 03 05  0245    54164    9900      9   -1.00e+05    9   -1.00e+05
2007 03 05  0250    54164   10200      9   -1.00e+05    9   -1.00e+05
2007 03 05  0255    54164   10500      9   -1.00e+05    9   -1.00e+05
2007 03 05  0300    54164   10800      9   -1.00e+05    9   -1.00e+05
2007 03 05  0305    54164   11100      9   -1.00e+05    9   -1.00e+05
2007 03 05  0310    54164   11400      9   -1.00e+05    9   -1.00e+05
2007 03 05  0315    54164   11700      9   -1.00e+05    9   -1.00e+05
2007 03 05  0320    54164   12000      9   -1.00e+05    9   -1.00e+05
2007 03 05  0325    54164   12300      9   -1.00e+05    9   -1.00e+05
2007 03 05  0330    54164   12600      9   -1.00e+05    9   -1.00e+05
2007 03 05  0335    54164   12900      9   -1.00e+05    9   -1.00e+05
2007 03 05  0340    54164   13200      9   -1.00e+05    9   -1.00e+05
2007 03 05  0345    54164   13500      9   -1.00e+05    9   -1.00e+05
2007 03 05  0350    54164   13800      0    1.78e+00    0    1.25e+00
2007 03 05  0355    54164   14100      0    1.77e+00    0    1.24e+00
2007 03 05  0400    54164   14400      0    1.76e+00    0    1.25e+00
2007 03 05  0405    54164   14700      0    1.76e+00    0    1.24e+00
2007 03 05  0410    54164   15000      0    1.77e+00    0    1.24e+00
2007 03 05  0415    54164   15300      0    1.71e+00    0    1.19e+00
2007 03 05  0420    54164   15600      0    1.78e+00    0    1.24e+00
2007 03 05  0425    54164   15900      0    1.76e+00    0    1.23e+00
2007 03 05  0430    54164   16200      0    1.75e+00    0    1.21e+00
2007 03 05  0435    54164   16500      0    1.78e+00    0    1.25e+00
2007 03 05  0440    54164   16800      0    1.78e+00    0    1.24e+00
2007 03 05  0445    54164   17100      0    1.76e+00    0    1.24e+00
2007 03 05  0450    54164   17400      9   -1.00e+05    9   -1.00e+05
2007 03 05  0455    54164   17700      0    1.73e+00    0    1.22e+00
2007 03 05  0500    54164   18000      0    1.74e+00    0    1.21e+00
2007 03 05  0505    54164   18300      0    1.71e+00    0    1.20e+00
2007 03 05  0510    54164   18600      0    1.75e+00    0    1.23e+00
2007 03 05  0515    54164   18900      0    1.74e+00    0    1.23e+00
2007 03 05  0520    54164   19200      0    1.74e+00    0    1.22e+00
2007 03 05  0525    54164   19500      0    1.75e+00    0    1.23e+00
2007 03 05  0530    54164   19800      0    1.76e+00    0    1.23e+00
2007 03 05  0535    54164   20100      0    1.76e+00    0    1.23e+00
2007 03 05  0540    54164   20400      0    1.77e+00    0    1.23e+00
2007 03 05  0545    54164   20700      0    1.75e+00    0    1.24e+00
2007 03 05  0550    54164   21000      9   -1.00e+05    9   -1.00e+05
2007 03 05  0555    54164   21300      9   -1.00e+05    9   -1.00e+05
2007 03 05  0600    54164   21600      9   -1.00e+05    9   -1.00e+05
2007 03 05  0605    54164   21900      9   -1.00e+05    9   -1.00e+05
2007 03 05  0610    54164   22200      0    1.72e+00    0    1.19e+00
2007 03 05  0615    54164   22500      0    1.74e+00    0    1.21e+00
2007 03 05  0620    54164   22800      0    1.77e+00    0    1.25e+00
2007 03 05  0625    54164   23100      0    1.71e+00    0    1.20e+00
2007 03 05  0630    54164   23400      0    1.78e+00    0    1.25e+00
2007 03 05  0635    54164   23700      0    1.76e+00    0    1.24e+00
2007 03 05  0640    54164   24000      0    1.76e+00    0    1.24e+00
2007 03 05  0645    54164   24300      0    1.73e+00    0    1.23e+00
2007 03 05  0650    54164   24600      0    1.75e+00    0    1.23e+00
2007 03 05  0655    54164   24900      0    1.74e+00    0    1.20e+00
2007 03 05  0700    54164   25200      0    1.77e+00    0    1.25e+00
2007 03 05  0705    54164   25500      0    1.71e+00    0    1.21e+00
2007 03 05  0710    54164   25800      0    1.74e+00    0    1.23e+00
2007 03 05  0715    54164   26100      0    1.77e+00    0    1.25e+00
2007 03 05  0720    54164   26400      0    1.76e+00    0    1.24e+00
2007 03 05  0725    54164   26700      0    1.78e+00    0    1.25e+00
2007 03 05  0730    54164   27000      0    1.75e+00    0    1.23e+00
2007 03 05  0735    54164   27300      0    1.71e+00    0    1.19e+00
2007 03 05  0740    54164   27600      0    1.71e+00    0    1.20e+00
2007 03 05  0745    54164   27900      0    1.72e+00    0    1.20e+00
2007 03 05  0750    54164   28200      0    1.77e+00    0    1.23e+00
2007 03 05  0755    54164   28500      0    1.76e+00    0    1.23e+00
2007 03 05  0800    54164   28800      0    1.69e+00    0    1.18e+00
2007 03 05  0805    54164   29100      0    1.73e+00    0    1.21e+00
2007 03 05  0810    54164   29400      0    1.73e+00    0    1.21e+00
2007 03 05  0815    54164   29700      0    1.75e+00    0    1.24e+00
2007 03 05  0820    54164   30000      0    1.80e+00    0    1.27e+00
2007 03 05  0825    54164   30300      0    1.70e+00    0    1.18e+00
2007 03 05  0830    54164   30600      0    1.72e+00    0    1.20e+00
2007 03 05  0835    54164   30900      0    1.72e+00    0    1.20e+00
2007 03 05  0840    54164   31200      0    1.78e+00    0    1.24e+00
2007 03 05  0845    54164   31500      0    1.77e+00    0    1.24e+00
2007 03 05  0850    54164   31800      0    1.75e+00    0    1.22e+00
2007 03 05  0855    54164   32100      0    1.75e+00    0    1.22e+00
2007 03 05  0900    54164   32400      0    1.73e+00    0    1.21e+00
2007 03 05  0905    54164   32700      0    1.79e+00    0    1.25e+00
2007 03 05  0910    54164   33000      0    1.79e+00    0    1.24e+00
2007 03 05  0915    54164   33300      0    1.77e+00    0    1.23e+00
2007 03 05  0920    54164   33600      0    1.75e+00    0    1.23e+00
2007 03 05  0925    54164   33900      0    1.73e+00    0    1.21e+00
2007 03 05  0930    54164   34200      0    1.75e+00    0    1.23e+00
2007 03 05  0935    54164   34500      0    1.72e+00    0    1.20e+00
2007 03 05  0940    54164   34800      0    1.74e+00    0    1.23e+00
2007 03 05  0945    54164   35100      0    1.73e+00    0    1.21e+00
2007 03 05  0950    54164   35400      0    1.74e+00    0    1.21e+00
2007 03 05  0955    54164   35700      0    1.75e+00    0    1.23e+00
2007 03 05  1000    54164   36000      0    1.77e+00    0    1.24e+00
2007 03 05  1005    54164   36300      0    1.77e+00    0    1.24e+00
2007 03 05  1010    54164   36600      0    1.75e+00    0    1.22e+00
2007 03 05  1015    54164   36900      0    1.78e+00    0    1.25e+00
2007 03 05  1020    54164   37200      0    1.74e+00    0    1.21e+00
2007 03 05  1025    54164   37500      0    1.75e+00    0    1.24e+00
2007 03 05  1030    54164   37800      0    1.72e+00    0    1.20e+00
2007 03 05  1035    54164   38100      0    1.71e+00    0    1.19e+00
2007 03 05  1040    54164   38400      0    1.74e+00    0    1.23e+00
2007 03 05  1045    54164   38700      0    1.73e+00    0    1.20e+00
2007 03 05  1050    54164   39000      0    1.76e+00    0    1.23e+00
2007 03 05  1055    54164   39300      0    1.69e+00    0    1.18e+00
2007 03 05  1100    54164   39600      0    1.72e+00    0    1.21e+00
2007 03 05  1105    54164   39900      0    1.77e+00    0    1.24e+00
2007 03 05  1110    54164   40200      0    1.76e+00    0    1.24e+00
2007 03 05  1115    54164   40500      0    1.72e+00    0    1.20e+00
2007 03 05  1120    54164   40800      0    1.75e+00    0    1.23e+00
2007 03 05  1125    54164   41100      0    1.74e+00    0    1.23e+00
2007 03 05  1130    54164   41400      0    1.69e+00    0    1.19e+00
2007 03 05  1135    54164   41700      0    1.74e+00    0    1.22e+00
2007 03 05  1140    54164   42000      0    1.74e+00    0    1.22e+00
2007 03 05  1145    54164   42300      0    1.73e+00    0    1.23e+00
2007 03 05  1150    54164   42600      0    1.75e+00    0    1.22e+00
2007 03 05  1155    54164   42900      0    1.72e+00    0    1.20e+00
2007 03 05  1200    54164   43200      0    1.70e+00    0    1.19e+00
2007 03 05  1205    54164   43500      0    1.73e+00    0    1.20e+00
2007 03 05  1210    54164   43800      0    1.75e+00    0    1.22e+00
2007 03 05  1215    54164   44100      0    1.73e+00    0    1.22e+00
2007 03 05  1220    54164   44400      0    1.72e+00    0    1.22e+00
2007 03 05  1225    54164   44700      0    1.74e+00    0    1.23e+00
2007 03 05  1230    54164   45000      0    1.74e+00    0    1.23e+00
2007 03 05  1235    54164   45300      0    1.73e+00    0    1.21e+00
2007 03 05  1240    54164   45600      0    1.73e+00    0    1.21e+00
2007 03 05  1245    54164   45900      0    1.71e+00    0    1.19e+00
2007 03 05  1250    54164   46200      0    1.73e+00    0    1.22e+00
2007 03 05  1255    54164   46500      0    1.77e+00    0    1.26e+00
2007 03 05  1300    54164   46800      0    1.75e+00    0    1.22e+00
2007 03 05  1305    54164   47100      0    1.70e+00    0    1.18e+00
2007 03 05  1310    54164   47400      0    1.75e+00    0    1.22e+00
2007 03 05  1315    54164   47700      0    1.75e+00    0    1.23e+00
2007 03 05  1320    54164   48000      0    1.78e+00    0    1.24e+00
2007 03 05  1325    54164   48300      0    1.73e+00    0    1.21e+00
2007 03 05  1330    54164   48600      0    1.79e+00    0    1.25e+00
2007 03 05  1335    54164   48900      0    1.75e+00    0    1.22e+00
2007 03 05  1340    54164   49200      0    1.72e+00    0    1.21e+00
2007 03 05  1345    54164   49500      0    1.73e+00    0    1.21e+00
2007 03 05  1350    54164   49800      0    1.74e+00    0    1.21e+00
2007 03 05  1355    54164   50100      0    1.76e+00    0    1.24e+00
2007 03 05  1400    54164   50400      0    1.73e+00    0    1.22e+00
2007 03 05  1405    54164   50700      0    1.76e+00    0    1.24e+00
2007 03 05  1410    54164   51000      0    1.74e+00    0    1.22e+00
2007 03 05  1415    54164   51300      0    1.79e+00    0    1.25e+00
2007 03 05  1420    54164   51600      0    1.75e+00    0    1.22e+00
2007 03 05  1425    54164   51900      0    1.77e+00    0    1.25e+00
2007 03 05  1430    54164   52200      0    1.74e+00    0    1.23e+00
2007 03 05  1435    54164   52500      0    1.76e+00    0    1.23e+00
2007 03 05  1440    54164   52800      0    1.75e+00    0    1.23e+00
2007 03 05  1445    54164   53100      0    1.78e+00    0    1.24e+00
2007 03 05  1450    54164   53400      0    1.76e+00    0    1.23e+00
2007 03 05  1455    54164   53700      0    1.76e+00    0    1.23e+00
2007 03 05  1500    54164   54000      0    1.79e+00    0    1.26e+00
2007 03 05  1505    54164   54300      0    1.74e+00    0    1.23e+00
2007 03 05  1510    54164   54600      0    1.74e+00    0    1.24e+00
2007 03 05  1515    54164   54900      0    1.73e+00    0    1.21e+00
2007 03 05  1520    54164   55200      0    1.75e+00    0    1.22e+00
2007 03 05  1525    54164   55500      0    1.76e+00    0    1.24e+00
2007 03 05  1530    54164   55800      0    1.77e+00    0    1.24e+00
2007 03 05  1535    54164   56100      0    1.76e+00    0    1.24e+00
2007 03 05  1540    54164   56400      0    1.77e+00    0    1.23e+00
2007 03 05  1545    54164   56700      0    1.72e+00    0    1.19e+00
2007 03 05  1550    54164   57000      0    1.75e+00    0    1.23e+00
2007 03 05  1555    54164   57300      0    1.75e+00    0    1.23e+00
2007 03 05  1600    54164   57600      0    1.78e+00    0    1.25e+00
2007 03 05  1605    54164   57900      0    1.70e+00    0    1.18e+00
2007 03 05  1610    54164   58200      0    1.77e+00    0    1.23e+00
2007 03 05  1615    54164   58500      0    1.72e+00    0    1.21e+00
2007 03 05  1620    54164   58800      0    1.76e+00    0    1.23e+00
2007 03 05  1625    54164   59100      0    1.72e+00    0    1.21e+00
2007 03 05  1630    54164   59400      0    1.73e+00    0    1.22e+00
2007 03 05  1635    54164   59700      0    1.75e+00    0    1.22e+00
2007 03 05  1640    54164   60000      0    1.73e+00    0    1.21e+00
2007 03 05  1645    54164   60300      0    1.77e+00    0    1.24e+00
2007 03 05  1650    54164   60600      0    1.79e+00    0    1.26e+00
2007 03 05  1655    54164   60900      0    1.78e+00    0    1.25e+00
2007 03 05  1700    54164   61200      0    1.77e+00    0    1.23e+00
2007 03 05  1705    54164   61500      0    1.78e+00    0    1.25e+00
2007 03 05  1710    54164   61800      0    1.77e+00    0    1.25e+00
2007 03 05  1715    54164   62100      0    1.75e+00    0    1.21e+00
2007 03 05  1720    54164   62400      0    1.75e+00    0    1.21e+00
2007 03 05  1725    54164   62700      0    1.77e+00    0    1.23e+00
2007 03 05  1730    54164   63000      0    1.73e+00    0    1.22e+00
2007 03 05  1735    54164   63300      0    1.74e+00    0    1.20e+00
2007 03 05  1740    54164   63600      0    1.77e+00    0    1.25e+00
2007 03 05  1745    54164   63900      0    1.77e+00    0    1.25e+00
2007 03 05  1750    54164   64200      0    1.77e+00    0    1.24e+00
2007 03 05  1755    54164   64500      0    1.75e+00    0    1.23e+00
2007 03 05  1800    54164   64800      0    1.72e+00    0    1.20e+00
2007 03 05  1805    54164   65100      0    1.75e+00    0    1.24e+00
2007 03 05  1810    54164   65400      0    1.75e+00    0    1.21e+00
2007 03 05  1815    54164   65700      0    1.76e+00    0    1.21e+00
2007 03 05  1820    54164   66000      0    1.75e+00    0    1.24e+00
2007 03 05  1825    54164   66300      0    1.79e+00    0    1.26e+00
2007 03 05  1830    54164   66600      0    1.83e+00    0    1.29e+00
2007 03 05  1835    54164   66900      0    1.77e+00    0    1.24e+00
2007 03 05  1840    54164   67200      0    1.71e+00    0    1.22e+00
2007 03 05  1845    54164   67500      0    1.78e+00    0    1.25e+00
2007 03 05  1850    54164   67800      0    1.80e+00    0    1.27e+00
2007 03 05  1855    54164   68100      0    1.78e+00    0    1.25e+00
2007 03 05  1900    54164   68400      0    1.76e+00    0    1.24e+00
2007 03 05  1905    54164   68700      0    1.78e+00    0    1.26e+00
2007 03 05  1910    54164   69000      0    1.74e+00    0    1.23e+00
2007 03 05  1915    54164   69300      0    1.76e+00    0    1.24e+00
2007 03 05  1920    54164   69600      0    1.77e+00    0    1.25e+00
2007 03 05  1925    54164   69900      0    1.72e+00    0    1.20e+00
2007 03 05  1930    54164   70200      0    1.76e+00    0    1.24e+00
2007 03 05  1935    54164   70500      0    1.74e+00    0    1.22e+00
2007 03 05  1940    54164   70800      0    1.79e+00    0    1.25e+00
2007 03 05  1945    54164   71100      0    1.79e+00    0    1.25e+00
2007 03 05  1950    54164   71400      0    1.80e+00    0    1.27e+00
2007 03 05  1955    54164   71700      0    1.77e+00    0    1.25e+00
2007 03 05  2000    54164   72000      0    1.78e+00    0    1.23e+00
2007 03 05  2005    54164   72300      0    1.75e+00    0    1.23e+00
2007 03 05  2010    54164   72600      0    1.77e+00    0    1.24e+00
2007 03 05  2015    54164   72900      0    1.81e+00    0    1.28e+00
2007 03 05  2020    54164   73200      0    1.74e+00    0    1.21e+00
2007 03 05  2025    54164   73500      0    1.76e+00    0    1.24e+00
2007 03 05  2030    54164   73800      0    1.79e+00    0    1.25e+00
2007 03 05  2035    54164   74100      0    1.77e+00    0    1.25e+00
2007 03 05  2040    54164   74400      0    1.77e+00    0    1.24e+00
2007 03 05  2045    54164   74700      0    1.78e+00    0    1.24e+00
2007 03 05  2050    54164   75000      0    1.79e+00    0    1.26e+00
2007 03 05  2055    54164   75300      0    1.77e+00    0    1.24e+00
2007 03 05  2100    54164   75600      0    1.75e+00    0    1.21e+00
2007 03 05  2105    54164   75900      0    1.74e+00    0    1.21e+00
2007 03 05  2110    54164   76200      0    1.75e+00    0    1.25e+00
2007 03 05  2115    54164   76500      0    1.77e+00    0    1.25e+00
2007 03 05  2120    54164   76800      0    1.76e+00    0    1.24e+00
2007 03 05  2125    54164   77100      0    1.74e+00    0    1.23e+00
2007 03 05  2130    54164   77400      0    1.80e+00    0    1.26e+00
2007 03 05  2135    54164   77700      0    1.72e+00    0    1.20e+00
2007 03 05  2140    54164   78000      0    1.72e+00    0    1.20e+00
2007 03 05  2145    54164   78300      0    1.74e+00    0    1.22e+00
2007 03 05  2150    54164   78600      0    1.79e+00    0    1.25e+00
2007 03 05  2155    54164   78900      0    1.74e+00    0    1.22e+00
2007 03 05  2200    54164   79200      0    1.71e+00    0    1.18e+00
2007 03 05  2205    54164   79500      0    1.77e+00    0    1.25e+00
2007 03 05  2210    54164   79800      0    1.80e+00    0    1.27e+00
2007 03 05  2215    54164   80100      0    1.77e+00    0    1.23e+00
2007 03 05  2220    54164   80400      0    1.75e+00    0    1.23e+00
2007 03 05  2225    54164   80700      0    1.75e+00    0    1.23e+00
2007 03 05  2230    54164   81000      0    1.78e+00    0    1.25e+00
2007 03 05  2235    54164   81300      0    1.75e+00    0    1.22e+00
2007 03 05  2240    54164   81600      0    1.78e+00    0    1.24e+00
2007 03 05  2245    54164   81900      0    1.75e+00    0    1.25e+00
2007 03 05  2250    54164   82200      0    1.74e+00    0    1.21e+00
2007 03 05  2255    54164   82500      0    1.78e+00    0    1.25e+00
2007 03 05  2300    54164   82800      0    1.80e+00    0    1.25e+00
2007 03 05  2305    54164   83100      0    1.78e+00    0    1.25e+00
2007 03 05  2310    54164   83400      0    1.74e+00    0    1.22e+00
2007 03 05  2315    54164   83700      0    1.76e+00    0    1.23e+00
2007 03 05  2320    54164   84000      0    1.76e+00    0    1.24e+00
2007 03 05  2325    54164   84300      0    1.73e+00    0    1.21e+00
2007 03 05  2330    54164   84600      0    1.85e+00    0    1.30e+00
2007 03 05  2335    54164   84900      0    1.78e+00    0    1.23e+00
2007 03 05  2340    54164   85200      0    1.74e+00    0    1.22e+00
2007 03 05  2345    54164   85500      0    1.79e+00    0    1.26e+00
2007 03 05  2350    54164   85800      0    1.78e+00    0    1.25e+00
2007 03 05  2355    54164   86100      0    1.77e+00    0    1.25e+00
