:Data_list: 20070815_ace_sis_5m.txt
:Created: 2007 Aug 16 0011 UT
# Prepared by the U.S. Dept. of Commerce, NOAA, Space Environment Center.
# Please send comments and suggestions to SEC.Webmaster@noaa.gov 
# 
# Units: proton flux p/cs2-sec-ster
# Status(S): 0 = nominal data, 1 to 8 = bad data record, 9 = no data
# Missing data values: -1.00e+05
# Source: ACE Satellite - Solar Isotope Spectrometer
#
# 5-minute averaged Real-time Integral Flux of High-energy Solar Protons
# 
#                 Modified Seconds
# UT Date   Time   Julian  of the      ---- Integral Proton Flux ----
# YR MO DA  HHMM     Day     Day       S    > 10 MeV    S    > 30 MeV
#--------------------------------------------------------------------
2007 08 15  0000    54327       0      0    1.94e+00    0    1.37e+00
2007 08 15  0005    54327     300      0    1.97e+00    0    1.37e+00
2007 08 15  0010    54327     600      0    1.93e+00    0    1.34e+00
2007 08 15  0015    54327     900      0    1.94e+00    0    1.36e+00
2007 08 15  0020    54327    1200      0    1.95e+00    0    1.36e+00
2007 08 15  0025    54327    1500      0    1.94e+00    0    1.37e+00
2007 08 15  0030    54327    1800      0    1.96e+00    0    1.38e+00
2007 08 15  0035    54327    2100      0    1.94e+00    0    1.36e+00
2007 08 15  0040    54327    2400      0    1.96e+00    0    1.37e+00
2007 08 15  0045    54327    2700      0    1.93e+00    0    1.34e+00
2007 08 15  0050    54327    3000      0    1.95e+00    0    1.37e+00
2007 08 15  0055    54327    3300      0    1.90e+00    0    1.34e+00
2007 08 15  0100    54327    3600      0    1.94e+00    0    1.34e+00
2007 08 15  0105    54327    3900      0    1.93e+00    0    1.36e+00
2007 08 15  0110    54327    4200      0    1.95e+00    0    1.37e+00
2007 08 15  0115    54327    4500      0    1.92e+00    0    1.35e+00
2007 08 15  0120    54327    4800      0    1.95e+00    0    1.36e+00
2007 08 15  0125    54327    5100      0    1.90e+00    0    1.33e+00
2007 08 15  0130    54327    5400      0    1.92e+00    0    1.35e+00
2007 08 15  0135    54327    5700      0    1.92e+00    0    1.33e+00
2007 08 15  0140    54327    6000      0    1.94e+00    0    1.36e+00
2007 08 15  0145    54327    6300      0    1.92e+00    0    1.35e+00
2007 08 15  0150    54327    6600      0    2.00e+00    0    1.40e+00
2007 08 15  0155    54327    6900      0    1.94e+00    0    1.35e+00
2007 08 15  0200    54327    7200      0    1.93e+00    0    1.36e+00
2007 08 15  0205    54327    7500      0    1.96e+00    0    1.36e+00
2007 08 15  0210    54327    7800      0    1.93e+00    0    1.35e+00
2007 08 15  0215    54327    8100      0    1.98e+00    0    1.39e+00
2007 08 15  0220    54327    8400      0    1.92e+00    0    1.34e+00
2007 08 15  0225    54327    8700      0    1.93e+00    0    1.35e+00
2007 08 15  0230    54327    9000      0    1.95e+00    0    1.37e+00
2007 08 15  0235    54327    9300      0    1.94e+00    0    1.35e+00
2007 08 15  0240    54327    9600      0    1.96e+00    0    1.35e+00
2007 08 15  0245    54327    9900      0    1.93e+00    0    1.35e+00
2007 08 15  0250    54327   10200      0    1.91e+00    0    1.32e+00
2007 08 15  0255    54327   10500      0    1.95e+00    0    1.36e+00
2007 08 15  0300    54327   10800      0    1.95e+00    0    1.37e+00
2007 08 15  0305    54327   11100      0    1.93e+00    0    1.35e+00
2007 08 15  0310    54327   11400      0    1.95e+00    0    1.37e+00
2007 08 15  0315    54327   11700      0    1.92e+00    0    1.34e+00
2007 08 15  0320    54327   12000      0    1.98e+00    0    1.39e+00
2007 08 15  0325    54327   12300      0    1.95e+00    0    1.35e+00
2007 08 15  0330    54327   12600      0    1.99e+00    0    1.41e+00
2007 08 15  0335    54327   12900      0    1.97e+00    0    1.38e+00
2007 08 15  0340    54327   13200      0    1.91e+00    0    1.34e+00
2007 08 15  0345    54327   13500      0    1.92e+00    0    1.35e+00
2007 08 15  0350    54327   13800      0    1.97e+00    0    1.38e+00
2007 08 15  0355    54327   14100      0    1.96e+00    0    1.37e+00
2007 08 15  0400    54327   14400      0    1.95e+00    0    1.38e+00
2007 08 15  0405    54327   14700      0    1.94e+00    0    1.36e+00
2007 08 15  0410    54327   15000      0    1.92e+00    0    1.35e+00
2007 08 15  0415    54327   15300      0    2.00e+00    0    1.40e+00
2007 08 15  0420    54327   15600      0    1.98e+00    0    1.39e+00
2007 08 15  0425    54327   15900      0    1.98e+00    0    1.38e+00
2007 08 15  0430    54327   16200      0    1.96e+00    0    1.37e+00
2007 08 15  0435    54327   16500      0    1.96e+00    0    1.37e+00
2007 08 15  0440    54327   16800      0    1.92e+00    0    1.34e+00
2007 08 15  0445    54327   17100      0    1.92e+00    0    1.35e+00
2007 08 15  0450    54327   17400      0    1.96e+00    0    1.36e+00
2007 08 15  0455    54327   17700      0    1.94e+00    0    1.35e+00
2007 08 15  0500    54327   18000      0    1.93e+00    0    1.34e+00
2007 08 15  0505    54327   18300      0    1.91e+00    0    1.33e+00
2007 08 15  0510    54327   18600      0    1.89e+00    0    1.31e+00
2007 08 15  0515    54327   18900      0    1.91e+00    0    1.34e+00
2007 08 15  0520    54327   19200      0    1.92e+00    0    1.35e+00
2007 08 15  0525    54327   19500      0    1.93e+00    0    1.35e+00
2007 08 15  0530    54327   19800      0    1.96e+00    0    1.38e+00
2007 08 15  0535    54327   20100      0    1.92e+00    0    1.36e+00
2007 08 15  0540    54327   20400      0    1.92e+00    0    1.35e+00
2007 08 15  0545    54327   20700      0    1.93e+00    0    1.33e+00
2007 08 15  0550    54327   21000      0    1.95e+00    0    1.37e+00
2007 08 15  0555    54327   21300      0    1.95e+00    0    1.36e+00
2007 08 15  0600    54327   21600      0    1.96e+00    0    1.36e+00
2007 08 15  0605    54327   21900      0    1.94e+00    0    1.36e+00
2007 08 15  0610    54327   22200      0    1.94e+00    0    1.37e+00
2007 08 15  0615    54327   22500      0    1.97e+00    0    1.38e+00
2007 08 15  0620    54327   22800      0    1.94e+00    0    1.35e+00
2007 08 15  0625    54327   23100      0    1.96e+00    0    1.37e+00
2007 08 15  0630    54327   23400      0    1.89e+00    0    1.33e+00
2007 08 15  0635    54327   23700      0    1.96e+00    0    1.37e+00
2007 08 15  0640    54327   24000      0    1.98e+00    0    1.39e+00
2007 08 15  0645    54327   24300      0    1.91e+00    0    1.34e+00
2007 08 15  0650    54327   24600      0    1.90e+00    0    1.32e+00
2007 08 15  0655    54327   24900      0    1.93e+00    0    1.35e+00
2007 08 15  0700    54327   25200      0    1.90e+00    0    1.33e+00
2007 08 15  0705    54327   25500      0    1.95e+00    0    1.37e+00
2007 08 15  0710    54327   25800      0    1.93e+00    0    1.34e+00
2007 08 15  0715    54327   26100      0    1.94e+00    0    1.36e+00
2007 08 15  0720    54327   26400      0    1.92e+00    0    1.35e+00
2007 08 15  0725    54327   26700      0    1.94e+00    0    1.35e+00
2007 08 15  0730    54327   27000      0    1.93e+00    0    1.33e+00
2007 08 15  0735    54327   27300      0    1.95e+00    0    1.36e+00
2007 08 15  0740    54327   27600      0    1.89e+00    0    1.32e+00
2007 08 15  0745    54327   27900      0    1.91e+00    0    1.33e+00
2007 08 15  0750    54327   28200      0    1.91e+00    0    1.33e+00
2007 08 15  0755    54327   28500      0    1.95e+00    0    1.36e+00
2007 08 15  0800    54327   28800      0    1.96e+00    0    1.37e+00
2007 08 15  0805    54327   29100      0    1.95e+00    0    1.35e+00
2007 08 15  0810    54327   29400      0    1.95e+00    0    1.38e+00
2007 08 15  0815    54327   29700      0    1.95e+00    0    1.36e+00
2007 08 15  0820    54327   30000      0    1.89e+00    0    1.30e+00
2007 08 15  0825    54327   30300      0    1.87e+00    0    1.30e+00
2007 08 15  0830    54327   30600      0    1.95e+00    0    1.38e+00
2007 08 15  0835    54327   30900      0    1.91e+00    0    1.32e+00
2007 08 15  0840    54327   31200      0    1.94e+00    0    1.35e+00
2007 08 15  0845    54327   31500      0    1.98e+00    0    1.38e+00
2007 08 15  0850    54327   31800      0    1.96e+00    0    1.35e+00
2007 08 15  0855    54327   32100      0    1.95e+00    0    1.36e+00
2007 08 15  0900    54327   32400      0    1.93e+00    0    1.35e+00
2007 08 15  0905    54327   32700      0    1.90e+00    0    1.34e+00
2007 08 15  0910    54327   33000      0    1.97e+00    0    1.38e+00
2007 08 15  0915    54327   33300      0    1.98e+00    0    1.41e+00
2007 08 15  0920    54327   33600      0    1.94e+00    0    1.36e+00
2007 08 15  0925    54327   33900      0    1.93e+00    0    1.36e+00
2007 08 15  0930    54327   34200      0    1.96e+00    0    1.37e+00
2007 08 15  0935    54327   34500      0    1.93e+00    0    1.35e+00
2007 08 15  0940    54327   34800      0    1.95e+00    0    1.36e+00
2007 08 15  0945    54327   35100      0    1.93e+00    0    1.35e+00
2007 08 15  0950    54327   35400      0    1.92e+00    0    1.34e+00
2007 08 15  0955    54327   35700      0    1.92e+00    0    1.34e+00
2007 08 15  1000    54327   36000      0    1.96e+00    0    1.37e+00
2007 08 15  1005    54327   36300      0    1.94e+00    0    1.37e+00
2007 08 15  1010    54327   36600      0    1.87e+00    0    1.31e+00
2007 08 15  1015    54327   36900      0    1.91e+00    0    1.35e+00
2007 08 15  1020    54327   37200      0    1.93e+00    0    1.35e+00
2007 08 15  1025    54327   37500      0    1.94e+00    0    1.35e+00
2007 08 15  1030    54327   37800      0    1.92e+00    0    1.36e+00
2007 08 15  1035    54327   38100      0    1.89e+00    0    1.33e+00
2007 08 15  1040    54327   38400      0    1.98e+00    0    1.38e+00
2007 08 15  1045    54327   38700      0    1.97e+00    0    1.38e+00
2007 08 15  1050    54327   39000      0    1.96e+00    0    1.37e+00
2007 08 15  1055    54327   39300      0    1.93e+00    0    1.35e+00
2007 08 15  1100    54327   39600      0    1.92e+00    0    1.35e+00
2007 08 15  1105    54327   39900      0    1.95e+00    0    1.35e+00
2007 08 15  1110    54327   40200      0    1.96e+00    0    1.38e+00
2007 08 15  1115    54327   40500      0    1.95e+00    0    1.36e+00
2007 08 15  1120    54327   40800      0    1.92e+00    0    1.35e+00
2007 08 15  1125    54327   41100      0    1.95e+00    0    1.37e+00
2007 08 15  1130    54327   41400      0    1.97e+00    0    1.38e+00
2007 08 15  1135    54327   41700      0    1.95e+00    0    1.35e+00
2007 08 15  1140    54327   42000      0    1.92e+00    0    1.33e+00
2007 08 15  1145    54327   42300      0    1.98e+00    0    1.39e+00
2007 08 15  1150    54327   42600      0    1.88e+00    0    1.33e+00
2007 08 15  1155    54327   42900      0    1.95e+00    0    1.35e+00
2007 08 15  1200    54327   43200      0    1.92e+00    0    1.34e+00
2007 08 15  1205    54327   43500      0    1.92e+00    0    1.33e+00
2007 08 15  1210    54327   43800      0    1.92e+00    0    1.32e+00
2007 08 15  1215    54327   44100      0    1.99e+00    0    1.39e+00
2007 08 15  1220    54327   44400      0    1.94e+00    0    1.35e+00
2007 08 15  1225    54327   44700      0    1.96e+00    0    1.37e+00
2007 08 15  1230    54327   45000      0    1.93e+00    0    1.33e+00
2007 08 15  1235    54327   45300      0    1.92e+00    0    1.34e+00
2007 08 15  1240    54327   45600      0    1.95e+00    0    1.37e+00
2007 08 15  1245    54327   45900      0    1.90e+00    0    1.33e+00
2007 08 15  1250    54327   46200      0    1.92e+00    0    1.34e+00
2007 08 15  1255    54327   46500      0    1.95e+00    0    1.35e+00
2007 08 15  1300    54327   46800      0    1.92e+00    0    1.34e+00
2007 08 15  1305    54327   47100      0    1.96e+00    0    1.37e+00
2007 08 15  1310    54327   47400      0    1.92e+00    0    1.34e+00
2007 08 15  1315    54327   47700      0    1.96e+00    0    1.37e+00
2007 08 15  1320    54327   48000      0    1.94e+00    0    1.35e+00
2007 08 15  1325    54327   48300      0    1.91e+00    0    1.33e+00
2007 08 15  1330    54327   48600      0    1.95e+00    0    1.37e+00
2007 08 15  1335    54327   48900      0    1.95e+00    0    1.36e+00
2007 08 15  1340    54327   49200      0    1.83e+00    0    1.27e+00
2007 08 15  1345    54327   49500      0    1.94e+00    0    1.35e+00
2007 08 15  1350    54327   49800      0    1.93e+00    0    1.35e+00
2007 08 15  1355    54327   50100      0    1.93e+00    0    1.34e+00
2007 08 15  1400    54327   50400      0    1.98e+00    0    1.39e+00
2007 08 15  1405    54327   50700      0    1.90e+00    0    1.33e+00
2007 08 15  1410    54327   51000      0    1.92e+00    0    1.34e+00
2007 08 15  1415    54327   51300      0    1.92e+00    0    1.33e+00
2007 08 15  1420    54327   51600      0    1.92e+00    0    1.34e+00
2007 08 15  1425    54327   51900      0    1.91e+00    0    1.33e+00
2007 08 15  1430    54327   52200      0    1.94e+00    0    1.35e+00
2007 08 15  1435    54327   52500      0    1.87e+00    0    1.29e+00
2007 08 15  1440    54327   52800      0    1.93e+00    0    1.34e+00
2007 08 15  1445    54327   53100      0    1.96e+00    0    1.38e+00
2007 08 15  1450    54327   53400      0    1.95e+00    0    1.36e+00
2007 08 15  1455    54327   53700      0    1.94e+00    0    1.36e+00
2007 08 15  1500    54327   54000      0    1.93e+00    0    1.35e+00
2007 08 15  1505    54327   54300      0    1.96e+00    0    1.37e+00
2007 08 15  1510    54327   54600      0    1.97e+00    0    1.37e+00
2007 08 15  1515    54327   54900      0    1.92e+00    0    1.34e+00
2007 08 15  1520    54327   55200      0    1.95e+00    0    1.35e+00
2007 08 15  1525    54327   55500      0    1.94e+00    0    1.38e+00
2007 08 15  1530    54327   55800      0    1.86e+00    0    1.30e+00
2007 08 15  1535    54327   56100      0    1.95e+00    0    1.37e+00
2007 08 15  1540    54327   56400      0    1.95e+00    0    1.36e+00
2007 08 15  1545    54327   56700      0    1.92e+00    0    1.36e+00
2007 08 15  1550    54327   57000      0    1.91e+00    0    1.34e+00
2007 08 15  1555    54327   57300      0    1.94e+00    0    1.36e+00
2007 08 15  1600    54327   57600      0    1.92e+00    0    1.34e+00
2007 08 15  1605    54327   57900      0    1.95e+00    0    1.36e+00
2007 08 15  1610    54327   58200      0    1.95e+00    0    1.35e+00
2007 08 15  1615    54327   58500      0    1.98e+00    0    1.38e+00
2007 08 15  1620    54327   58800      0    1.93e+00    0    1.36e+00
2007 08 15  1625    54327   59100      0    1.90e+00    0    1.33e+00
2007 08 15  1630    54327   59400      0    1.93e+00    0    1.36e+00
2007 08 15  1635    54327   59700      0    1.93e+00    0    1.35e+00
2007 08 15  1640    54327   60000      0    1.94e+00    0    1.35e+00
2007 08 15  1645    54327   60300      0    1.90e+00    0    1.33e+00
2007 08 15  1650    54327   60600      0    1.91e+00    0    1.34e+00
2007 08 15  1655    54327   60900      0    1.95e+00    0    1.38e+00
2007 08 15  1700    54327   61200      0    1.95e+00    0    1.36e+00
2007 08 15  1705    54327   61500      0    1.97e+00    0    1.37e+00
2007 08 15  1710    54327   61800      0    1.92e+00    0    1.34e+00
2007 08 15  1715    54327   62100      0    1.93e+00    0    1.35e+00
2007 08 15  1720    54327   62400      0    1.95e+00    0    1.37e+00
2007 08 15  1725    54327   62700      0    1.91e+00    0    1.34e+00
2007 08 15  1730    54327   63000      0    1.90e+00    0    1.33e+00
2007 08 15  1735    54327   63300      0    1.93e+00    0    1.35e+00
2007 08 15  1740    54327   63600      0    1.96e+00    0    1.37e+00
2007 08 15  1745    54327   63900      0    1.96e+00    0    1.37e+00
2007 08 15  1750    54327   64200      0    1.93e+00    0    1.36e+00
2007 08 15  1755    54327   64500      0    1.90e+00    0    1.32e+00
2007 08 15  1800    54327   64800      0    1.92e+00    0    1.34e+00
2007 08 15  1805    54327   65100      0    1.87e+00    0    1.31e+00
2007 08 15  1810    54327   65400      0    1.91e+00    0    1.34e+00
2007 08 15  1815    54327   65700      0    1.92e+00    0    1.35e+00
2007 08 15  1820    54327   66000      0    1.96e+00    0    1.37e+00
2007 08 15  1825    54327   66300      0    1.91e+00    0    1.34e+00
2007 08 15  1830    54327   66600      0    1.95e+00    0    1.37e+00
2007 08 15  1835    54327   66900      0    1.92e+00    0    1.34e+00
2007 08 15  1840    54327   67200      0    1.91e+00    0    1.33e+00
2007 08 15  1845    54327   67500      0    1.92e+00    0    1.35e+00
2007 08 15  1850    54327   67800      0    1.92e+00    0    1.34e+00
2007 08 15  1855    54327   68100      0    1.91e+00    0    1.34e+00
2007 08 15  1900    54327   68400      0    1.90e+00    0    1.33e+00
2007 08 15  1905    54327   68700      0    1.93e+00    0    1.35e+00
2007 08 15  1910    54327   69000      0    1.95e+00    0    1.36e+00
2007 08 15  1915    54327   69300      0    1.93e+00    0    1.36e+00
2007 08 15  1920    54327   69600      0    1.94e+00    0    1.37e+00
2007 08 15  1925    54327   69900      0    1.88e+00    0    1.31e+00
2007 08 15  1930    54327   70200      0    1.92e+00    0    1.35e+00
2007 08 15  1935    54327   70500      0    1.76e+00    0    1.23e+00
2007 08 15  1940    54327   70800      0    1.97e+00    0    1.38e+00
2007 08 15  1945    54327   71100      0    1.92e+00    0    1.34e+00
2007 08 15  1950    54327   71400      0    1.89e+00    0    1.33e+00
2007 08 15  1955    54327   71700      0    1.97e+00    0    1.38e+00
2007 08 15  2000    54327   72000      0    1.96e+00    0    1.37e+00
2007 08 15  2005    54327   72300      0    1.95e+00    0    1.37e+00
2007 08 15  2010    54327   72600      0    1.94e+00    0    1.37e+00
2007 08 15  2015    54327   72900      0    1.93e+00    0    1.36e+00
2007 08 15  2020    54327   73200      0    1.93e+00    0    1.34e+00
2007 08 15  2025    54327   73500      0    1.95e+00    0    1.37e+00
2007 08 15  2030    54327   73800      0    1.92e+00    0    1.33e+00
2007 08 15  2035    54327   74100      0    1.95e+00    0    1.35e+00
2007 08 15  2040    54327   74400      0    1.89e+00    0    1.32e+00
2007 08 15  2045    54327   74700      0    1.96e+00    0    1.37e+00
2007 08 15  2050    54327   75000      0    1.87e+00    0    1.32e+00
2007 08 15  2055    54327   75300      0    1.88e+00    0    1.32e+00
2007 08 15  2100    54327   75600      0    1.87e+00    0    1.29e+00
2007 08 15  2105    54327   75900      0    1.91e+00    0    1.34e+00
2007 08 15  2110    54327   76200      0    1.90e+00    0    1.33e+00
2007 08 15  2115    54327   76500      0    1.91e+00    0    1.34e+00
2007 08 15  2120    54327   76800      0    1.87e+00    0    1.31e+00
2007 08 15  2125    54327   77100      0    1.87e+00    0    1.31e+00
2007 08 15  2130    54327   77400      0    1.91e+00    0    1.35e+00
2007 08 15  2135    54327   77700      0    1.90e+00    0    1.34e+00
2007 08 15  2140    54327   78000      0    1.89e+00    0    1.33e+00
2007 08 15  2145    54327   78300      0    1.96e+00    0    1.35e+00
2007 08 15  2150    54327   78600      0    1.92e+00    0    1.33e+00
2007 08 15  2155    54327   78900      0    1.93e+00    0    1.35e+00
2007 08 15  2200    54327   79200      0    1.95e+00    0    1.36e+00
2007 08 15  2205    54327   79500      0    1.96e+00    0    1.38e+00
2007 08 15  2210    54327   79800      0    1.91e+00    0    1.33e+00
2007 08 15  2215    54327   80100      0    1.94e+00    0    1.35e+00
2007 08 15  2220    54327   80400      0    1.94e+00    0    1.34e+00
2007 08 15  2225    54327   80700      0    1.95e+00    0    1.37e+00
2007 08 15  2230    54327   81000      0    1.93e+00    0    1.35e+00
2007 08 15  2235    54327   81300      0    1.91e+00    0    1.33e+00
2007 08 15  2240    54327   81600      0    1.92e+00    0    1.34e+00
2007 08 15  2245    54327   81900      0    1.96e+00    0    1.37e+00
2007 08 15  2250    54327   82200      0    1.89e+00    0    1.32e+00
2007 08 15  2255    54327   82500      0    1.89e+00    0    1.33e+00
2007 08 15  2300    54327   82800      0    1.91e+00    0    1.34e+00
2007 08 15  2305    54327   83100      0    1.92e+00    0    1.35e+00
2007 08 15  2310    54327   83400      0    1.94e+00    0    1.35e+00
2007 08 15  2315    54327   83700      0    1.91e+00    0    1.34e+00
2007 08 15  2320    54327   84000      0    1.90e+00    0    1.33e+00
2007 08 15  2325    54327   84300      0    1.89e+00    0    1.31e+00
2007 08 15  2330    54327   84600      0    1.89e+00    0    1.33e+00
2007 08 15  2335    54327   84900      0    1.92e+00    0    1.34e+00
2007 08 15  2340    54327   85200      0    1.89e+00    0    1.31e+00
2007 08 15  2345    54327   85500      0    1.86e+00    0    1.31e+00
2007 08 15  2350    54327   85800      0    1.88e+00    0    1.31e+00
2007 08 15  2355    54327   86100      0    1.93e+00    0    1.35e+00
