:Data_list: 20070905_ace_sis_5m.txt
:Created: 2007 Sep 06 0011 UT
# Prepared by the U.S. Dept. of Commerce, NOAA, Space Environment Center.
# Please send comments and suggestions to SEC.Webmaster@noaa.gov 
# 
# Units: proton flux p/cs2-sec-ster
# Status(S): 0 = nominal data, 1 to 8 = bad data record, 9 = no data
# Missing data values: -1.00e+05
# Source: ACE Satellite - Solar Isotope Spectrometer
#
# 5-minute averaged Real-time Integral Flux of High-energy Solar Protons
# 
#                 Modified Seconds
# UT Date   Time   Julian  of the      ---- Integral Proton Flux ----
# YR MO DA  HHMM     Day     Day       S    > 10 MeV    S    > 30 MeV
#--------------------------------------------------------------------
2007 09 05  0000    54348       0      0    1.90e+00    0    1.33e+00
2007 09 05  0005    54348     300      0    1.86e+00    0    1.29e+00
2007 09 05  0010    54348     600      0    1.88e+00    0    1.32e+00
2007 09 05  0015    54348     900      0    1.89e+00    0    1.32e+00
2007 09 05  0020    54348    1200      0    1.89e+00    0    1.31e+00
2007 09 05  0025    54348    1500      0    1.88e+00    0    1.31e+00
2007 09 05  0030    54348    1800      0    1.88e+00    0    1.31e+00
2007 09 05  0035    54348    2100      0    1.85e+00    0    1.29e+00
2007 09 05  0040    54348    2400      0    1.89e+00    0    1.32e+00
2007 09 05  0045    54348    2700      0    1.87e+00    0    1.30e+00
2007 09 05  0050    54348    3000      0    1.92e+00    0    1.36e+00
2007 09 05  0055    54348    3300      0    1.89e+00    0    1.28e+00
2007 09 05  0100    54348    3600      0    1.88e+00    0    1.32e+00
2007 09 05  0105    54348    3900      0    1.88e+00    0    1.32e+00
2007 09 05  0110    54348    4200      0    1.86e+00    0    1.29e+00
2007 09 05  0115    54348    4500      0    1.88e+00    0    1.31e+00
2007 09 05  0120    54348    4800      0    1.90e+00    0    1.33e+00
2007 09 05  0125    54348    5100      0    1.92e+00    0    1.34e+00
2007 09 05  0130    54348    5400      0    1.90e+00    0    1.33e+00
2007 09 05  0135    54348    5700      0    1.89e+00    0    1.32e+00
2007 09 05  0140    54348    6000      0    1.95e+00    0    1.37e+00
2007 09 05  0145    54348    6300      0    1.94e+00    0    1.37e+00
2007 09 05  0150    54348    6600      0    1.93e+00    0    1.35e+00
2007 09 05  0155    54348    6900      0    1.84e+00    0    1.30e+00
2007 09 05  0200    54348    7200      0    1.91e+00    0    1.34e+00
2007 09 05  0205    54348    7500      0    1.88e+00    0    1.29e+00
2007 09 05  0210    54348    7800      0    1.88e+00    0    1.31e+00
2007 09 05  0215    54348    8100      0    1.95e+00    0    1.37e+00
2007 09 05  0220    54348    8400      0    1.90e+00    0    1.34e+00
2007 09 05  0225    54348    8700      0    1.84e+00    0    1.28e+00
2007 09 05  0230    54348    9000      0    1.86e+00    0    1.32e+00
2007 09 05  0235    54348    9300      0    1.93e+00    0    1.34e+00
2007 09 05  0240    54348    9600      0    1.94e+00    0    1.35e+00
2007 09 05  0245    54348    9900      0    1.92e+00    0    1.35e+00
2007 09 05  0250    54348   10200      0    1.91e+00    0    1.32e+00
2007 09 05  0255    54348   10500      0    1.96e+00    0    1.37e+00
2007 09 05  0300    54348   10800      0    1.91e+00    0    1.34e+00
2007 09 05  0305    54348   11100      0    1.88e+00    0    1.30e+00
2007 09 05  0310    54348   11400      0    1.93e+00    0    1.34e+00
2007 09 05  0315    54348   11700      0    1.92e+00    0    1.34e+00
2007 09 05  0320    54348   12000      0    1.90e+00    0    1.32e+00
2007 09 05  0325    54348   12300      0    1.89e+00    0    1.31e+00
2007 09 05  0330    54348   12600      0    1.90e+00    0    1.32e+00
2007 09 05  0335    54348   12900      0    1.90e+00    0    1.33e+00
2007 09 05  0340    54348   13200      0    1.88e+00    0    1.31e+00
2007 09 05  0345    54348   13500      0    1.89e+00    0    1.33e+00
2007 09 05  0350    54348   13800      0    1.95e+00    0    1.36e+00
2007 09 05  0355    54348   14100      0    1.87e+00    0    1.30e+00
2007 09 05  0400    54348   14400      0    1.84e+00    0    1.28e+00
2007 09 05  0405    54348   14700      0    1.90e+00    0    1.33e+00
2007 09 05  0410    54348   15000      0    1.90e+00    0    1.34e+00
2007 09 05  0415    54348   15300      0    1.87e+00    0    1.29e+00
2007 09 05  0420    54348   15600      0    1.89e+00    0    1.33e+00
2007 09 05  0425    54348   15900      0    1.88e+00    0    1.31e+00
2007 09 05  0430    54348   16200      0    1.93e+00    0    1.36e+00
2007 09 05  0435    54348   16500      0    1.97e+00    0    1.36e+00
2007 09 05  0440    54348   16800      0    1.79e+00    0    1.23e+00
2007 09 05  0445    54348   17100      0    1.91e+00    0    1.34e+00
2007 09 05  0450    54348   17400      0    1.90e+00    0    1.32e+00
2007 09 05  0455    54348   17700      0    1.91e+00    0    1.34e+00
2007 09 05  0500    54348   18000      0    1.93e+00    0    1.34e+00
2007 09 05  0505    54348   18300      0    1.88e+00    0    1.32e+00
2007 09 05  0510    54348   18600      0    1.91e+00    0    1.34e+00
2007 09 05  0515    54348   18900      0    1.90e+00    0    1.35e+00
2007 09 05  0520    54348   19200      0    1.94e+00    0    1.33e+00
2007 09 05  0525    54348   19500      0    1.89e+00    0    1.32e+00
2007 09 05  0530    54348   19800      0    1.90e+00    0    1.32e+00
2007 09 05  0535    54348   20100      0    1.90e+00    0    1.33e+00
2007 09 05  0540    54348   20400      0    1.94e+00    0    1.36e+00
2007 09 05  0545    54348   20700      0    1.93e+00    0    1.36e+00
2007 09 05  0550    54348   21000      0    1.93e+00    0    1.35e+00
2007 09 05  0555    54348   21300      0    1.90e+00    0    1.34e+00
2007 09 05  0600    54348   21600      0    1.95e+00    0    1.37e+00
2007 09 05  0605    54348   21900      0    1.93e+00    0    1.34e+00
2007 09 05  0610    54348   22200      0    1.92e+00    0    1.35e+00
2007 09 05  0615    54348   22500      0    1.94e+00    0    1.35e+00
2007 09 05  0620    54348   22800      0    1.91e+00    0    1.33e+00
2007 09 05  0625    54348   23100      0    1.88e+00    0    1.32e+00
2007 09 05  0630    54348   23400      0    1.90e+00    0    1.33e+00
2007 09 05  0635    54348   23700      0    1.93e+00    0    1.35e+00
2007 09 05  0640    54348   24000      0    1.90e+00    0    1.32e+00
2007 09 05  0645    54348   24300      0    1.89e+00    0    1.32e+00
2007 09 05  0650    54348   24600      0    1.89e+00    0    1.32e+00
2007 09 05  0655    54348   24900      0    1.93e+00    0    1.34e+00
2007 09 05  0700    54348   25200      0    1.91e+00    0    1.34e+00
2007 09 05  0705    54348   25500      0    1.92e+00    0    1.35e+00
2007 09 05  0710    54348   25800      0    1.91e+00    0    1.34e+00
2007 09 05  0715    54348   26100      0    1.91e+00    0    1.33e+00
2007 09 05  0720    54348   26400      0    1.88e+00    0    1.31e+00
2007 09 05  0725    54348   26700      0    1.89e+00    0    1.31e+00
2007 09 05  0730    54348   27000      0    1.88e+00    0    1.31e+00
2007 09 05  0735    54348   27300      0    1.90e+00    0    1.33e+00
2007 09 05  0740    54348   27600      0    1.90e+00    0    1.34e+00
2007 09 05  0745    54348   27900      0    1.92e+00    0    1.35e+00
2007 09 05  0750    54348   28200      0    1.95e+00    0    1.36e+00
2007 09 05  0755    54348   28500      0    1.90e+00    0    1.33e+00
2007 09 05  0800    54348   28800      0    1.95e+00    0    1.36e+00
2007 09 05  0805    54348   29100      0    1.89e+00    0    1.32e+00
2007 09 05  0810    54348   29400      0    1.90e+00    0    1.33e+00
2007 09 05  0815    54348   29700      0    1.87e+00    0    1.31e+00
2007 09 05  0820    54348   30000      0    1.97e+00    0    1.38e+00
2007 09 05  0825    54348   30300      0    1.88e+00    0    1.31e+00
2007 09 05  0830    54348   30600      0    1.91e+00    0    1.34e+00
2007 09 05  0835    54348   30900      0    1.91e+00    0    1.35e+00
2007 09 05  0840    54348   31200      0    1.93e+00    0    1.35e+00
2007 09 05  0845    54348   31500      0    1.90e+00    0    1.33e+00
2007 09 05  0850    54348   31800      0    1.89e+00    0    1.32e+00
2007 09 05  0855    54348   32100      0    1.88e+00    0    1.32e+00
2007 09 05  0900    54348   32400      0    1.89e+00    0    1.31e+00
2007 09 05  0905    54348   32700      0    1.92e+00    0    1.34e+00
2007 09 05  0910    54348   33000      0    1.87e+00    0    1.30e+00
2007 09 05  0915    54348   33300      0    1.90e+00    0    1.34e+00
2007 09 05  0920    54348   33600      0    1.87e+00    0    1.32e+00
2007 09 05  0925    54348   33900      0    1.88e+00    0    1.31e+00
2007 09 05  0930    54348   34200      0    1.88e+00    0    1.31e+00
2007 09 05  0935    54348   34500      0    1.91e+00    0    1.33e+00
2007 09 05  0940    54348   34800      0    1.83e+00    0    1.29e+00
2007 09 05  0945    54348   35100      0    1.88e+00    0    1.31e+00
2007 09 05  0950    54348   35400      0    1.92e+00    0    1.35e+00
2007 09 05  0955    54348   35700      0    1.89e+00    0    1.32e+00
2007 09 05  1000    54348   36000      0    1.89e+00    0    1.33e+00
2007 09 05  1005    54348   36300      0    1.88e+00    0    1.32e+00
2007 09 05  1010    54348   36600      0    1.90e+00    0    1.34e+00
2007 09 05  1015    54348   36900      0    1.90e+00    0    1.34e+00
2007 09 05  1020    54348   37200      0    1.93e+00    0    1.35e+00
2007 09 05  1025    54348   37500      0    1.92e+00    0    1.35e+00
2007 09 05  1030    54348   37800      0    1.86e+00    0    1.29e+00
2007 09 05  1035    54348   38100      0    1.91e+00    0    1.34e+00
2007 09 05  1040    54348   38400      0    1.89e+00    0    1.31e+00
2007 09 05  1045    54348   38700      0    1.92e+00    0    1.33e+00
2007 09 05  1050    54348   39000      0    1.88e+00    0    1.32e+00
2007 09 05  1055    54348   39300      0    1.90e+00    0    1.32e+00
2007 09 05  1100    54348   39600      0    1.86e+00    0    1.31e+00
2007 09 05  1105    54348   39900      0    1.90e+00    0    1.33e+00
2007 09 05  1110    54348   40200      0    1.88e+00    0    1.31e+00
2007 09 05  1115    54348   40500      0    1.93e+00    0    1.35e+00
2007 09 05  1120    54348   40800      0    1.90e+00    0    1.32e+00
2007 09 05  1125    54348   41100      0    1.89e+00    0    1.32e+00
2007 09 05  1130    54348   41400      0    1.93e+00    0    1.36e+00
2007 09 05  1135    54348   41700      0    1.87e+00    0    1.29e+00
2007 09 05  1140    54348   42000      0    1.89e+00    0    1.33e+00
2007 09 05  1145    54348   42300      0    1.90e+00    0    1.34e+00
2007 09 05  1150    54348   42600      0    1.89e+00    0    1.31e+00
2007 09 05  1155    54348   42900      0    1.91e+00    0    1.34e+00
2007 09 05  1200    54348   43200      0    1.89e+00    0    1.32e+00
2007 09 05  1205    54348   43500      0    1.90e+00    0    1.33e+00
2007 09 05  1210    54348   43800      0    1.90e+00    0    1.32e+00
2007 09 05  1215    54348   44100      0    1.87e+00    0    1.30e+00
2007 09 05  1220    54348   44400      0    1.91e+00    0    1.33e+00
2007 09 05  1225    54348   44700      0    1.90e+00    0    1.34e+00
2007 09 05  1230    54348   45000      0    1.90e+00    0    1.32e+00
2007 09 05  1235    54348   45300      0    1.88e+00    0    1.30e+00
2007 09 05  1240    54348   45600      0    1.93e+00    0    1.35e+00
2007 09 05  1245    54348   45900      0    1.87e+00    0    1.31e+00
2007 09 05  1250    54348   46200      0    1.93e+00    0    1.33e+00
2007 09 05  1255    54348   46500      0    1.92e+00    0    1.34e+00
2007 09 05  1300    54348   46800      0    1.93e+00    0    1.35e+00
2007 09 05  1305    54348   47100      0    1.88e+00    0    1.31e+00
2007 09 05  1310    54348   47400      0    1.89e+00    0    1.33e+00
2007 09 05  1315    54348   47700      0    1.90e+00    0    1.34e+00
2007 09 05  1320    54348   48000      0    1.88e+00    0    1.31e+00
2007 09 05  1325    54348   48300      0    1.86e+00    0    1.30e+00
2007 09 05  1330    54348   48600      0    1.91e+00    0    1.34e+00
2007 09 05  1335    54348   48900      0    1.90e+00    0    1.33e+00
2007 09 05  1340    54348   49200      0    1.90e+00    0    1.33e+00
2007 09 05  1345    54348   49500      0    1.95e+00    0    1.38e+00
2007 09 05  1350    54348   49800      0    1.90e+00    0    1.33e+00
2007 09 05  1355    54348   50100      0    1.91e+00    0    1.34e+00
2007 09 05  1400    54348   50400      0    1.87e+00    0    1.30e+00
2007 09 05  1405    54348   50700      0    1.92e+00    0    1.34e+00
2007 09 05  1410    54348   51000      0    1.93e+00    0    1.34e+00
2007 09 05  1415    54348   51300      0    1.92e+00    0    1.35e+00
2007 09 05  1420    54348   51600      0    1.90e+00    0    1.32e+00
2007 09 05  1425    54348   51900      0    1.90e+00    0    1.32e+00
2007 09 05  1430    54348   52200      0    1.90e+00    0    1.34e+00
2007 09 05  1435    54348   52500      0    1.87e+00    0    1.31e+00
2007 09 05  1440    54348   52800      0    1.88e+00    0    1.32e+00
2007 09 05  1445    54348   53100      0    1.96e+00    0    1.37e+00
2007 09 05  1450    54348   53400      0    1.93e+00    0    1.33e+00
2007 09 05  1455    54348   53700      0    1.85e+00    0    1.27e+00
2007 09 05  1500    54348   54000      0    1.89e+00    0    1.31e+00
2007 09 05  1505    54348   54300      0    1.88e+00    0    1.32e+00
2007 09 05  1510    54348   54600      0    1.88e+00    0    1.31e+00
2007 09 05  1515    54348   54900      0    1.92e+00    0    1.33e+00
2007 09 05  1520    54348   55200      0    1.93e+00    0    1.35e+00
2007 09 05  1525    54348   55500      0    1.92e+00    0    1.34e+00
2007 09 05  1530    54348   55800      0    1.89e+00    0    1.34e+00
2007 09 05  1535    54348   56100      0    1.89e+00    0    1.32e+00
2007 09 05  1540    54348   56400      0    1.91e+00    0    1.33e+00
2007 09 05  1545    54348   56700      0    1.92e+00    0    1.37e+00
2007 09 05  1550    54348   57000      0    1.90e+00    0    1.33e+00
2007 09 05  1555    54348   57300      0    1.91e+00    0    1.35e+00
2007 09 05  1600    54348   57600      0    1.90e+00    0    1.34e+00
2007 09 05  1605    54348   57900      0    1.94e+00    0    1.35e+00
2007 09 05  1610    54348   58200      0    1.94e+00    0    1.35e+00
2007 09 05  1615    54348   58500      0    1.94e+00    0    1.36e+00
2007 09 05  1620    54348   58800      0    1.91e+00    0    1.34e+00
2007 09 05  1625    54348   59100      0    1.90e+00    0    1.34e+00
2007 09 05  1630    54348   59400      0    1.95e+00    0    1.37e+00
2007 09 05  1635    54348   59700      0    1.92e+00    0    1.34e+00
2007 09 05  1640    54348   60000      0    1.89e+00    0    1.31e+00
2007 09 05  1645    54348   60300      0    1.89e+00    0    1.32e+00
2007 09 05  1650    54348   60600      0    1.89e+00    0    1.32e+00
2007 09 05  1655    54348   60900      0    1.95e+00    0    1.36e+00
2007 09 05  1700    54348   61200      0    1.88e+00    0    1.32e+00
2007 09 05  1705    54348   61500      0    1.88e+00    0    1.32e+00
2007 09 05  1710    54348   61800      0    1.88e+00    0    1.30e+00
2007 09 05  1715    54348   62100      0    1.90e+00    0    1.34e+00
2007 09 05  1720    54348   62400      0    1.90e+00    0    1.35e+00
2007 09 05  1725    54348   62700      0    1.90e+00    0    1.33e+00
2007 09 05  1730    54348   63000      0    1.95e+00    0    1.36e+00
2007 09 05  1735    54348   63300      0    1.90e+00    0    1.33e+00
2007 09 05  1740    54348   63600      0    1.90e+00    0    1.33e+00
2007 09 05  1745    54348   63900      0    1.94e+00    0    1.35e+00
2007 09 05  1750    54348   64200      0    1.94e+00    0    1.35e+00
2007 09 05  1755    54348   64500      0    1.98e+00    0    1.39e+00
2007 09 05  1800    54348   64800      0    1.91e+00    0    1.34e+00
2007 09 05  1805    54348   65100      0    1.90e+00    0    1.32e+00
2007 09 05  1810    54348   65400      0    1.92e+00    0    1.34e+00
2007 09 05  1815    54348   65700      0    1.91e+00    0    1.34e+00
2007 09 05  1820    54348   66000      0    1.90e+00    0    1.35e+00
2007 09 05  1825    54348   66300      0    1.93e+00    0    1.35e+00
2007 09 05  1830    54348   66600      0    1.93e+00    0    1.36e+00
2007 09 05  1835    54348   66900      0    1.91e+00    0    1.33e+00
2007 09 05  1840    54348   67200      0    1.91e+00    0    1.33e+00
2007 09 05  1845    54348   67500      0    1.91e+00    0    1.34e+00
2007 09 05  1850    54348   67800      0    1.90e+00    0    1.33e+00
2007 09 05  1855    54348   68100      0    1.91e+00    0    1.32e+00
2007 09 05  1900    54348   68400      0    1.94e+00    0    1.35e+00
2007 09 05  1905    54348   68700      0    1.93e+00    0    1.37e+00
2007 09 05  1910    54348   69000      0    1.91e+00    0    1.34e+00
2007 09 05  1915    54348   69300      0    1.93e+00    0    1.36e+00
2007 09 05  1920    54348   69600      0    1.91e+00    0    1.33e+00
2007 09 05  1925    54348   69900      0    1.94e+00    0    1.35e+00
2007 09 05  1930    54348   70200      0    1.95e+00    0    1.37e+00
2007 09 05  1935    54348   70500      0    1.91e+00    0    1.34e+00
2007 09 05  1940    54348   70800      0    1.90e+00    0    1.34e+00
2007 09 05  1945    54348   71100      0    1.86e+00    0    1.29e+00
2007 09 05  1950    54348   71400      0    1.90e+00    0    1.32e+00
2007 09 05  1955    54348   71700      0    1.88e+00    0    1.29e+00
2007 09 05  2000    54348   72000      0    1.90e+00    0    1.33e+00
2007 09 05  2005    54348   72300      0    1.90e+00    0    1.34e+00
2007 09 05  2010    54348   72600      0    1.94e+00    0    1.37e+00
2007 09 05  2015    54348   72900      0    1.89e+00    0    1.31e+00
2007 09 05  2020    54348   73200      0    1.90e+00    0    1.33e+00
2007 09 05  2025    54348   73500      0    1.89e+00    0    1.31e+00
2007 09 05  2030    54348   73800      0    1.90e+00    0    1.33e+00
2007 09 05  2035    54348   74100      0    1.94e+00    0    1.36e+00
2007 09 05  2040    54348   74400      0    1.95e+00    0    1.36e+00
2007 09 05  2045    54348   74700      0    1.89e+00    0    1.32e+00
2007 09 05  2050    54348   75000      0    1.90e+00    0    1.33e+00
2007 09 05  2055    54348   75300      0    1.94e+00    0    1.35e+00
2007 09 05  2100    54348   75600      0    1.90e+00    0    1.33e+00
2007 09 05  2105    54348   75900      0    1.93e+00    0    1.34e+00
2007 09 05  2110    54348   76200      0    1.93e+00    0    1.33e+00
2007 09 05  2115    54348   76500      0    1.92e+00    0    1.33e+00
2007 09 05  2120    54348   76800      0    1.92e+00    0    1.35e+00
2007 09 05  2125    54348   77100      0    1.90e+00    0    1.34e+00
2007 09 05  2130    54348   77400      0    1.91e+00    0    1.33e+00
2007 09 05  2135    54348   77700      0    1.93e+00    0    1.35e+00
2007 09 05  2140    54348   78000      0    1.91e+00    0    1.34e+00
2007 09 05  2145    54348   78300      0    1.96e+00    0    1.37e+00
2007 09 05  2150    54348   78600      0    1.89e+00    0    1.31e+00
2007 09 05  2155    54348   78900      0    1.92e+00    0    1.34e+00
2007 09 05  2200    54348   79200      0    1.94e+00    0    1.35e+00
2007 09 05  2205    54348   79500      0    1.92e+00    0    1.35e+00
2007 09 05  2210    54348   79800      0    1.93e+00    0    1.34e+00
2007 09 05  2215    54348   80100      0    1.92e+00    0    1.35e+00
2007 09 05  2220    54348   80400      0    1.94e+00    0    1.35e+00
2007 09 05  2225    54348   80700      0    1.94e+00    0    1.37e+00
2007 09 05  2230    54348   81000      0    1.88e+00    0    1.31e+00
2007 09 05  2235    54348   81300      0    1.93e+00    0    1.35e+00
2007 09 05  2240    54348   81600      0    1.93e+00    0    1.35e+00
2007 09 05  2245    54348   81900      0    1.93e+00    0    1.35e+00
2007 09 05  2250    54348   82200      0    1.92e+00    0    1.33e+00
2007 09 05  2255    54348   82500      0    1.94e+00    0    1.34e+00
2007 09 05  2300    54348   82800      0    1.93e+00    0    1.35e+00
2007 09 05  2305    54348   83100      0    1.92e+00    0    1.34e+00
2007 09 05  2310    54348   83400      0    1.89e+00    0    1.33e+00
2007 09 05  2315    54348   83700      0    1.93e+00    0    1.35e+00
2007 09 05  2320    54348   84000      0    1.91e+00    0    1.34e+00
2007 09 05  2325    54348   84300      0    2.03e+00    0    1.40e+00
2007 09 05  2330    54348   84600      0    1.90e+00    0    1.32e+00
2007 09 05  2335    54348   84900      0    1.90e+00    0    1.34e+00
2007 09 05  2340    54348   85200      0    1.91e+00    0    1.34e+00
2007 09 05  2345    54348   85500      0    1.93e+00    0    1.37e+00
2007 09 05  2350    54348   85800      0    1.97e+00    0    1.38e+00
2007 09 05  2355    54348   86100      0    1.95e+00    0    1.38e+00
