:Data_list: 20070814_ace_sis_5m.txt
:Created: 2007 Aug 15 0011 UT
# Prepared by the U.S. Dept. of Commerce, NOAA, Space Environment Center.
# Please send comments and suggestions to SEC.Webmaster@noaa.gov 
# 
# Units: proton flux p/cs2-sec-ster
# Status(S): 0 = nominal data, 1 to 8 = bad data record, 9 = no data
# Missing data values: -1.00e+05
# Source: ACE Satellite - Solar Isotope Spectrometer
#
# 5-minute averaged Real-time Integral Flux of High-energy Solar Protons
# 
#                 Modified Seconds
# UT Date   Time   Julian  of the      ---- Integral Proton Flux ----
# YR MO DA  HHMM     Day     Day       S    > 10 MeV    S    > 30 MeV
#--------------------------------------------------------------------
2007 08 14  0000    54326       0      0    1.96e+00    0    1.39e+00
2007 08 14  0005    54326     300      0    1.95e+00    0    1.37e+00
2007 08 14  0010    54326     600      0    1.91e+00    0    1.33e+00
2007 08 14  0015    54326     900      0    1.95e+00    0    1.37e+00
2007 08 14  0020    54326    1200      0    1.95e+00    0    1.36e+00
2007 08 14  0025    54326    1500      0    1.95e+00    0    1.36e+00
2007 08 14  0030    54326    1800      0    1.96e+00    0    1.38e+00
2007 08 14  0035    54326    2100      0    1.94e+00    0    1.36e+00
2007 08 14  0040    54326    2400      0    1.93e+00    0    1.33e+00
2007 08 14  0045    54326    2700      0    1.95e+00    0    1.37e+00
2007 08 14  0050    54326    3000      0    1.93e+00    0    1.34e+00
2007 08 14  0055    54326    3300      0    1.96e+00    0    1.36e+00
2007 08 14  0100    54326    3600      0    1.93e+00    0    1.34e+00
2007 08 14  0105    54326    3900      0    1.99e+00    0    1.40e+00
2007 08 14  0110    54326    4200      0    1.93e+00    0    1.33e+00
2007 08 14  0115    54326    4500      0    1.93e+00    0    1.36e+00
2007 08 14  0120    54326    4800      0    1.92e+00    0    1.33e+00
2007 08 14  0125    54326    5100      0    1.93e+00    0    1.36e+00
2007 08 14  0130    54326    5400      0    1.94e+00    0    1.35e+00
2007 08 14  0135    54326    5700      0    1.99e+00    0    1.41e+00
2007 08 14  0140    54326    6000      0    1.98e+00    0    1.38e+00
2007 08 14  0145    54326    6300      0    1.97e+00    0    1.39e+00
2007 08 14  0150    54326    6600      0    1.94e+00    0    1.34e+00
2007 08 14  0155    54326    6900      0    1.95e+00    0    1.36e+00
2007 08 14  0200    54326    7200      0    1.91e+00    0    1.35e+00
2007 08 14  0205    54326    7500      0    1.94e+00    0    1.36e+00
2007 08 14  0210    54326    7800      0    1.94e+00    0    1.36e+00
2007 08 14  0215    54326    8100      0    1.93e+00    0    1.35e+00
2007 08 14  0220    54326    8400      0    1.93e+00    0    1.36e+00
2007 08 14  0225    54326    8700      0    1.98e+00    0    1.38e+00
2007 08 14  0230    54326    9000      0    1.86e+00    0    1.30e+00
2007 08 14  0235    54326    9300      0    1.93e+00    0    1.35e+00
2007 08 14  0240    54326    9600      0    1.92e+00    0    1.35e+00
2007 08 14  0245    54326    9900      0    1.90e+00    0    1.34e+00
2007 08 14  0250    54326   10200      0    1.93e+00    0    1.35e+00
2007 08 14  0255    54326   10500      0    1.95e+00    0    1.36e+00
2007 08 14  0300    54326   10800      0    1.95e+00    0    1.37e+00
2007 08 14  0305    54326   11100      0    1.95e+00    0    1.36e+00
2007 08 14  0310    54326   11400      0    1.98e+00    0    1.39e+00
2007 08 14  0315    54326   11700      0    1.96e+00    0    1.36e+00
2007 08 14  0320    54326   12000      0    1.98e+00    0    1.40e+00
2007 08 14  0325    54326   12300      0    1.92e+00    0    1.35e+00
2007 08 14  0330    54326   12600      0    1.98e+00    0    1.39e+00
2007 08 14  0335    54326   12900      0    1.93e+00    0    1.35e+00
2007 08 14  0340    54326   13200      0    1.95e+00    0    1.36e+00
2007 08 14  0345    54326   13500      0    1.99e+00    0    1.40e+00
2007 08 14  0350    54326   13800      0    1.95e+00    0    1.34e+00
2007 08 14  0355    54326   14100      0    1.91e+00    0    1.33e+00
2007 08 14  0400    54326   14400      0    1.89e+00    0    1.32e+00
2007 08 14  0405    54326   14700      0    1.96e+00    0    1.38e+00
2007 08 14  0410    54326   15000      0    1.93e+00    0    1.35e+00
2007 08 14  0415    54326   15300      0    1.95e+00    0    1.36e+00
2007 08 14  0420    54326   15600      0    1.89e+00    0    1.33e+00
2007 08 14  0425    54326   15900      0    1.97e+00    0    1.38e+00
2007 08 14  0430    54326   16200      0    1.92e+00    0    1.33e+00
2007 08 14  0435    54326   16500      0    1.98e+00    0    1.40e+00
2007 08 14  0440    54326   16800      0    1.92e+00    0    1.32e+00
2007 08 14  0445    54326   17100      0    1.95e+00    0    1.36e+00
2007 08 14  0450    54326   17400      0    1.92e+00    0    1.33e+00
2007 08 14  0455    54326   17700      0    1.95e+00    0    1.35e+00
2007 08 14  0500    54326   18000      0    1.97e+00    0    1.38e+00
2007 08 14  0505    54326   18300      0    1.96e+00    0    1.37e+00
2007 08 14  0510    54326   18600      0    1.95e+00    0    1.37e+00
2007 08 14  0515    54326   18900      0    1.96e+00    0    1.37e+00
2007 08 14  0520    54326   19200      0    1.94e+00    0    1.36e+00
2007 08 14  0525    54326   19500      0    1.99e+00    0    1.37e+00
2007 08 14  0530    54326   19800      0    1.97e+00    0    1.37e+00
2007 08 14  0535    54326   20100      0    1.95e+00    0    1.37e+00
2007 08 14  0540    54326   20400      0    1.97e+00    0    1.37e+00
2007 08 14  0545    54326   20700      0    1.95e+00    0    1.37e+00
2007 08 14  0550    54326   21000      0    1.97e+00    0    1.37e+00
2007 08 14  0555    54326   21300      0    1.97e+00    0    1.38e+00
2007 08 14  0600    54326   21600      0    1.96e+00    0    1.38e+00
2007 08 14  0605    54326   21900      0    1.92e+00    0    1.35e+00
2007 08 14  0610    54326   22200      0    1.94e+00    0    1.35e+00
2007 08 14  0615    54326   22500      0    1.99e+00    0    1.39e+00
2007 08 14  0620    54326   22800      0    1.96e+00    0    1.37e+00
2007 08 14  0625    54326   23100      0    1.96e+00    0    1.38e+00
2007 08 14  0630    54326   23400      0    1.94e+00    0    1.36e+00
2007 08 14  0635    54326   23700      0    1.98e+00    0    1.37e+00
2007 08 14  0640    54326   24000      0    1.98e+00    0    1.40e+00
2007 08 14  0645    54326   24300      0    1.95e+00    0    1.36e+00
2007 08 14  0650    54326   24600      0    1.92e+00    0    1.35e+00
2007 08 14  0655    54326   24900      0    2.00e+00    0    1.40e+00
2007 08 14  0700    54326   25200      0    1.96e+00    0    1.37e+00
2007 08 14  0705    54326   25500      0    1.97e+00    0    1.38e+00
2007 08 14  0710    54326   25800      0    1.96e+00    0    1.37e+00
2007 08 14  0715    54326   26100      0    2.02e+00    0    1.41e+00
2007 08 14  0720    54326   26400      0    1.98e+00    0    1.39e+00
2007 08 14  0725    54326   26700      0    1.96e+00    0    1.38e+00
2007 08 14  0730    54326   27000      0    1.96e+00    0    1.38e+00
2007 08 14  0735    54326   27300      0    1.99e+00    0    1.39e+00
2007 08 14  0740    54326   27600      0    1.99e+00    0    1.40e+00
2007 08 14  0745    54326   27900      0    1.94e+00    0    1.35e+00
2007 08 14  0750    54326   28200      0    1.97e+00    0    1.37e+00
2007 08 14  0755    54326   28500      0    1.98e+00    0    1.38e+00
2007 08 14  0800    54326   28800      0    1.98e+00    0    1.38e+00
2007 08 14  0805    54326   29100      0    1.96e+00    0    1.38e+00
2007 08 14  0810    54326   29400      0    1.95e+00    0    1.36e+00
2007 08 14  0815    54326   29700      0    1.93e+00    0    1.35e+00
2007 08 14  0820    54326   30000      0    1.97e+00    0    1.38e+00
2007 08 14  0825    54326   30300      0    1.93e+00    0    1.35e+00
2007 08 14  0830    54326   30600      0    1.94e+00    0    1.36e+00
2007 08 14  0835    54326   30900      0    1.98e+00    0    1.39e+00
2007 08 14  0840    54326   31200      0    1.94e+00    0    1.35e+00
2007 08 14  0845    54326   31500      0    2.01e+00    0    1.40e+00
2007 08 14  0850    54326   31800      0    1.94e+00    0    1.36e+00
2007 08 14  0855    54326   32100      0    1.95e+00    0    1.38e+00
2007 08 14  0900    54326   32400      0    2.00e+00    0    1.40e+00
2007 08 14  0905    54326   32700      0    1.97e+00    0    1.38e+00
2007 08 14  0910    54326   33000      0    1.93e+00    0    1.37e+00
2007 08 14  0915    54326   33300      0    1.98e+00    0    1.39e+00
2007 08 14  0920    54326   33600      0    1.94e+00    0    1.35e+00
2007 08 14  0925    54326   33900      0    1.97e+00    0    1.37e+00
2007 08 14  0930    54326   34200      0    1.96e+00    0    1.37e+00
2007 08 14  0935    54326   34500      0    1.99e+00    0    1.40e+00
2007 08 14  0940    54326   34800      0    1.97e+00    0    1.37e+00
2007 08 14  0945    54326   35100      0    1.95e+00    0    1.36e+00
2007 08 14  0950    54326   35400      0    1.98e+00    0    1.39e+00
2007 08 14  0955    54326   35700      0    1.98e+00    0    1.39e+00
2007 08 14  1000    54326   36000      0    1.94e+00    0    1.37e+00
2007 08 14  1005    54326   36300      0    1.92e+00    0    1.33e+00
2007 08 14  1010    54326   36600      0    1.96e+00    0    1.37e+00
2007 08 14  1015    54326   36900      0    1.96e+00    0    1.37e+00
2007 08 14  1020    54326   37200      0    1.97e+00    0    1.39e+00
2007 08 14  1025    54326   37500      0    1.97e+00    0    1.39e+00
2007 08 14  1030    54326   37800      0    1.95e+00    0    1.37e+00
2007 08 14  1035    54326   38100      0    1.98e+00    0    1.38e+00
2007 08 14  1040    54326   38400      0    2.00e+00    0    1.41e+00
2007 08 14  1045    54326   38700      0    1.98e+00    0    1.39e+00
2007 08 14  1050    54326   39000      0    1.94e+00    0    1.35e+00
2007 08 14  1055    54326   39300      0    1.94e+00    0    1.37e+00
2007 08 14  1100    54326   39600      0    1.92e+00    0    1.35e+00
2007 08 14  1105    54326   39900      0    1.96e+00    0    1.37e+00
2007 08 14  1110    54326   40200      0    1.98e+00    0    1.39e+00
2007 08 14  1115    54326   40500      0    2.00e+00    0    1.40e+00
2007 08 14  1120    54326   40800      0    1.93e+00    0    1.34e+00
2007 08 14  1125    54326   41100      0    1.98e+00    0    1.37e+00
2007 08 14  1130    54326   41400      0    1.93e+00    0    1.35e+00
2007 08 14  1135    54326   41700      0    1.95e+00    0    1.37e+00
2007 08 14  1140    54326   42000      0    2.00e+00    0    1.39e+00
2007 08 14  1145    54326   42300      0    1.93e+00    0    1.34e+00
2007 08 14  1150    54326   42600      0    1.93e+00    0    1.35e+00
2007 08 14  1155    54326   42900      0    1.95e+00    0    1.37e+00
2007 08 14  1200    54326   43200      0    1.96e+00    0    1.37e+00
2007 08 14  1205    54326   43500      0    1.97e+00    0    1.37e+00
2007 08 14  1210    54326   43800      0    1.96e+00    0    1.38e+00
2007 08 14  1215    54326   44100      0    1.95e+00    0    1.37e+00
2007 08 14  1220    54326   44400      0    1.93e+00    0    1.34e+00
2007 08 14  1225    54326   44700      0    1.95e+00    0    1.37e+00
2007 08 14  1230    54326   45000      0    1.92e+00    0    1.35e+00
2007 08 14  1235    54326   45300      0    1.98e+00    0    1.39e+00
2007 08 14  1240    54326   45600      0    1.96e+00    0    1.37e+00
2007 08 14  1245    54326   45900      0    1.93e+00    0    1.35e+00
2007 08 14  1250    54326   46200      0    1.97e+00    0    1.37e+00
2007 08 14  1255    54326   46500      0    1.93e+00    0    1.34e+00
2007 08 14  1300    54326   46800      0    1.94e+00    0    1.36e+00
2007 08 14  1305    54326   47100      0    1.95e+00    0    1.36e+00
2007 08 14  1310    54326   47400      0    1.92e+00    0    1.36e+00
2007 08 14  1315    54326   47700      0    1.96e+00    0    1.38e+00
2007 08 14  1320    54326   48000      0    1.98e+00    0    1.40e+00
2007 08 14  1325    54326   48300      0    1.95e+00    0    1.36e+00
2007 08 14  1330    54326   48600      0    1.92e+00    0    1.34e+00
2007 08 14  1335    54326   48900      0    1.99e+00    0    1.39e+00
2007 08 14  1340    54326   49200      0    1.98e+00    0    1.36e+00
2007 08 14  1345    54326   49500      0    1.97e+00    0    1.38e+00
2007 08 14  1350    54326   49800      0    1.98e+00    0    1.39e+00
2007 08 14  1355    54326   50100      0    1.99e+00    0    1.38e+00
2007 08 14  1400    54326   50400      0    1.93e+00    0    1.35e+00
2007 08 14  1405    54326   50700      0    1.94e+00    0    1.35e+00
2007 08 14  1410    54326   51000      0    2.00e+00    0    1.40e+00
2007 08 14  1415    54326   51300      0    1.91e+00    0    1.34e+00
2007 08 14  1420    54326   51600      0    1.90e+00    0    1.33e+00
2007 08 14  1425    54326   51900      0    1.97e+00    0    1.38e+00
2007 08 14  1430    54326   52200      0    2.01e+00    0    1.42e+00
2007 08 14  1435    54326   52500      0    1.95e+00    0    1.37e+00
2007 08 14  1440    54326   52800      0    1.93e+00    0    1.35e+00
2007 08 14  1445    54326   53100      0    1.97e+00    0    1.40e+00
2007 08 14  1450    54326   53400      0    1.99e+00    0    1.39e+00
2007 08 14  1455    54326   53700      0    1.95e+00    0    1.36e+00
2007 08 14  1500    54326   54000      0    1.94e+00    0    1.35e+00
2007 08 14  1505    54326   54300      0    1.98e+00    0    1.39e+00
2007 08 14  1510    54326   54600      0    1.92e+00    0    1.35e+00
2007 08 14  1515    54326   54900      0    1.95e+00    0    1.36e+00
2007 08 14  1520    54326   55200      0    1.93e+00    0    1.34e+00
2007 08 14  1525    54326   55500      0    2.00e+00    0    1.38e+00
2007 08 14  1530    54326   55800      0    1.94e+00    0    1.37e+00
2007 08 14  1535    54326   56100      0    1.94e+00    0    1.37e+00
2007 08 14  1540    54326   56400      0    1.96e+00    0    1.36e+00
2007 08 14  1545    54326   56700      0    1.96e+00    0    1.38e+00
2007 08 14  1550    54326   57000      0    1.94e+00    0    1.37e+00
2007 08 14  1555    54326   57300      0    1.95e+00    0    1.36e+00
2007 08 14  1600    54326   57600      0    1.96e+00    0    1.38e+00
2007 08 14  1605    54326   57900      0    1.97e+00    0    1.38e+00
2007 08 14  1610    54326   58200      0    1.94e+00    0    1.36e+00
2007 08 14  1615    54326   58500      0    1.93e+00    0    1.36e+00
2007 08 14  1620    54326   58800      0    1.94e+00    0    1.36e+00
2007 08 14  1625    54326   59100      0    1.96e+00    0    1.37e+00
2007 08 14  1630    54326   59400      0    1.97e+00    0    1.37e+00
2007 08 14  1635    54326   59700      0    1.93e+00    0    1.34e+00
2007 08 14  1640    54326   60000      0    1.95e+00    0    1.36e+00
2007 08 14  1645    54326   60300      0    1.96e+00    0    1.37e+00
2007 08 14  1650    54326   60600      0    1.96e+00    0    1.37e+00
2007 08 14  1655    54326   60900      0    1.94e+00    0    1.36e+00
2007 08 14  1700    54326   61200      0    1.93e+00    0    1.34e+00
2007 08 14  1705    54326   61500      0    1.91e+00    0    1.33e+00
2007 08 14  1710    54326   61800      0    1.93e+00    0    1.35e+00
2007 08 14  1715    54326   62100      0    1.99e+00    0    1.39e+00
2007 08 14  1720    54326   62400      0    1.96e+00    0    1.38e+00
2007 08 14  1725    54326   62700      0    1.94e+00    0    1.34e+00
2007 08 14  1730    54326   63000      0    1.97e+00    0    1.37e+00
2007 08 14  1735    54326   63300      0    1.94e+00    0    1.35e+00
2007 08 14  1740    54326   63600      0    1.97e+00    0    1.38e+00
2007 08 14  1745    54326   63900      0    1.93e+00    0    1.34e+00
2007 08 14  1750    54326   64200      0    2.00e+00    0    1.40e+00
2007 08 14  1755    54326   64500      0    1.94e+00    0    1.35e+00
2007 08 14  1800    54326   64800      0    1.88e+00    0    1.30e+00
2007 08 14  1805    54326   65100      0    1.95e+00    0    1.37e+00
2007 08 14  1810    54326   65400      0    1.96e+00    0    1.37e+00
2007 08 14  1815    54326   65700      0    1.94e+00    0    1.35e+00
2007 08 14  1820    54326   66000      0    1.95e+00    0    1.37e+00
2007 08 14  1825    54326   66300      0    1.95e+00    0    1.36e+00
2007 08 14  1830    54326   66600      0    2.01e+00    0    1.41e+00
2007 08 14  1835    54326   66900      0    1.95e+00    0    1.36e+00
2007 08 14  1840    54326   67200      0    1.93e+00    0    1.35e+00
2007 08 14  1845    54326   67500      0    1.92e+00    0    1.34e+00
2007 08 14  1850    54326   67800      0    1.95e+00    0    1.35e+00
2007 08 14  1855    54326   68100      0    1.95e+00    0    1.36e+00
2007 08 14  1900    54326   68400      0    1.98e+00    0    1.39e+00
2007 08 14  1905    54326   68700      0    2.00e+00    0    1.39e+00
2007 08 14  1910    54326   69000      0    1.94e+00    0    1.36e+00
2007 08 14  1915    54326   69300      0    1.95e+00    0    1.37e+00
2007 08 14  1920    54326   69600      0    1.94e+00    0    1.36e+00
2007 08 14  1925    54326   69900      0    1.92e+00    0    1.33e+00
2007 08 14  1930    54326   70200      0    1.95e+00    0    1.37e+00
2007 08 14  1935    54326   70500      0    1.96e+00    0    1.36e+00
2007 08 14  1940    54326   70800      0    1.91e+00    0    1.33e+00
2007 08 14  1945    54326   71100      0    1.99e+00    0    1.40e+00
2007 08 14  1950    54326   71400      0    1.96e+00    0    1.37e+00
2007 08 14  1955    54326   71700      0    1.99e+00    0    1.40e+00
2007 08 14  2000    54326   72000      0    1.96e+00    0    1.37e+00
2007 08 14  2005    54326   72300      0    1.96e+00    0    1.38e+00
2007 08 14  2010    54326   72600      0    1.97e+00    0    1.37e+00
2007 08 14  2015    54326   72900      0    1.98e+00    0    1.39e+00
2007 08 14  2020    54326   73200      0    2.00e+00    0    1.39e+00
2007 08 14  2025    54326   73500      0    1.97e+00    0    1.38e+00
2007 08 14  2030    54326   73800      0    1.92e+00    0    1.34e+00
2007 08 14  2035    54326   74100      0    1.96e+00    0    1.37e+00
2007 08 14  2040    54326   74400      0    1.95e+00    0    1.37e+00
2007 08 14  2045    54326   74700      0    1.98e+00    0    1.37e+00
2007 08 14  2050    54326   75000      0    1.98e+00    0    1.39e+00
2007 08 14  2055    54326   75300      0    1.99e+00    0    1.40e+00
2007 08 14  2100    54326   75600      0    1.91e+00    0    1.32e+00
2007 08 14  2105    54326   75900      0    2.00e+00    0    1.38e+00
2007 08 14  2110    54326   76200      0    1.99e+00    0    1.39e+00
2007 08 14  2115    54326   76500      0    2.00e+00    0    1.39e+00
2007 08 14  2120    54326   76800      0    1.99e+00    0    1.40e+00
2007 08 14  2125    54326   77100      0    1.95e+00    0    1.36e+00
2007 08 14  2130    54326   77400      0    1.94e+00    0    1.36e+00
2007 08 14  2135    54326   77700      0    1.95e+00    0    1.36e+00
2007 08 14  2140    54326   78000      0    1.96e+00    0    1.38e+00
2007 08 14  2145    54326   78300      0    1.97e+00    0    1.38e+00
2007 08 14  2150    54326   78600      0    1.91e+00    0    1.34e+00
2007 08 14  2155    54326   78900      0    1.98e+00    0    1.39e+00
2007 08 14  2200    54326   79200      0    1.93e+00    0    1.35e+00
2007 08 14  2205    54326   79500      0    1.93e+00    0    1.37e+00
2007 08 14  2210    54326   79800      0    1.92e+00    0    1.34e+00
2007 08 14  2215    54326   80100      0    1.96e+00    0    1.36e+00
2007 08 14  2220    54326   80400      0    1.97e+00    0    1.37e+00
2007 08 14  2225    54326   80700      0    1.98e+00    0    1.39e+00
2007 08 14  2230    54326   81000      0    1.96e+00    0    1.36e+00
2007 08 14  2235    54326   81300      0    1.95e+00    0    1.37e+00
2007 08 14  2240    54326   81600      0    1.97e+00    0    1.39e+00
2007 08 14  2245    54326   81900      0    1.94e+00    0    1.34e+00
2007 08 14  2250    54326   82200      0    1.91e+00    0    1.35e+00
2007 08 14  2255    54326   82500      0    1.95e+00    0    1.37e+00
2007 08 14  2300    54326   82800      0    1.95e+00    0    1.37e+00
2007 08 14  2305    54326   83100      0    1.96e+00    0    1.38e+00
2007 08 14  2310    54326   83400      0    1.92e+00    0    1.35e+00
2007 08 14  2315    54326   83700      0    1.93e+00    0    1.35e+00
2007 08 14  2320    54326   84000      0    1.93e+00    0    1.36e+00
2007 08 14  2325    54326   84300      0    1.99e+00    0    1.38e+00
2007 08 14  2330    54326   84600      0    1.94e+00    0    1.36e+00
2007 08 14  2335    54326   84900      0    1.93e+00    0    1.36e+00
2007 08 14  2340    54326   85200      0    1.98e+00    0    1.38e+00
2007 08 14  2345    54326   85500      0    1.96e+00    0    1.37e+00
2007 08 14  2350    54326   85800      0    1.98e+00    0    1.39e+00
2007 08 14  2355    54326   86100      0    2.01e+00    0    1.41e+00
