:Data_list: 20070208_ace_sis_5m.txt
:Created: 2007 Feb 09 0011 UT
# Prepared by the U.S. Dept. of Commerce, NOAA, Space Environment Center.
# Please send comments and suggestions to SEC.Webmaster@noaa.gov 
# 
# Units: proton flux p/cs2-sec-ster
# Status(S): 0 = nominal data, 1 to 8 = bad data record, 9 = no data
# Missing data values: -1.00e+05
# Source: ACE Satellite - Solar Isotope Spectrometer
#
# 5-minute averaged Real-time Integral Flux of High-energy Solar Protons
# 
#                 Modified Seconds
# UT Date   Time   Julian  of the      ---- Integral Proton Flux ----
# YR MO DA  HHMM     Day     Day       S    > 10 MeV    S    > 30 MeV
#--------------------------------------------------------------------
2007 02 08  0000    54139       0      0    1.71e+00    0    1.21e+00
2007 02 08  0005    54139     300      0    1.72e+00    0    1.21e+00
2007 02 08  0010    54139     600      0    1.71e+00    0    1.19e+00
2007 02 08  0015    54139     900      0    1.68e+00    0    1.18e+00
2007 02 08  0020    54139    1200      0    1.74e+00    0    1.23e+00
2007 02 08  0025    54139    1500      0    1.67e+00    0    1.16e+00
2007 02 08  0030    54139    1800      0    1.70e+00    0    1.18e+00
2007 02 08  0035    54139    2100      0    1.69e+00    0    1.19e+00
2007 02 08  0040    54139    2400      0    1.66e+00    0    1.17e+00
2007 02 08  0045    54139    2700      0    1.68e+00    0    1.18e+00
2007 02 08  0050    54139    3000      0    1.72e+00    0    1.21e+00
2007 02 08  0055    54139    3300      0    1.70e+00    0    1.19e+00
2007 02 08  0100    54139    3600      0    1.71e+00    0    1.19e+00
2007 02 08  0105    54139    3900      0    1.69e+00    0    1.18e+00
2007 02 08  0110    54139    4200      0    1.70e+00    0    1.19e+00
2007 02 08  0115    54139    4500      0    1.66e+00    0    1.16e+00
2007 02 08  0120    54139    4800      0    1.64e+00    0    1.14e+00
2007 02 08  0125    54139    5100      0    1.71e+00    0    1.20e+00
2007 02 08  0130    54139    5400      0    1.70e+00    0    1.19e+00
2007 02 08  0135    54139    5700      0    1.69e+00    0    1.19e+00
2007 02 08  0140    54139    6000      0    1.67e+00    0    1.17e+00
2007 02 08  0145    54139    6300      0    1.69e+00    0    1.18e+00
2007 02 08  0150    54139    6600      0    1.68e+00    0    1.18e+00
2007 02 08  0155    54139    6900      0    1.72e+00    0    1.19e+00
2007 02 08  0200    54139    7200      0    1.70e+00    0    1.19e+00
2007 02 08  0205    54139    7500      0    1.67e+00    0    1.18e+00
2007 02 08  0210    54139    7800      0    1.76e+00    0    1.23e+00
2007 02 08  0215    54139    8100      0    1.73e+00    0    1.22e+00
2007 02 08  0220    54139    8400      0    1.74e+00    0    1.21e+00
2007 02 08  0225    54139    8700      0    1.69e+00    0    1.19e+00
2007 02 08  0230    54139    9000      9   -1.00e+05    9   -1.00e+05
2007 02 08  0235    54139    9300      9   -1.00e+05    9   -1.00e+05
2007 02 08  0240    54139    9600      9   -1.00e+05    9   -1.00e+05
2007 02 08  0245    54139    9900      9   -1.00e+05    9   -1.00e+05
2007 02 08  0250    54139   10200      9   -1.00e+05    9   -1.00e+05
2007 02 08  0255    54139   10500      9   -1.00e+05    9   -1.00e+05
2007 02 08  0300    54139   10800      9   -1.00e+05    9   -1.00e+05
2007 02 08  0305    54139   11100      0    1.69e+00    0    1.19e+00
2007 02 08  0310    54139   11400      0    1.67e+00    0    1.16e+00
2007 02 08  0315    54139   11700      0    1.69e+00    0    1.19e+00
2007 02 08  0320    54139   12000      0    1.70e+00    0    1.21e+00
2007 02 08  0325    54139   12300      0    1.67e+00    0    1.17e+00
2007 02 08  0330    54139   12600      0    1.72e+00    0    1.20e+00
2007 02 08  0335    54139   12900      0    1.73e+00    0    1.21e+00
2007 02 08  0340    54139   13200      0    1.71e+00    0    1.20e+00
2007 02 08  0345    54139   13500      0    1.70e+00    0    1.19e+00
2007 02 08  0350    54139   13800      0    1.70e+00    0    1.19e+00
2007 02 08  0355    54139   14100      0    1.71e+00    0    1.20e+00
2007 02 08  0400    54139   14400      0    1.70e+00    0    1.19e+00
2007 02 08  0405    54139   14700      0    1.70e+00    0    1.21e+00
2007 02 08  0410    54139   15000      0    1.68e+00    0    1.18e+00
2007 02 08  0415    54139   15300      0    1.70e+00    0    1.20e+00
2007 02 08  0420    54139   15600      0    1.66e+00    0    1.16e+00
2007 02 08  0425    54139   15900      0    1.70e+00    0    1.19e+00
2007 02 08  0430    54139   16200      0    1.66e+00    0    1.17e+00
2007 02 08  0435    54139   16500      0    1.72e+00    0    1.22e+00
2007 02 08  0440    54139   16800      0    1.68e+00    0    1.18e+00
2007 02 08  0445    54139   17100      0    1.69e+00    0    1.18e+00
2007 02 08  0450    54139   17400      0    1.67e+00    0    1.17e+00
2007 02 08  0455    54139   17700      0    1.65e+00    0    1.15e+00
2007 02 08  0500    54139   18000      0    1.66e+00    0    1.16e+00
2007 02 08  0505    54139   18300      0    1.71e+00    0    1.20e+00
2007 02 08  0510    54139   18600      0    1.71e+00    0    1.20e+00
2007 02 08  0515    54139   18900      0    1.68e+00    0    1.16e+00
2007 02 08  0520    54139   19200      0    1.73e+00    0    1.22e+00
2007 02 08  0525    54139   19500      0    1.69e+00    0    1.18e+00
2007 02 08  0530    54139   19800      0    1.70e+00    0    1.20e+00
2007 02 08  0535    54139   20100      0    1.71e+00    0    1.19e+00
2007 02 08  0540    54139   20400      0    1.71e+00    0    1.19e+00
2007 02 08  0545    54139   20700      0    1.68e+00    0    1.17e+00
2007 02 08  0550    54139   21000      0    1.75e+00    0    1.23e+00
2007 02 08  0555    54139   21300      0    1.72e+00    0    1.20e+00
2007 02 08  0600    54139   21600      0    1.68e+00    0    1.18e+00
2007 02 08  0605    54139   21900      0    1.69e+00    0    1.18e+00
2007 02 08  0610    54139   22200      0    1.73e+00    0    1.22e+00
2007 02 08  0615    54139   22500      0    1.69e+00    0    1.17e+00
2007 02 08  0620    54139   22800      0    1.71e+00    0    1.20e+00
2007 02 08  0625    54139   23100      0    1.73e+00    0    1.21e+00
2007 02 08  0630    54139   23400      0    1.68e+00    0    1.19e+00
2007 02 08  0635    54139   23700      0    1.69e+00    0    1.19e+00
2007 02 08  0640    54139   24000      0    1.69e+00    0    1.19e+00
2007 02 08  0645    54139   24300      0    1.67e+00    0    1.17e+00
2007 02 08  0650    54139   24600      0    1.70e+00    0    1.20e+00
2007 02 08  0655    54139   24900      0    1.70e+00    0    1.18e+00
2007 02 08  0700    54139   25200      0    1.67e+00    0    1.16e+00
2007 02 08  0705    54139   25500      0    1.69e+00    0    1.19e+00
2007 02 08  0710    54139   25800      0    1.68e+00    0    1.17e+00
2007 02 08  0715    54139   26100      0    1.72e+00    0    1.20e+00
2007 02 08  0720    54139   26400      0    1.68e+00    0    1.18e+00
2007 02 08  0725    54139   26700      0    1.70e+00    0    1.21e+00
2007 02 08  0730    54139   27000      0    1.70e+00    0    1.19e+00
2007 02 08  0735    54139   27300      0    1.74e+00    0    1.22e+00
2007 02 08  0740    54139   27600      0    1.68e+00    0    1.19e+00
2007 02 08  0745    54139   27900      0    1.70e+00    0    1.19e+00
2007 02 08  0750    54139   28200      0    1.72e+00    0    1.21e+00
2007 02 08  0755    54139   28500      0    1.68e+00    0    1.18e+00
2007 02 08  0800    54139   28800      0    1.69e+00    0    1.20e+00
2007 02 08  0805    54139   29100      0    1.70e+00    0    1.19e+00
2007 02 08  0810    54139   29400      0    1.71e+00    0    1.19e+00
2007 02 08  0815    54139   29700      0    1.71e+00    0    1.21e+00
2007 02 08  0820    54139   30000      0    1.68e+00    0    1.18e+00
2007 02 08  0825    54139   30300      0    1.71e+00    0    1.19e+00
2007 02 08  0830    54139   30600      0    1.72e+00    0    1.21e+00
2007 02 08  0835    54139   30900      0    1.71e+00    0    1.21e+00
2007 02 08  0840    54139   31200      0    1.68e+00    0    1.16e+00
2007 02 08  0845    54139   31500      0    1.74e+00    0    1.24e+00
2007 02 08  0850    54139   31800      0    1.70e+00    0    1.21e+00
2007 02 08  0855    54139   32100      0    1.70e+00    0    1.18e+00
2007 02 08  0900    54139   32400      0    1.71e+00    0    1.20e+00
2007 02 08  0905    54139   32700      0    1.70e+00    0    1.18e+00
2007 02 08  0910    54139   33000      0    1.72e+00    0    1.23e+00
2007 02 08  0915    54139   33300      0    1.62e+00    0    1.14e+00
2007 02 08  0920    54139   33600      0    1.67e+00    0    1.17e+00
2007 02 08  0925    54139   33900      0    1.70e+00    0    1.18e+00
2007 02 08  0930    54139   34200      0    1.69e+00    0    1.18e+00
2007 02 08  0935    54139   34500      0    1.73e+00    0    1.22e+00
2007 02 08  0940    54139   34800      0    1.71e+00    0    1.20e+00
2007 02 08  0945    54139   35100      0    1.72e+00    0    1.21e+00
2007 02 08  0950    54139   35400      0    1.70e+00    0    1.19e+00
2007 02 08  0955    54139   35700      0    1.70e+00    0    1.19e+00
2007 02 08  1000    54139   36000      0    1.69e+00    0    1.17e+00
2007 02 08  1005    54139   36300      0    1.74e+00    0    1.22e+00
2007 02 08  1010    54139   36600      0    1.69e+00    0    1.19e+00
2007 02 08  1015    54139   36900      0    1.70e+00    0    1.18e+00
2007 02 08  1020    54139   37200      0    1.70e+00    0    1.18e+00
2007 02 08  1025    54139   37500      0    1.69e+00    0    1.19e+00
2007 02 08  1030    54139   37800      0    1.68e+00    0    1.18e+00
2007 02 08  1035    54139   38100      0    1.72e+00    0    1.19e+00
2007 02 08  1040    54139   38400      0    1.74e+00    0    1.23e+00
2007 02 08  1045    54139   38700      0    1.73e+00    0    1.22e+00
2007 02 08  1050    54139   39000      0    1.73e+00    0    1.22e+00
2007 02 08  1055    54139   39300      0    1.68e+00    0    1.17e+00
2007 02 08  1100    54139   39600      0    1.71e+00    0    1.20e+00
2007 02 08  1105    54139   39900      0    1.72e+00    0    1.21e+00
2007 02 08  1110    54139   40200      0    1.70e+00    0    1.20e+00
2007 02 08  1115    54139   40500      0    1.69e+00    0    1.18e+00
2007 02 08  1120    54139   40800      0    1.69e+00    0    1.18e+00
2007 02 08  1125    54139   41100      0    1.70e+00    0    1.19e+00
2007 02 08  1130    54139   41400      0    1.70e+00    0    1.19e+00
2007 02 08  1135    54139   41700      0    1.70e+00    0    1.18e+00
2007 02 08  1140    54139   42000      0    1.71e+00    0    1.19e+00
2007 02 08  1145    54139   42300      0    1.68e+00    0    1.16e+00
2007 02 08  1150    54139   42600      0    1.68e+00    0    1.17e+00
2007 02 08  1155    54139   42900      0    1.74e+00    0    1.23e+00
2007 02 08  1200    54139   43200      0    1.71e+00    0    1.20e+00
2007 02 08  1205    54139   43500      0    1.69e+00    0    1.18e+00
2007 02 08  1210    54139   43800      0    1.69e+00    0    1.18e+00
2007 02 08  1215    54139   44100      0    1.68e+00    0    1.17e+00
2007 02 08  1220    54139   44400      0    1.71e+00    0    1.20e+00
2007 02 08  1225    54139   44700      0    1.66e+00    0    1.18e+00
2007 02 08  1230    54139   45000      0    1.71e+00    0    1.20e+00
2007 02 08  1235    54139   45300      0    1.68e+00    0    1.17e+00
2007 02 08  1240    54139   45600      0    1.69e+00    0    1.19e+00
2007 02 08  1245    54139   45900      0    1.71e+00    0    1.20e+00
2007 02 08  1250    54139   46200      0    1.68e+00    0    1.18e+00
2007 02 08  1255    54139   46500      0    1.71e+00    0    1.20e+00
2007 02 08  1300    54139   46800      0    1.73e+00    0    1.22e+00
2007 02 08  1305    54139   47100      0    1.74e+00    0    1.23e+00
2007 02 08  1310    54139   47400      0    1.74e+00    0    1.22e+00
2007 02 08  1315    54139   47700      0    1.70e+00    0    1.19e+00
2007 02 08  1320    54139   48000      0    1.68e+00    0    1.18e+00
2007 02 08  1325    54139   48300      0    1.69e+00    0    1.19e+00
2007 02 08  1330    54139   48600      0    1.76e+00    0    1.23e+00
2007 02 08  1335    54139   48900      0    1.72e+00    0    1.20e+00
2007 02 08  1340    54139   49200      0    1.72e+00    0    1.20e+00
2007 02 08  1345    54139   49500      0    1.71e+00    0    1.20e+00
2007 02 08  1350    54139   49800      0    1.71e+00    0    1.20e+00
2007 02 08  1355    54139   50100      0    1.70e+00    0    1.20e+00
2007 02 08  1400    54139   50400      0    1.74e+00    0    1.24e+00
2007 02 08  1405    54139   50700      0    1.76e+00    0    1.22e+00
2007 02 08  1410    54139   51000      0    1.73e+00    0    1.22e+00
2007 02 08  1415    54139   51300      0    1.74e+00    0    1.23e+00
2007 02 08  1420    54139   51600      0    1.72e+00    0    1.21e+00
2007 02 08  1425    54139   51900      0    1.67e+00    0    1.17e+00
2007 02 08  1430    54139   52200      0    1.71e+00    0    1.19e+00
2007 02 08  1435    54139   52500      0    1.72e+00    0    1.20e+00
2007 02 08  1440    54139   52800      0    1.74e+00    0    1.22e+00
2007 02 08  1445    54139   53100      0    1.76e+00    0    1.23e+00
2007 02 08  1450    54139   53400      0    1.74e+00    0    1.22e+00
2007 02 08  1455    54139   53700      0    1.72e+00    0    1.22e+00
2007 02 08  1500    54139   54000      0    1.71e+00    0    1.20e+00
2007 02 08  1505    54139   54300      0    1.73e+00    0    1.21e+00
2007 02 08  1510    54139   54600      0    1.69e+00    0    1.18e+00
2007 02 08  1515    54139   54900      0    1.70e+00    0    1.18e+00
2007 02 08  1520    54139   55200      0    1.76e+00    0    1.23e+00
2007 02 08  1525    54139   55500      0    1.69e+00    0    1.18e+00
2007 02 08  1530    54139   55800      0    1.70e+00    0    1.19e+00
2007 02 08  1535    54139   56100      0    1.72e+00    0    1.19e+00
2007 02 08  1540    54139   56400      0    1.72e+00    0    1.20e+00
2007 02 08  1545    54139   56700      0    1.71e+00    0    1.21e+00
2007 02 08  1550    54139   57000      0    1.72e+00    0    1.20e+00
2007 02 08  1555    54139   57300      0    1.66e+00    0    1.16e+00
2007 02 08  1600    54139   57600      0    1.69e+00    0    1.19e+00
2007 02 08  1605    54139   57900      0    1.72e+00    0    1.21e+00
2007 02 08  1610    54139   58200      0    1.75e+00    0    1.23e+00
2007 02 08  1615    54139   58500      0    1.68e+00    0    1.17e+00
2007 02 08  1620    54139   58800      0    1.70e+00    0    1.18e+00
2007 02 08  1625    54139   59100      0    1.70e+00    0    1.20e+00
2007 02 08  1630    54139   59400      0    1.72e+00    0    1.21e+00
2007 02 08  1635    54139   59700      0    1.69e+00    0    1.18e+00
2007 02 08  1640    54139   60000      0    1.72e+00    0    1.21e+00
2007 02 08  1645    54139   60300      0    1.73e+00    0    1.22e+00
2007 02 08  1650    54139   60600      0    1.69e+00    0    1.19e+00
2007 02 08  1655    54139   60900      0    1.73e+00    0    1.22e+00
2007 02 08  1700    54139   61200      0    1.73e+00    0    1.21e+00
2007 02 08  1705    54139   61500      0    1.70e+00    0    1.19e+00
2007 02 08  1710    54139   61800      0    1.69e+00    0    1.18e+00
2007 02 08  1715    54139   62100      0    1.72e+00    0    1.22e+00
2007 02 08  1720    54139   62400      0    1.74e+00    0    1.23e+00
2007 02 08  1725    54139   62700      0    1.72e+00    0    1.21e+00
2007 02 08  1730    54139   63000      0    1.71e+00    0    1.20e+00
2007 02 08  1735    54139   63300      0    1.73e+00    0    1.20e+00
2007 02 08  1740    54139   63600      0    1.74e+00    0    1.22e+00
2007 02 08  1745    54139   63900      0    1.73e+00    0    1.21e+00
2007 02 08  1750    54139   64200      0    1.74e+00    0    1.22e+00
2007 02 08  1755    54139   64500      0    1.70e+00    0    1.19e+00
2007 02 08  1800    54139   64800      0    1.68e+00    0    1.19e+00
2007 02 08  1805    54139   65100      0    1.72e+00    0    1.22e+00
2007 02 08  1810    54139   65400      0    1.73e+00    0    1.22e+00
2007 02 08  1815    54139   65700      0    1.72e+00    0    1.20e+00
2007 02 08  1820    54139   66000      0    1.69e+00    0    1.19e+00
2007 02 08  1825    54139   66300      0    1.70e+00    0    1.18e+00
2007 02 08  1830    54139   66600      0    1.71e+00    0    1.20e+00
2007 02 08  1835    54139   66900      0    1.75e+00    0    1.21e+00
2007 02 08  1840    54139   67200      0    1.68e+00    0    1.17e+00
2007 02 08  1845    54139   67500      0    1.69e+00    0    1.17e+00
2007 02 08  1850    54139   67800      0    1.71e+00    0    1.20e+00
2007 02 08  1855    54139   68100      0    1.69e+00    0    1.19e+00
2007 02 08  1900    54139   68400      0    1.68e+00    0    1.18e+00
2007 02 08  1905    54139   68700      0    1.69e+00    0    1.18e+00
2007 02 08  1910    54139   69000      0    1.68e+00    0    1.16e+00
2007 02 08  1915    54139   69300      0    1.73e+00    0    1.22e+00
2007 02 08  1920    54139   69600      0    1.67e+00    0    1.18e+00
2007 02 08  1925    54139   69900      0    1.68e+00    0    1.18e+00
2007 02 08  1930    54139   70200      0    1.69e+00    0    1.19e+00
2007 02 08  1935    54139   70500      0    1.71e+00    0    1.20e+00
2007 02 08  1940    54139   70800      0    1.69e+00    0    1.19e+00
2007 02 08  1945    54139   71100      0    1.70e+00    0    1.19e+00
2007 02 08  1950    54139   71400      0    1.70e+00    0    1.21e+00
2007 02 08  1955    54139   71700      0    1.71e+00    0    1.21e+00
2007 02 08  2000    54139   72000      0    1.68e+00    0    1.18e+00
2007 02 08  2005    54139   72300      0    1.67e+00    0    1.16e+00
2007 02 08  2010    54139   72600      0    1.72e+00    0    1.21e+00
2007 02 08  2015    54139   72900      0    1.72e+00    0    1.21e+00
2007 02 08  2020    54139   73200      0    1.73e+00    0    1.21e+00
2007 02 08  2025    54139   73500      0    1.68e+00    0    1.18e+00
2007 02 08  2030    54139   73800      0    1.68e+00    0    1.17e+00
2007 02 08  2035    54139   74100      0    1.73e+00    0    1.21e+00
2007 02 08  2040    54139   74400      0    1.69e+00    0    1.18e+00
2007 02 08  2045    54139   74700      0    1.65e+00    0    1.16e+00
2007 02 08  2050    54139   75000      0    1.68e+00    0    1.18e+00
2007 02 08  2055    54139   75300      0    1.72e+00    0    1.19e+00
2007 02 08  2100    54139   75600      0    1.69e+00    0    1.17e+00
2007 02 08  2105    54139   75900      0    1.70e+00    0    1.18e+00
2007 02 08  2110    54139   76200      0    1.72e+00    0    1.21e+00
2007 02 08  2115    54139   76500      0    1.70e+00    0    1.19e+00
2007 02 08  2120    54139   76800      0    1.70e+00    0    1.19e+00
2007 02 08  2125    54139   77100      0    1.73e+00    0    1.21e+00
2007 02 08  2130    54139   77400      0    1.71e+00    0    1.19e+00
2007 02 08  2135    54139   77700      0    1.75e+00    0    1.22e+00
2007 02 08  2140    54139   78000      0    1.70e+00    0    1.19e+00
2007 02 08  2145    54139   78300      0    1.68e+00    0    1.18e+00
2007 02 08  2150    54139   78600      0    1.59e+00    0    1.11e+00
2007 02 08  2155    54139   78900      0    1.71e+00    0    1.19e+00
2007 02 08  2200    54139   79200      0    1.72e+00    0    1.20e+00
2007 02 08  2205    54139   79500      0    1.70e+00    0    1.19e+00
2007 02 08  2210    54139   79800      0    1.71e+00    0    1.20e+00
2007 02 08  2215    54139   80100      0    1.70e+00    0    1.20e+00
2007 02 08  2220    54139   80400      0    1.73e+00    0    1.22e+00
2007 02 08  2225    54139   80700      0    1.73e+00    0    1.23e+00
2007 02 08  2230    54139   81000      0    1.71e+00    0    1.18e+00
2007 02 08  2235    54139   81300      0    1.72e+00    0    1.21e+00
2007 02 08  2240    54139   81600      0    1.69e+00    0    1.17e+00
2007 02 08  2245    54139   81900      0    1.69e+00    0    1.19e+00
2007 02 08  2250    54139   82200      0    1.71e+00    0    1.20e+00
2007 02 08  2255    54139   82500      0    1.70e+00    0    1.19e+00
2007 02 08  2300    54139   82800      0    1.70e+00    0    1.20e+00
2007 02 08  2305    54139   83100      0    1.73e+00    0    1.20e+00
2007 02 08  2310    54139   83400      0    1.69e+00    0    1.18e+00
2007 02 08  2315    54139   83700      0    1.70e+00    0    1.19e+00
2007 02 08  2320    54139   84000      0    1.70e+00    0    1.18e+00
2007 02 08  2325    54139   84300      0    1.68e+00    0    1.18e+00
2007 02 08  2330    54139   84600      0    1.73e+00    0    1.22e+00
2007 02 08  2335    54139   84900      0    1.72e+00    0    1.22e+00
2007 02 08  2340    54139   85200      0    1.74e+00    0    1.23e+00
2007 02 08  2345    54139   85500      0    1.72e+00    0    1.21e+00
2007 02 08  2350    54139   85800      0    1.76e+00    0    1.24e+00
2007 02 08  2355    54139   86100      0    1.71e+00    0    1.19e+00
