:Data_list: 20070816_ace_sis_5m.txt
:Created: 2007 Aug 17 0011 UT
# Prepared by the U.S. Dept. of Commerce, NOAA, Space Environment Center.
# Please send comments and suggestions to SEC.Webmaster@noaa.gov 
# 
# Units: proton flux p/cs2-sec-ster
# Status(S): 0 = nominal data, 1 to 8 = bad data record, 9 = no data
# Missing data values: -1.00e+05
# Source: ACE Satellite - Solar Isotope Spectrometer
#
# 5-minute averaged Real-time Integral Flux of High-energy Solar Protons
# 
#                 Modified Seconds
# UT Date   Time   Julian  of the      ---- Integral Proton Flux ----
# YR MO DA  HHMM     Day     Day       S    > 10 MeV    S    > 30 MeV
#--------------------------------------------------------------------
2007 08 16  0000    54328       0      0    1.89e+00    0    1.32e+00
2007 08 16  0005    54328     300      0    1.92e+00    0    1.34e+00
2007 08 16  0010    54328     600      0    1.96e+00    0    1.36e+00
2007 08 16  0015    54328     900      0    1.91e+00    0    1.33e+00
2007 08 16  0020    54328    1200      0    1.93e+00    0    1.35e+00
2007 08 16  0025    54328    1500      0    1.94e+00    0    1.34e+00
2007 08 16  0030    54328    1800      0    1.93e+00    0    1.35e+00
2007 08 16  0035    54328    2100      0    1.92e+00    0    1.36e+00
2007 08 16  0040    54328    2400      0    1.93e+00    0    1.34e+00
2007 08 16  0045    54328    2700      0    1.92e+00    0    1.34e+00
2007 08 16  0050    54328    3000      0    1.90e+00    0    1.34e+00
2007 08 16  0055    54328    3300      0    1.94e+00    0    1.35e+00
2007 08 16  0100    54328    3600      0    1.92e+00    0    1.35e+00
2007 08 16  0105    54328    3900      0    1.96e+00    0    1.36e+00
2007 08 16  0110    54328    4200      0    1.91e+00    0    1.34e+00
2007 08 16  0115    54328    4500      0    1.92e+00    0    1.35e+00
2007 08 16  0120    54328    4800      0    1.90e+00    0    1.32e+00
2007 08 16  0125    54328    5100      0    1.87e+00    0    1.31e+00
2007 08 16  0130    54328    5400      0    1.89e+00    0    1.32e+00
2007 08 16  0135    54328    5700      0    1.91e+00    0    1.33e+00
2007 08 16  0140    54328    6000      0    1.92e+00    0    1.33e+00
2007 08 16  0145    54328    6300      0    1.91e+00    0    1.33e+00
2007 08 16  0150    54328    6600      0    1.92e+00    0    1.35e+00
2007 08 16  0155    54328    6900      0    1.90e+00    0    1.33e+00
2007 08 16  0200    54328    7200      0    1.93e+00    0    1.35e+00
2007 08 16  0205    54328    7500      0    1.99e+00    0    1.40e+00
2007 08 16  0210    54328    7800      0    1.98e+00    0    1.40e+00
2007 08 16  0215    54328    8100      0    1.89e+00    0    1.32e+00
2007 08 16  0220    54328    8400      0    1.95e+00    0    1.36e+00
2007 08 16  0225    54328    8700      0    1.94e+00    0    1.34e+00
2007 08 16  0230    54328    9000      0    1.92e+00    0    1.34e+00
2007 08 16  0235    54328    9300      0    1.92e+00    0    1.34e+00
2007 08 16  0240    54328    9600      0    1.92e+00    0    1.35e+00
2007 08 16  0245    54328    9900      0    1.85e+00    0    1.31e+00
2007 08 16  0250    54328   10200      0    1.96e+00    0    1.38e+00
2007 08 16  0255    54328   10500      0    1.90e+00    0    1.32e+00
2007 08 16  0300    54328   10800      0    1.96e+00    0    1.37e+00
2007 08 16  0305    54328   11100      0    1.93e+00    0    1.35e+00
2007 08 16  0310    54328   11400      0    1.93e+00    0    1.36e+00
2007 08 16  0315    54328   11700      0    1.95e+00    0    1.36e+00
2007 08 16  0320    54328   12000      0    1.90e+00    0    1.32e+00
2007 08 16  0325    54328   12300      0    1.89e+00    0    1.32e+00
2007 08 16  0330    54328   12600      0    1.89e+00    0    1.31e+00
2007 08 16  0335    54328   12900      0    1.90e+00    0    1.34e+00
2007 08 16  0340    54328   13200      0    1.86e+00    0    1.30e+00
2007 08 16  0345    54328   13500      0    1.92e+00    0    1.35e+00
2007 08 16  0350    54328   13800      0    1.93e+00    0    1.35e+00
2007 08 16  0355    54328   14100      0    1.91e+00    0    1.32e+00
2007 08 16  0400    54328   14400      0    1.90e+00    0    1.33e+00
2007 08 16  0405    54328   14700      0    1.93e+00    0    1.35e+00
2007 08 16  0410    54328   15000      0    1.89e+00    0    1.31e+00
2007 08 16  0415    54328   15300      0    1.92e+00    0    1.35e+00
2007 08 16  0420    54328   15600      0    1.97e+00    0    1.37e+00
2007 08 16  0425    54328   15900      0    1.90e+00    0    1.33e+00
2007 08 16  0430    54328   16200      0    1.90e+00    0    1.34e+00
2007 08 16  0435    54328   16500      0    1.94e+00    0    1.36e+00
2007 08 16  0440    54328   16800      0    1.97e+00    0    1.39e+00
2007 08 16  0445    54328   17100      0    1.94e+00    0    1.35e+00
2007 08 16  0450    54328   17400      0    1.98e+00    0    1.38e+00
2007 08 16  0455    54328   17700      0    1.88e+00    0    1.32e+00
2007 08 16  0500    54328   18000      0    1.97e+00    0    1.37e+00
2007 08 16  0505    54328   18300      0    2.00e+00    0    1.41e+00
2007 08 16  0510    54328   18600      0    1.97e+00    0    1.37e+00
2007 08 16  0515    54328   18900      0    1.95e+00    0    1.36e+00
2007 08 16  0520    54328   19200      0    1.92e+00    0    1.34e+00
2007 08 16  0525    54328   19500      0    1.94e+00    0    1.36e+00
2007 08 16  0530    54328   19800      0    1.96e+00    0    1.35e+00
2007 08 16  0535    54328   20100      0    1.92e+00    0    1.34e+00
2007 08 16  0540    54328   20400      0    1.90e+00    0    1.33e+00
2007 08 16  0545    54328   20700      0    1.95e+00    0    1.35e+00
2007 08 16  0550    54328   21000      0    1.93e+00    0    1.36e+00
2007 08 16  0555    54328   21300      0    1.95e+00    0    1.36e+00
2007 08 16  0600    54328   21600      0    1.91e+00    0    1.33e+00
2007 08 16  0605    54328   21900      0    1.92e+00    0    1.35e+00
2007 08 16  0610    54328   22200      0    1.90e+00    0    1.32e+00
2007 08 16  0615    54328   22500      0    1.89e+00    0    1.32e+00
2007 08 16  0620    54328   22800      0    1.94e+00    0    1.36e+00
2007 08 16  0625    54328   23100      0    1.91e+00    0    1.33e+00
2007 08 16  0630    54328   23400      0    1.92e+00    0    1.33e+00
2007 08 16  0635    54328   23700      0    1.92e+00    0    1.34e+00
2007 08 16  0640    54328   24000      0    1.92e+00    0    1.35e+00
2007 08 16  0645    54328   24300      0    1.93e+00    0    1.34e+00
2007 08 16  0650    54328   24600      0    1.88e+00    0    1.30e+00
2007 08 16  0655    54328   24900      0    1.90e+00    0    1.33e+00
2007 08 16  0700    54328   25200      0    1.94e+00    0    1.35e+00
2007 08 16  0705    54328   25500      0    1.93e+00    0    1.35e+00
2007 08 16  0710    54328   25800      0    1.92e+00    0    1.35e+00
2007 08 16  0715    54328   26100      0    1.96e+00    0    1.39e+00
2007 08 16  0720    54328   26400      0    1.96e+00    0    1.37e+00
2007 08 16  0725    54328   26700      0    1.93e+00    0    1.35e+00
2007 08 16  0730    54328   27000      0    1.93e+00    0    1.36e+00
2007 08 16  0735    54328   27300      0    1.96e+00    0    1.37e+00
2007 08 16  0740    54328   27600      0    1.95e+00    0    1.35e+00
2007 08 16  0745    54328   27900      0    1.96e+00    0    1.38e+00
2007 08 16  0750    54328   28200      0    1.91e+00    0    1.32e+00
2007 08 16  0755    54328   28500      0    1.93e+00    0    1.35e+00
2007 08 16  0800    54328   28800      0    1.90e+00    0    1.32e+00
2007 08 16  0805    54328   29100      0    1.90e+00    0    1.33e+00
2007 08 16  0810    54328   29400      0    1.86e+00    0    1.29e+00
2007 08 16  0815    54328   29700      0    1.87e+00    0    1.30e+00
2007 08 16  0820    54328   30000      0    1.94e+00    0    1.36e+00
2007 08 16  0825    54328   30300      0    1.90e+00    0    1.33e+00
2007 08 16  0830    54328   30600      0    1.88e+00    0    1.33e+00
2007 08 16  0835    54328   30900      0    1.88e+00    0    1.33e+00
2007 08 16  0840    54328   31200      0    1.96e+00    0    1.38e+00
2007 08 16  0845    54328   31500      0    1.91e+00    0    1.34e+00
2007 08 16  0850    54328   31800      0    1.94e+00    0    1.36e+00
2007 08 16  0855    54328   32100      0    1.94e+00    0    1.35e+00
2007 08 16  0900    54328   32400      0    1.92e+00    0    1.35e+00
2007 08 16  0905    54328   32700      0    1.92e+00    0    1.35e+00
2007 08 16  0910    54328   33000      0    1.93e+00    0    1.37e+00
2007 08 16  0915    54328   33300      0    1.94e+00    0    1.35e+00
2007 08 16  0920    54328   33600      0    1.97e+00    0    1.38e+00
2007 08 16  0925    54328   33900      0    1.95e+00    0    1.36e+00
2007 08 16  0930    54328   34200      0    1.92e+00    0    1.35e+00
2007 08 16  0935    54328   34500      0    1.93e+00    0    1.36e+00
2007 08 16  0940    54328   34800      0    1.93e+00    0    1.36e+00
2007 08 16  0945    54328   35100      0    1.97e+00    0    1.38e+00
2007 08 16  0950    54328   35400      0    1.96e+00    0    1.35e+00
2007 08 16  0955    54328   35700      0    1.93e+00    0    1.35e+00
2007 08 16  1000    54328   36000      0    1.93e+00    0    1.35e+00
2007 08 16  1005    54328   36300      0    1.93e+00    0    1.36e+00
2007 08 16  1010    54328   36600      0    1.95e+00    0    1.36e+00
2007 08 16  1015    54328   36900      0    1.89e+00    0    1.33e+00
2007 08 16  1020    54328   37200      0    1.92e+00    0    1.34e+00
2007 08 16  1025    54328   37500      0    1.95e+00    0    1.35e+00
2007 08 16  1030    54328   37800      0    1.90e+00    0    1.31e+00
2007 08 16  1035    54328   38100      0    1.89e+00    0    1.32e+00
2007 08 16  1040    54328   38400      0    1.91e+00    0    1.32e+00
2007 08 16  1045    54328   38700      0    1.90e+00    0    1.34e+00
2007 08 16  1050    54328   39000      0    1.91e+00    0    1.32e+00
2007 08 16  1055    54328   39300      0    1.94e+00    0    1.36e+00
2007 08 16  1100    54328   39600      0    1.88e+00    0    1.32e+00
2007 08 16  1105    54328   39900      0    1.91e+00    0    1.32e+00
2007 08 16  1110    54328   40200      0    1.92e+00    0    1.34e+00
2007 08 16  1115    54328   40500      0    1.92e+00    0    1.34e+00
2007 08 16  1120    54328   40800      0    1.94e+00    0    1.37e+00
2007 08 16  1125    54328   41100      0    1.97e+00    0    1.37e+00
2007 08 16  1130    54328   41400      0    2.01e+00    0    1.40e+00
2007 08 16  1135    54328   41700      0    1.88e+00    0    1.30e+00
2007 08 16  1140    54328   42000      0    1.97e+00    0    1.38e+00
2007 08 16  1145    54328   42300      0    1.93e+00    0    1.36e+00
2007 08 16  1150    54328   42600      0    1.94e+00    0    1.36e+00
2007 08 16  1155    54328   42900      0    1.89e+00    0    1.32e+00
2007 08 16  1200    54328   43200      0    1.98e+00    0    1.38e+00
2007 08 16  1205    54328   43500      0    1.92e+00    0    1.34e+00
2007 08 16  1210    54328   43800      0    1.95e+00    0    1.36e+00
2007 08 16  1215    54328   44100      0    1.98e+00    0    1.39e+00
2007 08 16  1220    54328   44400      0    1.95e+00    0    1.37e+00
2007 08 16  1225    54328   44700      0    1.94e+00    0    1.36e+00
2007 08 16  1230    54328   45000      0    1.92e+00    0    1.34e+00
2007 08 16  1235    54328   45300      0    1.89e+00    0    1.33e+00
2007 08 16  1240    54328   45600      0    1.89e+00    0    1.32e+00
2007 08 16  1245    54328   45900      0    1.91e+00    0    1.32e+00
2007 08 16  1250    54328   46200      0    1.89e+00    0    1.32e+00
2007 08 16  1255    54328   46500      0    1.90e+00    0    1.33e+00
2007 08 16  1300    54328   46800      0    1.88e+00    0    1.31e+00
2007 08 16  1305    54328   47100      0    1.88e+00    0    1.31e+00
2007 08 16  1310    54328   47400      0    1.91e+00    0    1.34e+00
2007 08 16  1315    54328   47700      0    1.92e+00    0    1.35e+00
2007 08 16  1320    54328   48000      0    1.87e+00    0    1.30e+00
2007 08 16  1325    54328   48300      0    1.88e+00    0    1.31e+00
2007 08 16  1330    54328   48600      0    1.94e+00    0    1.35e+00
2007 08 16  1335    54328   48900      0    1.87e+00    0    1.31e+00
2007 08 16  1340    54328   49200      0    1.95e+00    0    1.36e+00
2007 08 16  1345    54328   49500      0    1.94e+00    0    1.36e+00
2007 08 16  1350    54328   49800      0    1.89e+00    0    1.33e+00
2007 08 16  1355    54328   50100      0    1.95e+00    0    1.37e+00
2007 08 16  1400    54328   50400      0    1.94e+00    0    1.35e+00
2007 08 16  1405    54328   50700      0    1.96e+00    0    1.37e+00
2007 08 16  1410    54328   51000      0    1.89e+00    0    1.32e+00
2007 08 16  1415    54328   51300      0    1.90e+00    0    1.32e+00
2007 08 16  1420    54328   51600      0    1.94e+00    0    1.36e+00
2007 08 16  1425    54328   51900      0    1.95e+00    0    1.38e+00
2007 08 16  1430    54328   52200      0    1.96e+00    0    1.37e+00
2007 08 16  1435    54328   52500      0    1.92e+00    0    1.34e+00
2007 08 16  1440    54328   52800      0    1.95e+00    0    1.36e+00
2007 08 16  1445    54328   53100      0    1.91e+00    0    1.34e+00
2007 08 16  1450    54328   53400      0    1.91e+00    0    1.34e+00
2007 08 16  1455    54328   53700      0    1.91e+00    0    1.34e+00
2007 08 16  1500    54328   54000      0    1.90e+00    0    1.33e+00
2007 08 16  1505    54328   54300      0    1.91e+00    0    1.34e+00
2007 08 16  1510    54328   54600      0    1.90e+00    0    1.33e+00
2007 08 16  1515    54328   54900      0    1.91e+00    0    1.34e+00
2007 08 16  1520    54328   55200      0    1.92e+00    0    1.34e+00
2007 08 16  1525    54328   55500      0    1.92e+00    0    1.34e+00
2007 08 16  1530    54328   55800      0    1.93e+00    0    1.33e+00
2007 08 16  1535    54328   56100      0    1.92e+00    0    1.35e+00
2007 08 16  1540    54328   56400      0    1.94e+00    0    1.35e+00
2007 08 16  1545    54328   56700      0    1.89e+00    0    1.31e+00
2007 08 16  1550    54328   57000      0    1.92e+00    0    1.34e+00
2007 08 16  1555    54328   57300      0    1.95e+00    0    1.37e+00
2007 08 16  1600    54328   57600      0    1.99e+00    0    1.40e+00
2007 08 16  1605    54328   57900      0    1.90e+00    0    1.32e+00
2007 08 16  1610    54328   58200      0    1.92e+00    0    1.34e+00
2007 08 16  1615    54328   58500      0    1.97e+00    0    1.38e+00
2007 08 16  1620    54328   58800      0    1.92e+00    0    1.34e+00
2007 08 16  1625    54328   59100      0    1.92e+00    0    1.34e+00
2007 08 16  1630    54328   59400      0    1.85e+00    0    1.29e+00
2007 08 16  1635    54328   59700      0    1.95e+00    0    1.37e+00
2007 08 16  1640    54328   60000      0    1.92e+00    0    1.35e+00
2007 08 16  1645    54328   60300      0    1.92e+00    0    1.33e+00
2007 08 16  1650    54328   60600      0    1.96e+00    0    1.37e+00
2007 08 16  1655    54328   60900      0    1.98e+00    0    1.38e+00
2007 08 16  1700    54328   61200      0    1.95e+00    0    1.37e+00
2007 08 16  1705    54328   61500      0    1.93e+00    0    1.34e+00
2007 08 16  1710    54328   61800      0    1.94e+00    0    1.37e+00
2007 08 16  1715    54328   62100      0    1.90e+00    0    1.32e+00
2007 08 16  1720    54328   62400      0    1.88e+00    0    1.31e+00
2007 08 16  1725    54328   62700      0    1.88e+00    0    1.32e+00
2007 08 16  1730    54328   63000      0    1.90e+00    0    1.31e+00
2007 08 16  1735    54328   63300      0    1.92e+00    0    1.35e+00
2007 08 16  1740    54328   63600      0    1.95e+00    0    1.37e+00
2007 08 16  1745    54328   63900      0    1.92e+00    0    1.33e+00
2007 08 16  1750    54328   64200      0    1.89e+00    0    1.33e+00
2007 08 16  1755    54328   64500      0    1.91e+00    0    1.33e+00
2007 08 16  1800    54328   64800      0    1.92e+00    0    1.33e+00
2007 08 16  1805    54328   65100      0    1.92e+00    0    1.35e+00
2007 08 16  1810    54328   65400      0    1.92e+00    0    1.34e+00
2007 08 16  1815    54328   65700      0    1.93e+00    0    1.36e+00
2007 08 16  1820    54328   66000      0    1.93e+00    0    1.34e+00
2007 08 16  1825    54328   66300      0    1.94e+00    0    1.36e+00
2007 08 16  1830    54328   66600      0    1.91e+00    0    1.33e+00
2007 08 16  1835    54328   66900      0    1.95e+00    0    1.34e+00
2007 08 16  1840    54328   67200      0    1.95e+00    0    1.35e+00
2007 08 16  1845    54328   67500      0    1.94e+00    0    1.36e+00
2007 08 16  1850    54328   67800      0    1.93e+00    0    1.36e+00
2007 08 16  1855    54328   68100      0    1.94e+00    0    1.36e+00
2007 08 16  1900    54328   68400      0    1.99e+00    0    1.40e+00
2007 08 16  1905    54328   68700      0    1.94e+00    0    1.37e+00
2007 08 16  1910    54328   69000      0    1.98e+00    0    1.38e+00
2007 08 16  1915    54328   69300      0    1.89e+00    0    1.31e+00
2007 08 16  1920    54328   69600      0    1.91e+00    0    1.34e+00
2007 08 16  1925    54328   69900      0    1.95e+00    0    1.37e+00
2007 08 16  1930    54328   70200      0    1.91e+00    0    1.34e+00
2007 08 16  1935    54328   70500      0    1.95e+00    0    1.36e+00
2007 08 16  1940    54328   70800      0    1.91e+00    0    1.34e+00
2007 08 16  1945    54328   71100      0    1.92e+00    0    1.34e+00
2007 08 16  1950    54328   71400      0    1.92e+00    0    1.34e+00
2007 08 16  1955    54328   71700      0    1.91e+00    0    1.34e+00
2007 08 16  2000    54328   72000      0    1.91e+00    0    1.34e+00
2007 08 16  2005    54328   72300      0    1.91e+00    0    1.33e+00
2007 08 16  2010    54328   72600      0    1.97e+00    0    1.37e+00
2007 08 16  2015    54328   72900      0    1.88e+00    0    1.30e+00
2007 08 16  2020    54328   73200      0    1.90e+00    0    1.33e+00
2007 08 16  2025    54328   73500      0    1.92e+00    0    1.33e+00
2007 08 16  2030    54328   73800      0    1.91e+00    0    1.34e+00
2007 08 16  2035    54328   74100      0    1.93e+00    0    1.34e+00
2007 08 16  2040    54328   74400      0    1.93e+00    0    1.36e+00
2007 08 16  2045    54328   74700      0    1.95e+00    0    1.37e+00
2007 08 16  2050    54328   75000      0    1.93e+00    0    1.36e+00
2007 08 16  2055    54328   75300      0    1.90e+00    0    1.32e+00
2007 08 16  2100    54328   75600      0    1.96e+00    0    1.38e+00
2007 08 16  2105    54328   75900      0    1.95e+00    0    1.36e+00
2007 08 16  2110    54328   76200      0    1.98e+00    0    1.37e+00
2007 08 16  2115    54328   76500      0    1.92e+00    0    1.33e+00
2007 08 16  2120    54328   76800      0    1.97e+00    0    1.39e+00
2007 08 16  2125    54328   77100      0    1.96e+00    0    1.38e+00
2007 08 16  2130    54328   77400      0    1.92e+00    0    1.34e+00
2007 08 16  2135    54328   77700      0    1.91e+00    0    1.34e+00
2007 08 16  2140    54328   78000      0    1.91e+00    0    1.33e+00
2007 08 16  2145    54328   78300      0    1.92e+00    0    1.36e+00
2007 08 16  2150    54328   78600      0    1.93e+00    0    1.36e+00
2007 08 16  2155    54328   78900      0    1.92e+00    0    1.35e+00
2007 08 16  2200    54328   79200      0    1.90e+00    0    1.33e+00
2007 08 16  2205    54328   79500      0    1.96e+00    0    1.36e+00
2007 08 16  2210    54328   79800      0    1.96e+00    0    1.38e+00
2007 08 16  2215    54328   80100      0    1.92e+00    0    1.35e+00
2007 08 16  2220    54328   80400      0    1.91e+00    0    1.33e+00
2007 08 16  2225    54328   80700      0    1.91e+00    0    1.33e+00
2007 08 16  2230    54328   81000      0    1.93e+00    0    1.36e+00
2007 08 16  2235    54328   81300      0    1.92e+00    0    1.33e+00
2007 08 16  2240    54328   81600      0    1.98e+00    0    1.38e+00
2007 08 16  2245    54328   81900      0    1.95e+00    0    1.36e+00
2007 08 16  2250    54328   82200      0    1.91e+00    0    1.35e+00
2007 08 16  2255    54328   82500      0    1.96e+00    0    1.38e+00
2007 08 16  2300    54328   82800      0    1.96e+00    0    1.37e+00
2007 08 16  2305    54328   83100      0    1.96e+00    0    1.36e+00
2007 08 16  2310    54328   83400      0    1.93e+00    0    1.34e+00
2007 08 16  2315    54328   83700      0    1.95e+00    0    1.36e+00
2007 08 16  2320    54328   84000      0    1.91e+00    0    1.34e+00
2007 08 16  2325    54328   84300      0    1.93e+00    0    1.35e+00
2007 08 16  2330    54328   84600      0    1.95e+00    0    1.35e+00
2007 08 16  2335    54328   84900      0    1.95e+00    0    1.36e+00
2007 08 16  2340    54328   85200      0    1.96e+00    0    1.37e+00
2007 08 16  2345    54328   85500      0    1.94e+00    0    1.36e+00
2007 08 16  2350    54328   85800      0    1.93e+00    0    1.36e+00
2007 08 16  2355    54328   86100      0    1.94e+00    0    1.36e+00
