:Data_list: 20070511_ace_sis_5m.txt
:Created: 2007 May 12 0011 UT
# Prepared by the U.S. Dept. of Commerce, NOAA, Space Environment Center.
# Please send comments and suggestions to SEC.Webmaster@noaa.gov 
# 
# Units: proton flux p/cs2-sec-ster
# Status(S): 0 = nominal data, 1 to 8 = bad data record, 9 = no data
# Missing data values: -1.00e+05
# Source: ACE Satellite - Solar Isotope Spectrometer
#
# 5-minute averaged Real-time Integral Flux of High-energy Solar Protons
# 
#                 Modified Seconds
# UT Date   Time   Julian  of the      ---- Integral Proton Flux ----
# YR MO DA  HHMM     Day     Day       S    > 10 MeV    S    > 30 MeV
#--------------------------------------------------------------------
2007 05 11  0000    54231       0      0    1.83e+00    0    1.29e+00
2007 05 11  0005    54231     300      0    1.89e+00    0    1.30e+00
2007 05 11  0010    54231     600      0    1.90e+00    0    1.32e+00
2007 05 11  0015    54231     900      0    1.90e+00    0    1.34e+00
2007 05 11  0020    54231    1200      0    1.87e+00    0    1.31e+00
2007 05 11  0025    54231    1500      0    1.86e+00    0    1.29e+00
2007 05 11  0030    54231    1800      0    1.77e+00    0    1.23e+00
2007 05 11  0035    54231    2100      0    1.86e+00    0    1.30e+00
2007 05 11  0040    54231    2400      0    1.85e+00    0    1.30e+00
2007 05 11  0045    54231    2700      0    1.93e+00    0    1.35e+00
2007 05 11  0050    54231    3000      0    1.88e+00    0    1.33e+00
2007 05 11  0055    54231    3300      0    1.87e+00    0    1.31e+00
2007 05 11  0100    54231    3600      0    1.87e+00    0    1.31e+00
2007 05 11  0105    54231    3900      0    1.91e+00    0    1.33e+00
2007 05 11  0110    54231    4200      0    1.92e+00    0    1.35e+00
2007 05 11  0115    54231    4500      0    1.87e+00    0    1.31e+00
2007 05 11  0120    54231    4800      0    1.88e+00    0    1.32e+00
2007 05 11  0125    54231    5100      0    1.84e+00    0    1.29e+00
2007 05 11  0130    54231    5400      0    1.92e+00    0    1.35e+00
2007 05 11  0135    54231    5700      0    1.90e+00    0    1.33e+00
2007 05 11  0140    54231    6000      0    1.86e+00    0    1.30e+00
2007 05 11  0145    54231    6300      0    1.87e+00    0    1.31e+00
2007 05 11  0150    54231    6600      0    1.91e+00    0    1.35e+00
2007 05 11  0155    54231    6900      0    1.85e+00    0    1.31e+00
2007 05 11  0200    54231    7200      0    1.90e+00    0    1.33e+00
2007 05 11  0205    54231    7500      0    1.86e+00    0    1.30e+00
2007 05 11  0210    54231    7800      0    1.84e+00    0    1.28e+00
2007 05 11  0215    54231    8100      0    1.88e+00    0    1.31e+00
2007 05 11  0220    54231    8400      0    1.84e+00    0    1.28e+00
2007 05 11  0225    54231    8700      0    1.87e+00    0    1.30e+00
2007 05 11  0230    54231    9000      0    1.85e+00    0    1.29e+00
2007 05 11  0235    54231    9300      0    1.84e+00    0    1.30e+00
2007 05 11  0240    54231    9600      0    1.89e+00    0    1.33e+00
2007 05 11  0245    54231    9900      0    1.84e+00    0    1.29e+00
2007 05 11  0250    54231   10200      0    1.85e+00    0    1.30e+00
2007 05 11  0255    54231   10500      0    1.85e+00    0    1.30e+00
2007 05 11  0300    54231   10800      0    1.88e+00    0    1.32e+00
2007 05 11  0305    54231   11100      0    1.84e+00    0    1.29e+00
2007 05 11  0310    54231   11400      0    1.80e+00    0    1.25e+00
2007 05 11  0315    54231   11700      0    1.85e+00    0    1.30e+00
2007 05 11  0320    54231   12000      0    1.86e+00    0    1.30e+00
2007 05 11  0325    54231   12300      0    1.84e+00    0    1.29e+00
2007 05 11  0330    54231   12600      0    1.84e+00    0    1.29e+00
2007 05 11  0335    54231   12900      0    1.80e+00    0    1.25e+00
2007 05 11  0340    54231   13200      0    1.85e+00    0    1.29e+00
2007 05 11  0345    54231   13500      0    1.86e+00    0    1.30e+00
2007 05 11  0350    54231   13800      0    1.87e+00    0    1.31e+00
2007 05 11  0355    54231   14100      0    1.84e+00    0    1.29e+00
2007 05 11  0400    54231   14400      0    1.83e+00    0    1.29e+00
2007 05 11  0405    54231   14700      0    1.85e+00    0    1.30e+00
2007 05 11  0410    54231   15000      0    1.86e+00    0    1.30e+00
2007 05 11  0415    54231   15300      0    1.85e+00    0    1.28e+00
2007 05 11  0420    54231   15600      0    1.85e+00    0    1.30e+00
2007 05 11  0425    54231   15900      0    1.87e+00    0    1.31e+00
2007 05 11  0430    54231   16200      0    1.84e+00    0    1.27e+00
2007 05 11  0435    54231   16500      0    1.85e+00    0    1.29e+00
2007 05 11  0440    54231   16800      0    1.89e+00    0    1.31e+00
2007 05 11  0445    54231   17100      0    1.87e+00    0    1.32e+00
2007 05 11  0450    54231   17400      0    1.83e+00    0    1.30e+00
2007 05 11  0455    54231   17700      0    1.85e+00    0    1.30e+00
2007 05 11  0500    54231   18000      0    1.91e+00    0    1.34e+00
2007 05 11  0505    54231   18300      0    1.87e+00    0    1.31e+00
2007 05 11  0510    54231   18600      0    1.83e+00    0    1.28e+00
2007 05 11  0515    54231   18900      0    1.88e+00    0    1.32e+00
2007 05 11  0520    54231   19200      0    1.87e+00    0    1.30e+00
2007 05 11  0525    54231   19500      0    1.81e+00    0    1.27e+00
2007 05 11  0530    54231   19800      0    1.86e+00    0    1.29e+00
2007 05 11  0535    54231   20100      0    1.87e+00    0    1.31e+00
2007 05 11  0540    54231   20400      0    1.90e+00    0    1.32e+00
2007 05 11  0545    54231   20700      0    1.84e+00    0    1.27e+00
2007 05 11  0550    54231   21000      0    1.84e+00    0    1.29e+00
2007 05 11  0555    54231   21300      0    1.83e+00    0    1.27e+00
2007 05 11  0600    54231   21600      0    1.85e+00    0    1.30e+00
2007 05 11  0605    54231   21900      0    1.83e+00    0    1.28e+00
2007 05 11  0610    54231   22200      0    1.83e+00    0    1.26e+00
2007 05 11  0615    54231   22500      0    1.89e+00    0    1.32e+00
2007 05 11  0620    54231   22800      0    1.86e+00    0    1.29e+00
2007 05 11  0625    54231   23100      0    1.88e+00    0    1.33e+00
2007 05 11  0630    54231   23400      0    1.92e+00    0    1.35e+00
2007 05 11  0635    54231   23700      0    1.88e+00    0    1.32e+00
2007 05 11  0640    54231   24000      0    1.88e+00    0    1.32e+00
2007 05 11  0645    54231   24300      0    1.90e+00    0    1.34e+00
2007 05 11  0650    54231   24600      0    1.93e+00    0    1.35e+00
2007 05 11  0655    54231   24900      0    1.87e+00    0    1.32e+00
2007 05 11  0700    54231   25200      0    1.85e+00    0    1.30e+00
2007 05 11  0705    54231   25500      0    1.88e+00    0    1.33e+00
2007 05 11  0710    54231   25800      0    1.85e+00    0    1.30e+00
2007 05 11  0715    54231   26100      0    1.89e+00    0    1.32e+00
2007 05 11  0720    54231   26400      0    1.87e+00    0    1.33e+00
2007 05 11  0725    54231   26700      0    1.88e+00    0    1.32e+00
2007 05 11  0730    54231   27000      0    1.85e+00    0    1.30e+00
2007 05 11  0735    54231   27300      0    1.85e+00    0    1.30e+00
2007 05 11  0740    54231   27600      0    1.88e+00    0    1.33e+00
2007 05 11  0745    54231   27900      0    1.78e+00    0    1.25e+00
2007 05 11  0750    54231   28200      0    1.92e+00    0    1.34e+00
2007 05 11  0755    54231   28500      0    1.90e+00    0    1.32e+00
2007 05 11  0800    54231   28800      0    1.86e+00    0    1.29e+00
2007 05 11  0805    54231   29100      0    1.88e+00    0    1.31e+00
2007 05 11  0810    54231   29400      0    1.85e+00    0    1.29e+00
2007 05 11  0815    54231   29700      0    1.90e+00    0    1.32e+00
2007 05 11  0820    54231   30000      0    1.87e+00    0    1.32e+00
2007 05 11  0825    54231   30300      0    1.88e+00    0    1.32e+00
2007 05 11  0830    54231   30600      0    1.90e+00    0    1.33e+00
2007 05 11  0835    54231   30900      0    1.87e+00    0    1.33e+00
2007 05 11  0840    54231   31200      0    1.90e+00    0    1.32e+00
2007 05 11  0845    54231   31500      0    1.86e+00    0    1.30e+00
2007 05 11  0850    54231   31800      0    1.87e+00    0    1.30e+00
2007 05 11  0855    54231   32100      0    1.87e+00    0    1.31e+00
2007 05 11  0900    54231   32400      0    1.90e+00    0    1.32e+00
2007 05 11  0905    54231   32700      0    1.88e+00    0    1.32e+00
2007 05 11  0910    54231   33000      0    1.84e+00    0    1.29e+00
2007 05 11  0915    54231   33300      0    1.88e+00    0    1.31e+00
2007 05 11  0920    54231   33600      0    1.88e+00    0    1.32e+00
2007 05 11  0925    54231   33900      0    1.90e+00    0    1.33e+00
2007 05 11  0930    54231   34200      0    1.84e+00    0    1.29e+00
2007 05 11  0935    54231   34500      0    1.87e+00    0    1.32e+00
2007 05 11  0940    54231   34800      0    1.88e+00    0    1.32e+00
2007 05 11  0945    54231   35100      0    1.88e+00    0    1.31e+00
2007 05 11  0950    54231   35400      0    1.88e+00    0    1.30e+00
2007 05 11  0955    54231   35700      0    1.90e+00    0    1.33e+00
2007 05 11  1000    54231   36000      0    1.90e+00    0    1.33e+00
2007 05 11  1005    54231   36300      0    1.93e+00    0    1.34e+00
2007 05 11  1010    54231   36600      0    1.91e+00    0    1.33e+00
2007 05 11  1015    54231   36900      0    1.91e+00    0    1.34e+00
2007 05 11  1020    54231   37200      0    1.92e+00    0    1.34e+00
2007 05 11  1025    54231   37500      0    1.86e+00    0    1.29e+00
2007 05 11  1030    54231   37800      0    1.89e+00    0    1.32e+00
2007 05 11  1035    54231   38100      0    1.89e+00    0    1.33e+00
2007 05 11  1040    54231   38400      0    1.90e+00    0    1.32e+00
2007 05 11  1045    54231   38700      0    1.92e+00    0    1.35e+00
2007 05 11  1050    54231   39000      0    1.86e+00    0    1.30e+00
2007 05 11  1055    54231   39300      0    1.89e+00    0    1.33e+00
2007 05 11  1100    54231   39600      0    1.88e+00    0    1.31e+00
2007 05 11  1105    54231   39900      0    1.91e+00    0    1.33e+00
2007 05 11  1110    54231   40200      0    1.88e+00    0    1.33e+00
2007 05 11  1115    54231   40500      0    1.88e+00    0    1.31e+00
2007 05 11  1120    54231   40800      0    1.89e+00    0    1.32e+00
2007 05 11  1125    54231   41100      0    1.86e+00    0    1.30e+00
2007 05 11  1130    54231   41400      0    1.88e+00    0    1.32e+00
2007 05 11  1135    54231   41700      0    1.85e+00    0    1.30e+00
2007 05 11  1140    54231   42000      0    1.87e+00    0    1.31e+00
2007 05 11  1145    54231   42300      0    1.86e+00    0    1.31e+00
2007 05 11  1150    54231   42600      0    1.88e+00    0    1.31e+00
2007 05 11  1155    54231   42900      0    1.87e+00    0    1.31e+00
2007 05 11  1200    54231   43200      0    1.84e+00    0    1.29e+00
2007 05 11  1205    54231   43500      0    1.85e+00    0    1.29e+00
2007 05 11  1210    54231   43800      0    1.86e+00    0    1.31e+00
2007 05 11  1215    54231   44100      0    1.88e+00    0    1.31e+00
2007 05 11  1220    54231   44400      0    1.86e+00    0    1.30e+00
2007 05 11  1225    54231   44700      0    1.85e+00    0    1.31e+00
2007 05 11  1230    54231   45000      0    1.88e+00    0    1.32e+00
2007 05 11  1235    54231   45300      0    1.88e+00    0    1.31e+00
2007 05 11  1240    54231   45600      0    1.90e+00    0    1.34e+00
2007 05 11  1245    54231   45900      0    1.82e+00    0    1.26e+00
2007 05 11  1250    54231   46200      0    1.87e+00    0    1.31e+00
2007 05 11  1255    54231   46500      0    1.89e+00    0    1.33e+00
2007 05 11  1300    54231   46800      0    1.87e+00    0    1.31e+00
2007 05 11  1305    54231   47100      0    1.88e+00    0    1.32e+00
2007 05 11  1310    54231   47400      0    1.84e+00    0    1.28e+00
2007 05 11  1315    54231   47700      0    1.89e+00    0    1.33e+00
2007 05 11  1320    54231   48000      0    1.86e+00    0    1.29e+00
2007 05 11  1325    54231   48300      0    1.88e+00    0    1.32e+00
2007 05 11  1330    54231   48600      0    1.90e+00    0    1.33e+00
2007 05 11  1335    54231   48900      0    1.91e+00    0    1.34e+00
2007 05 11  1340    54231   49200      0    1.88e+00    0    1.32e+00
2007 05 11  1345    54231   49500      0    1.85e+00    0    1.29e+00
2007 05 11  1350    54231   49800      0    1.88e+00    0    1.31e+00
2007 05 11  1355    54231   50100      0    1.87e+00    0    1.31e+00
2007 05 11  1400    54231   50400      0    1.85e+00    0    1.28e+00
2007 05 11  1405    54231   50700      0    1.82e+00    0    1.26e+00
2007 05 11  1410    54231   51000      0    1.87e+00    0    1.30e+00
2007 05 11  1415    54231   51300      0    1.94e+00    0    1.35e+00
2007 05 11  1420    54231   51600      0    1.90e+00    0    1.34e+00
2007 05 11  1425    54231   51900      0    1.87e+00    0    1.32e+00
2007 05 11  1430    54231   52200      0    1.87e+00    0    1.31e+00
2007 05 11  1435    54231   52500      0    1.87e+00    0    1.30e+00
2007 05 11  1440    54231   52800      0    1.85e+00    0    1.30e+00
2007 05 11  1445    54231   53100      0    1.86e+00    0    1.30e+00
2007 05 11  1450    54231   53400      0    1.89e+00    0    1.33e+00
2007 05 11  1455    54231   53700      0    1.86e+00    0    1.31e+00
2007 05 11  1500    54231   54000      0    1.86e+00    0    1.31e+00
2007 05 11  1505    54231   54300      0    1.85e+00    0    1.29e+00
2007 05 11  1510    54231   54600      0    1.85e+00    0    1.29e+00
2007 05 11  1515    54231   54900      0    1.90e+00    0    1.32e+00
2007 05 11  1520    54231   55200      0    1.87e+00    0    1.31e+00
2007 05 11  1525    54231   55500      0    1.89e+00    0    1.32e+00
2007 05 11  1530    54231   55800      0    1.88e+00    0    1.30e+00
2007 05 11  1535    54231   56100      0    1.87e+00    0    1.32e+00
2007 05 11  1540    54231   56400      0    1.88e+00    0    1.31e+00
2007 05 11  1545    54231   56700      0    1.80e+00    0    1.25e+00
2007 05 11  1550    54231   57000      0    1.89e+00    0    1.31e+00
2007 05 11  1555    54231   57300      0    1.89e+00    0    1.31e+00
2007 05 11  1600    54231   57600      0    1.88e+00    0    1.31e+00
2007 05 11  1605    54231   57900      0    1.88e+00    0    1.31e+00
2007 05 11  1610    54231   58200      0    1.85e+00    0    1.28e+00
2007 05 11  1615    54231   58500      0    1.92e+00    0    1.34e+00
2007 05 11  1620    54231   58800      0    1.85e+00    0    1.29e+00
2007 05 11  1625    54231   59100      0    1.85e+00    0    1.29e+00
2007 05 11  1630    54231   59400      0    1.83e+00    0    1.27e+00
2007 05 11  1635    54231   59700      0    1.89e+00    0    1.32e+00
2007 05 11  1640    54231   60000      0    1.90e+00    0    1.33e+00
2007 05 11  1645    54231   60300      0    1.86e+00    0    1.30e+00
2007 05 11  1650    54231   60600      0    1.87e+00    0    1.32e+00
2007 05 11  1655    54231   60900      0    1.90e+00    0    1.34e+00
2007 05 11  1700    54231   61200      0    1.83e+00    0    1.28e+00
2007 05 11  1705    54231   61500      0    1.91e+00    0    1.34e+00
2007 05 11  1710    54231   61800      0    1.88e+00    0    1.32e+00
2007 05 11  1715    54231   62100      0    1.87e+00    0    1.31e+00
2007 05 11  1720    54231   62400      0    1.79e+00    0    1.24e+00
2007 05 11  1725    54231   62700      0    1.89e+00    0    1.32e+00
2007 05 11  1730    54231   63000      0    1.87e+00    0    1.31e+00
2007 05 11  1735    54231   63300      0    1.91e+00    0    1.33e+00
2007 05 11  1740    54231   63600      0    1.87e+00    0    1.30e+00
2007 05 11  1745    54231   63900      0    1.90e+00    0    1.32e+00
2007 05 11  1750    54231   64200      0    1.88e+00    0    1.33e+00
2007 05 11  1755    54231   64500      0    1.87e+00    0    1.31e+00
2007 05 11  1800    54231   64800      0    1.87e+00    0    1.31e+00
2007 05 11  1805    54231   65100      0    1.86e+00    0    1.29e+00
2007 05 11  1810    54231   65400      0    1.93e+00    0    1.35e+00
2007 05 11  1815    54231   65700      0    1.88e+00    0    1.31e+00
2007 05 11  1820    54231   66000      0    1.90e+00    0    1.33e+00
2007 05 11  1825    54231   66300      0    1.84e+00    0    1.29e+00
2007 05 11  1830    54231   66600      0    1.89e+00    0    1.33e+00
2007 05 11  1835    54231   66900      0    1.89e+00    0    1.31e+00
2007 05 11  1840    54231   67200      0    1.89e+00    0    1.32e+00
2007 05 11  1845    54231   67500      0    1.90e+00    0    1.33e+00
2007 05 11  1850    54231   67800      0    1.88e+00    0    1.33e+00
2007 05 11  1855    54231   68100      0    1.84e+00    0    1.29e+00
2007 05 11  1900    54231   68400      0    1.88e+00    0    1.33e+00
2007 05 11  1905    54231   68700      0    1.88e+00    0    1.31e+00
2007 05 11  1910    54231   69000      0    1.88e+00    0    1.31e+00
2007 05 11  1915    54231   69300      0    1.89e+00    0    1.33e+00
2007 05 11  1920    54231   69600      0    1.87e+00    0    1.31e+00
2007 05 11  1925    54231   69900      0    1.87e+00    0    1.30e+00
2007 05 11  1930    54231   70200      0    1.86e+00    0    1.30e+00
2007 05 11  1935    54231   70500      0    1.88e+00    0    1.31e+00
2007 05 11  1940    54231   70800      0    1.87e+00    0    1.31e+00
2007 05 11  1945    54231   71100      0    1.88e+00    0    1.31e+00
2007 05 11  1950    54231   71400      0    1.85e+00    0    1.29e+00
2007 05 11  1955    54231   71700      0    1.91e+00    0    1.34e+00
2007 05 11  2000    54231   72000      0    1.85e+00    0    1.30e+00
2007 05 11  2005    54231   72300      0    1.87e+00    0    1.30e+00
2007 05 11  2010    54231   72600      0    1.84e+00    0    1.29e+00
2007 05 11  2015    54231   72900      0    1.88e+00    0    1.30e+00
2007 05 11  2020    54231   73200      0    1.86e+00    0    1.31e+00
2007 05 11  2025    54231   73500      0    1.89e+00    0    1.32e+00
2007 05 11  2030    54231   73800      0    1.84e+00    0    1.28e+00
2007 05 11  2035    54231   74100      0    1.89e+00    0    1.34e+00
2007 05 11  2040    54231   74400      0    1.85e+00    0    1.29e+00
2007 05 11  2045    54231   74700      0    1.85e+00    0    1.30e+00
2007 05 11  2050    54231   75000      0    1.77e+00    0    1.23e+00
2007 05 11  2055    54231   75300      0    1.83e+00    0    1.27e+00
2007 05 11  2100    54231   75600      0    1.86e+00    0    1.30e+00
2007 05 11  2105    54231   75900      0    1.89e+00    0    1.33e+00
2007 05 11  2110    54231   76200      0    1.86e+00    0    1.29e+00
2007 05 11  2115    54231   76500      0    1.87e+00    0    1.30e+00
2007 05 11  2120    54231   76800      0    1.90e+00    0    1.34e+00
2007 05 11  2125    54231   77100      0    1.85e+00    0    1.30e+00
2007 05 11  2130    54231   77400      0    1.83e+00    0    1.28e+00
2007 05 11  2135    54231   77700      0    1.84e+00    0    1.29e+00
2007 05 11  2140    54231   78000      0    1.89e+00    0    1.34e+00
2007 05 11  2145    54231   78300      0    1.84e+00    0    1.29e+00
2007 05 11  2150    54231   78600      0    1.89e+00    0    1.31e+00
2007 05 11  2155    54231   78900      0    1.90e+00    0    1.33e+00
2007 05 11  2200    54231   79200      0    1.89e+00    0    1.32e+00
2007 05 11  2205    54231   79500      0    1.86e+00    0    1.30e+00
2007 05 11  2210    54231   79800      0    1.83e+00    0    1.27e+00
2007 05 11  2215    54231   80100      0    1.86e+00    0    1.30e+00
2007 05 11  2220    54231   80400      0    1.85e+00    0    1.29e+00
2007 05 11  2225    54231   80700      0    1.87e+00    0    1.32e+00
2007 05 11  2230    54231   81000      0    1.87e+00    0    1.31e+00
2007 05 11  2235    54231   81300      0    1.90e+00    0    1.33e+00
2007 05 11  2240    54231   81600      0    1.84e+00    0    1.29e+00
2007 05 11  2245    54231   81900      0    1.88e+00    0    1.32e+00
2007 05 11  2250    54231   82200      0    1.94e+00    0    1.34e+00
2007 05 11  2255    54231   82500      0    1.88e+00    0    1.32e+00
2007 05 11  2300    54231   82800      0    1.86e+00    0    1.31e+00
2007 05 11  2305    54231   83100      0    1.86e+00    0    1.29e+00
2007 05 11  2310    54231   83400      0    1.82e+00    0    1.29e+00
2007 05 11  2315    54231   83700      0    1.87e+00    0    1.31e+00
2007 05 11  2320    54231   84000      0    1.87e+00    0    1.31e+00
2007 05 11  2325    54231   84300      0    1.88e+00    0    1.31e+00
2007 05 11  2330    54231   84600      0    1.88e+00    0    1.32e+00
2007 05 11  2335    54231   84900      0    1.89e+00    0    1.32e+00
2007 05 11  2340    54231   85200      0    1.86e+00    0    1.31e+00
2007 05 11  2345    54231   85500      0    1.89e+00    0    1.33e+00
2007 05 11  2350    54231   85800      0    1.88e+00    0    1.31e+00
2007 05 11  2355    54231   86100      0    1.84e+00    0    1.29e+00
