:Data_list: 20070226_ace_sis_5m.txt
:Created: 2007 Feb 27 0011 UT
# Prepared by the U.S. Dept. of Commerce, NOAA, Space Environment Center.
# Please send comments and suggestions to SEC.Webmaster@noaa.gov 
# 
# Units: proton flux p/cs2-sec-ster
# Status(S): 0 = nominal data, 1 to 8 = bad data record, 9 = no data
# Missing data values: -1.00e+05
# Source: ACE Satellite - Solar Isotope Spectrometer
#
# 5-minute averaged Real-time Integral Flux of High-energy Solar Protons
# 
#                 Modified Seconds
# UT Date   Time   Julian  of the      ---- Integral Proton Flux ----
# YR MO DA  HHMM     Day     Day       S    > 10 MeV    S    > 30 MeV
#--------------------------------------------------------------------
2007 02 26  0000    54157       0      0    1.77e+00    0    1.23e+00
2007 02 26  0005    54157     300      0    1.73e+00    0    1.23e+00
2007 02 26  0010    54157     600      0    1.75e+00    0    1.23e+00
2007 02 26  0015    54157     900      0    1.79e+00    0    1.25e+00
2007 02 26  0020    54157    1200      0    1.77e+00    0    1.25e+00
2007 02 26  0025    54157    1500      0    1.77e+00    0    1.24e+00
2007 02 26  0030    54157    1800      0    1.77e+00    0    1.25e+00
2007 02 26  0035    54157    2100      0    1.74e+00    0    1.22e+00
2007 02 26  0040    54157    2400      0    1.77e+00    0    1.24e+00
2007 02 26  0045    54157    2700      0    1.78e+00    0    1.23e+00
2007 02 26  0050    54157    3000      0    1.79e+00    0    1.25e+00
2007 02 26  0055    54157    3300      0    1.77e+00    0    1.24e+00
2007 02 26  0100    54157    3600      0    1.75e+00    0    1.22e+00
2007 02 26  0105    54157    3900      0    1.78e+00    0    1.26e+00
2007 02 26  0110    54157    4200      0    1.79e+00    0    1.25e+00
2007 02 26  0115    54157    4500      0    1.84e+00    0    1.29e+00
2007 02 26  0120    54157    4800      0    1.75e+00    0    1.23e+00
2007 02 26  0125    54157    5100      0    1.75e+00    0    1.24e+00
2007 02 26  0130    54157    5400      0    1.78e+00    0    1.25e+00
2007 02 26  0135    54157    5700      0    1.78e+00    0    1.25e+00
2007 02 26  0140    54157    6000      0    1.79e+00    0    1.26e+00
2007 02 26  0145    54157    6300      0    1.74e+00    0    1.22e+00
2007 02 26  0150    54157    6600      0    1.74e+00    0    1.22e+00
2007 02 26  0155    54157    6900      0    1.76e+00    0    1.24e+00
2007 02 26  0200    54157    7200      0    1.77e+00    0    1.23e+00
2007 02 26  0205    54157    7500      0    1.75e+00    0    1.23e+00
2007 02 26  0210    54157    7800      0    1.78e+00    0    1.24e+00
2007 02 26  0215    54157    8100      0    1.77e+00    0    1.23e+00
2007 02 26  0220    54157    8400      0    1.78e+00    0    1.25e+00
2007 02 26  0225    54157    8700      0    1.73e+00    0    1.20e+00
2007 02 26  0230    54157    9000      0    1.79e+00    0    1.25e+00
2007 02 26  0235    54157    9300      0    1.80e+00    0    1.26e+00
2007 02 26  0240    54157    9600      0    1.79e+00    0    1.25e+00
2007 02 26  0245    54157    9900      9   -1.00e+05    9   -1.00e+05
2007 02 26  0250    54157   10200      9   -1.00e+05    9   -1.00e+05
2007 02 26  0255    54157   10500      9   -1.00e+05    9   -1.00e+05
2007 02 26  0300    54157   10800      9   -1.00e+05    9   -1.00e+05
2007 02 26  0305    54157   11100      9   -1.00e+05    9   -1.00e+05
2007 02 26  0310    54157   11400      9   -1.00e+05    9   -1.00e+05
2007 02 26  0315    54157   11700      0    1.78e+00    0    1.25e+00
2007 02 26  0320    54157   12000      0    1.81e+00    0    1.25e+00
2007 02 26  0325    54157   12300      0    1.75e+00    0    1.23e+00
2007 02 26  0330    54157   12600      0    1.79e+00    0    1.26e+00
2007 02 26  0335    54157   12900      0    1.76e+00    0    1.24e+00
2007 02 26  0340    54157   13200      0    1.83e+00    0    1.29e+00
2007 02 26  0345    54157   13500      0    1.80e+00    0    1.25e+00
2007 02 26  0350    54157   13800      0    1.78e+00    0    1.24e+00
2007 02 26  0355    54157   14100      0    1.77e+00    0    1.22e+00
2007 02 26  0400    54157   14400      0    1.79e+00    0    1.24e+00
2007 02 26  0405    54157   14700      0    1.74e+00    0    1.21e+00
2007 02 26  0410    54157   15000      0    1.78e+00    0    1.25e+00
2007 02 26  0415    54157   15300      0    1.76e+00    0    1.22e+00
2007 02 26  0420    54157   15600      0    1.76e+00    0    1.25e+00
2007 02 26  0425    54157   15900      0    1.82e+00    0    1.27e+00
2007 02 26  0430    54157   16200      0    1.81e+00    0    1.27e+00
2007 02 26  0435    54157   16500      0    1.79e+00    0    1.25e+00
2007 02 26  0440    54157   16800      0    1.76e+00    0    1.24e+00
2007 02 26  0445    54157   17100      0    1.76e+00    0    1.23e+00
2007 02 26  0450    54157   17400      0    1.75e+00    0    1.21e+00
2007 02 26  0455    54157   17700      0    1.77e+00    0    1.23e+00
2007 02 26  0500    54157   18000      0    1.74e+00    0    1.21e+00
2007 02 26  0505    54157   18300      0    1.76e+00    0    1.23e+00
2007 02 26  0510    54157   18600      0    1.77e+00    0    1.25e+00
2007 02 26  0515    54157   18900      0    1.77e+00    0    1.24e+00
2007 02 26  0520    54157   19200      0    1.77e+00    0    1.25e+00
2007 02 26  0525    54157   19500      0    1.79e+00    0    1.26e+00
2007 02 26  0530    54157   19800      0    1.78e+00    0    1.26e+00
2007 02 26  0535    54157   20100      0    1.76e+00    0    1.23e+00
2007 02 26  0540    54157   20400      0    1.72e+00    0    1.21e+00
2007 02 26  0545    54157   20700      0    1.75e+00    0    1.23e+00
2007 02 26  0550    54157   21000      0    1.75e+00    0    1.23e+00
2007 02 26  0555    54157   21300      9   -1.00e+05    9   -1.00e+05
2007 02 26  0600    54157   21600      9   -1.00e+05    9   -1.00e+05
2007 02 26  0605    54157   21900      9   -1.00e+05    9   -1.00e+05
2007 02 26  0610    54157   22200      9   -1.00e+05    9   -1.00e+05
2007 02 26  0615    54157   22500      9   -1.00e+05    9   -1.00e+05
2007 02 26  0620    54157   22800      9   -1.00e+05    9   -1.00e+05
2007 02 26  0625    54157   23100      0    1.76e+00    0    1.25e+00
2007 02 26  0630    54157   23400      0    1.76e+00    0    1.23e+00
2007 02 26  0635    54157   23700      0    1.75e+00    0    1.23e+00
2007 02 26  0640    54157   24000      0    1.74e+00    0    1.21e+00
2007 02 26  0645    54157   24300      0    1.73e+00    0    1.21e+00
2007 02 26  0650    54157   24600      0    1.76e+00    0    1.23e+00
2007 02 26  0655    54157   24900      0    1.71e+00    0    1.19e+00
2007 02 26  0700    54157   25200      0    1.78e+00    0    1.25e+00
2007 02 26  0705    54157   25500      0    1.75e+00    0    1.22e+00
2007 02 26  0710    54157   25800      0    1.77e+00    0    1.23e+00
2007 02 26  0715    54157   26100      0    1.72e+00    0    1.20e+00
2007 02 26  0720    54157   26400      0    1.72e+00    0    1.21e+00
2007 02 26  0725    54157   26700      0    1.75e+00    0    1.21e+00
2007 02 26  0730    54157   27000      0    1.72e+00    0    1.21e+00
2007 02 26  0735    54157   27300      0    1.73e+00    0    1.21e+00
2007 02 26  0740    54157   27600      0    1.74e+00    0    1.21e+00
2007 02 26  0745    54157   27900      0    1.72e+00    0    1.20e+00
2007 02 26  0750    54157   28200      0    1.71e+00    0    1.21e+00
2007 02 26  0755    54157   28500      0    1.77e+00    0    1.25e+00
2007 02 26  0800    54157   28800      0    1.75e+00    0    1.24e+00
2007 02 26  0805    54157   29100      0    1.72e+00    0    1.20e+00
2007 02 26  0810    54157   29400      0    1.71e+00    0    1.19e+00
2007 02 26  0815    54157   29700      0    1.72e+00    0    1.20e+00
2007 02 26  0820    54157   30000      0    1.73e+00    0    1.21e+00
2007 02 26  0825    54157   30300      0    1.71e+00    0    1.20e+00
2007 02 26  0830    54157   30600      0    1.71e+00    0    1.22e+00
2007 02 26  0835    54157   30900      0    1.74e+00    0    1.21e+00
2007 02 26  0840    54157   31200      0    1.74e+00    0    1.21e+00
2007 02 26  0845    54157   31500      0    1.75e+00    0    1.24e+00
2007 02 26  0850    54157   31800      0    1.76e+00    0    1.23e+00
2007 02 26  0855    54157   32100      0    1.74e+00    0    1.22e+00
2007 02 26  0900    54157   32400      0    1.73e+00    0    1.21e+00
2007 02 26  0905    54157   32700      0    1.78e+00    0    1.24e+00
2007 02 26  0910    54157   33000      0    1.72e+00    0    1.20e+00
2007 02 26  0915    54157   33300      0    1.71e+00    0    1.21e+00
2007 02 26  0920    54157   33600      0    1.73e+00    0    1.21e+00
2007 02 26  0925    54157   33900      0    1.77e+00    0    1.23e+00
2007 02 26  0930    54157   34200      0    1.71e+00    0    1.20e+00
2007 02 26  0935    54157   34500      0    1.70e+00    0    1.20e+00
2007 02 26  0940    54157   34800      0    1.72e+00    0    1.20e+00
2007 02 26  0945    54157   35100      0    1.71e+00    0    1.20e+00
2007 02 26  0950    54157   35400      0    1.75e+00    0    1.23e+00
2007 02 26  0955    54157   35700      0    1.73e+00    0    1.21e+00
2007 02 26  1000    54157   36000      0    1.71e+00    0    1.19e+00
2007 02 26  1005    54157   36300      0    1.72e+00    0    1.20e+00
2007 02 26  1010    54157   36600      0    1.72e+00    0    1.20e+00
2007 02 26  1015    54157   36900      0    1.70e+00    0    1.20e+00
2007 02 26  1020    54157   37200      0    1.75e+00    0    1.22e+00
2007 02 26  1025    54157   37500      0    1.72e+00    0    1.21e+00
2007 02 26  1030    54157   37800      0    1.75e+00    0    1.23e+00
2007 02 26  1035    54157   38100      0    1.72e+00    0    1.20e+00
2007 02 26  1040    54157   38400      0    1.73e+00    0    1.21e+00
2007 02 26  1045    54157   38700      0    1.75e+00    0    1.23e+00
2007 02 26  1050    54157   39000      0    1.74e+00    0    1.22e+00
2007 02 26  1055    54157   39300      0    1.75e+00    0    1.23e+00
2007 02 26  1100    54157   39600      0    1.77e+00    0    1.24e+00
2007 02 26  1105    54157   39900      0    1.73e+00    0    1.22e+00
2007 02 26  1110    54157   40200      0    1.73e+00    0    1.21e+00
2007 02 26  1115    54157   40500      0    1.72e+00    0    1.21e+00
2007 02 26  1120    54157   40800      0    1.73e+00    0    1.23e+00
2007 02 26  1125    54157   41100      0    1.74e+00    0    1.23e+00
2007 02 26  1130    54157   41400      0    1.74e+00    0    1.22e+00
2007 02 26  1135    54157   41700      0    1.72e+00    0    1.20e+00
2007 02 26  1140    54157   42000      0    1.70e+00    0    1.19e+00
2007 02 26  1145    54157   42300      0    1.74e+00    0    1.21e+00
2007 02 26  1150    54157   42600      0    1.72e+00    0    1.21e+00
2007 02 26  1155    54157   42900      0    1.77e+00    0    1.24e+00
2007 02 26  1200    54157   43200      0    1.71e+00    0    1.20e+00
2007 02 26  1205    54157   43500      0    1.74e+00    0    1.22e+00
2007 02 26  1210    54157   43800      0    1.71e+00    0    1.19e+00
2007 02 26  1215    54157   44100      0    1.73e+00    0    1.21e+00
2007 02 26  1220    54157   44400      0    1.73e+00    0    1.21e+00
2007 02 26  1225    54157   44700      0    1.73e+00    0    1.21e+00
2007 02 26  1230    54157   45000      0    1.75e+00    0    1.23e+00
2007 02 26  1235    54157   45300      0    1.76e+00    0    1.23e+00
2007 02 26  1240    54157   45600      0    1.72e+00    0    1.20e+00
2007 02 26  1245    54157   45900      0    1.71e+00    0    1.20e+00
2007 02 26  1250    54157   46200      0    1.75e+00    0    1.23e+00
2007 02 26  1255    54157   46500      0    1.74e+00    0    1.23e+00
2007 02 26  1300    54157   46800      0    1.74e+00    0    1.23e+00
2007 02 26  1305    54157   47100      0    1.76e+00    0    1.25e+00
2007 02 26  1310    54157   47400      0    1.75e+00    0    1.23e+00
2007 02 26  1315    54157   47700      0    1.73e+00    0    1.21e+00
2007 02 26  1320    54157   48000      0    1.71e+00    0    1.20e+00
2007 02 26  1325    54157   48300      0    1.74e+00    0    1.21e+00
2007 02 26  1330    54157   48600      0    1.74e+00    0    1.21e+00
2007 02 26  1335    54157   48900      0    1.74e+00    0    1.23e+00
2007 02 26  1340    54157   49200      0    1.74e+00    0    1.22e+00
2007 02 26  1345    54157   49500      0    1.71e+00    0    1.20e+00
2007 02 26  1350    54157   49800      0    1.76e+00    0    1.23e+00
2007 02 26  1355    54157   50100      0    1.72e+00    0    1.20e+00
2007 02 26  1400    54157   50400      0    1.77e+00    0    1.25e+00
2007 02 26  1405    54157   50700      0    1.76e+00    0    1.23e+00
2007 02 26  1410    54157   51000      0    1.72e+00    0    1.21e+00
2007 02 26  1415    54157   51300      0    1.73e+00    0    1.21e+00
2007 02 26  1420    54157   51600      0    1.75e+00    0    1.22e+00
2007 02 26  1425    54157   51900      0    1.71e+00    0    1.20e+00
2007 02 26  1430    54157   52200      0    1.70e+00    0    1.20e+00
2007 02 26  1435    54157   52500      0    1.73e+00    0    1.22e+00
2007 02 26  1440    54157   52800      0    1.75e+00    0    1.23e+00
2007 02 26  1445    54157   53100      0    1.75e+00    0    1.21e+00
2007 02 26  1450    54157   53400      0    1.74e+00    0    1.23e+00
2007 02 26  1455    54157   53700      0    1.76e+00    0    1.23e+00
2007 02 26  1500    54157   54000      0    1.75e+00    0    1.23e+00
2007 02 26  1505    54157   54300      0    1.73e+00    0    1.21e+00
2007 02 26  1510    54157   54600      0    1.74e+00    0    1.22e+00
2007 02 26  1515    54157   54900      0    1.73e+00    0    1.21e+00
2007 02 26  1520    54157   55200      0    1.76e+00    0    1.24e+00
2007 02 26  1525    54157   55500      0    1.71e+00    0    1.21e+00
2007 02 26  1530    54157   55800      0    1.76e+00    0    1.24e+00
2007 02 26  1535    54157   56100      0    1.77e+00    0    1.24e+00
2007 02 26  1540    54157   56400      0    1.78e+00    0    1.25e+00
2007 02 26  1545    54157   56700      0    1.75e+00    0    1.22e+00
2007 02 26  1550    54157   57000      0    1.74e+00    0    1.22e+00
2007 02 26  1555    54157   57300      0    1.71e+00    0    1.18e+00
2007 02 26  1600    54157   57600      0    1.75e+00    0    1.23e+00
2007 02 26  1605    54157   57900      0    1.75e+00    0    1.22e+00
2007 02 26  1610    54157   58200      0    1.73e+00    0    1.20e+00
2007 02 26  1615    54157   58500      0    1.71e+00    0    1.19e+00
2007 02 26  1620    54157   58800      0    1.70e+00    0    1.19e+00
2007 02 26  1625    54157   59100      0    1.70e+00    0    1.19e+00
2007 02 26  1630    54157   59400      0    1.70e+00    0    1.20e+00
2007 02 26  1635    54157   59700      0    1.75e+00    0    1.23e+00
2007 02 26  1640    54157   60000      0    1.70e+00    0    1.19e+00
2007 02 26  1645    54157   60300      0    1.71e+00    0    1.20e+00
2007 02 26  1650    54157   60600      0    1.71e+00    0    1.20e+00
2007 02 26  1655    54157   60900      0    1.72e+00    0    1.21e+00
2007 02 26  1700    54157   61200      0    1.74e+00    0    1.22e+00
2007 02 26  1705    54157   61500      0    1.80e+00    0    1.25e+00
2007 02 26  1710    54157   61800      0    1.73e+00    0    1.20e+00
2007 02 26  1715    54157   62100      0    1.75e+00    0    1.22e+00
2007 02 26  1720    54157   62400      0    1.77e+00    0    1.24e+00
2007 02 26  1725    54157   62700      0    1.75e+00    0    1.21e+00
2007 02 26  1730    54157   63000      0    1.74e+00    0    1.21e+00
2007 02 26  1735    54157   63300      0    1.73e+00    0    1.21e+00
2007 02 26  1740    54157   63600      0    1.77e+00    0    1.25e+00
2007 02 26  1745    54157   63900      0    1.75e+00    0    1.23e+00
2007 02 26  1750    54157   64200      0    1.74e+00    0    1.21e+00
2007 02 26  1755    54157   64500      0    1.71e+00    0    1.20e+00
2007 02 26  1800    54157   64800      0    1.74e+00    0    1.22e+00
2007 02 26  1805    54157   65100      0    1.74e+00    0    1.22e+00
2007 02 26  1810    54157   65400      0    1.73e+00    0    1.21e+00
2007 02 26  1815    54157   65700      0    1.75e+00    0    1.23e+00
2007 02 26  1820    54157   66000      0    1.75e+00    0    1.22e+00
2007 02 26  1825    54157   66300      0    1.77e+00    0    1.24e+00
2007 02 26  1830    54157   66600      0    1.75e+00    0    1.23e+00
2007 02 26  1835    54157   66900      0    1.74e+00    0    1.22e+00
2007 02 26  1840    54157   67200      0    1.76e+00    0    1.23e+00
2007 02 26  1845    54157   67500      0    1.73e+00    0    1.22e+00
2007 02 26  1850    54157   67800      0    1.72e+00    0    1.20e+00
2007 02 26  1855    54157   68100      0    1.76e+00    0    1.24e+00
2007 02 26  1900    54157   68400      0    1.72e+00    0    1.21e+00
2007 02 26  1905    54157   68700      0    1.71e+00    0    1.20e+00
2007 02 26  1910    54157   69000      0    1.71e+00    0    1.20e+00
2007 02 26  1915    54157   69300      0    1.73e+00    0    1.21e+00
2007 02 26  1920    54157   69600      0    1.75e+00    0    1.23e+00
2007 02 26  1925    54157   69900      0    1.72e+00    0    1.20e+00
2007 02 26  1930    54157   70200      0    1.77e+00    0    1.23e+00
2007 02 26  1935    54157   70500      0    1.73e+00    0    1.23e+00
2007 02 26  1940    54157   70800      0    1.75e+00    0    1.24e+00
2007 02 26  1945    54157   71100      0    1.79e+00    0    1.26e+00
2007 02 26  1950    54157   71400      0    1.80e+00    0    1.25e+00
2007 02 26  1955    54157   71700      0    1.77e+00    0    1.24e+00
2007 02 26  2000    54157   72000      0    1.69e+00    0    1.18e+00
2007 02 26  2005    54157   72300      0    1.79e+00    0    1.26e+00
2007 02 26  2010    54157   72600      0    1.78e+00    0    1.25e+00
2007 02 26  2015    54157   72900      0    1.73e+00    0    1.21e+00
2007 02 26  2020    54157   73200      0    1.72e+00    0    1.21e+00
2007 02 26  2025    54157   73500      0    1.75e+00    0    1.23e+00
2007 02 26  2030    54157   73800      0    1.76e+00    0    1.24e+00
2007 02 26  2035    54157   74100      0    1.76e+00    0    1.23e+00
2007 02 26  2040    54157   74400      0    1.77e+00    0    1.23e+00
2007 02 26  2045    54157   74700      0    1.77e+00    0    1.25e+00
2007 02 26  2050    54157   75000      0    1.77e+00    0    1.24e+00
2007 02 26  2055    54157   75300      0    1.75e+00    0    1.23e+00
2007 02 26  2100    54157   75600      0    1.73e+00    0    1.21e+00
2007 02 26  2105    54157   75900      0    1.74e+00    0    1.20e+00
2007 02 26  2110    54157   76200      0    1.71e+00    0    1.20e+00
2007 02 26  2115    54157   76500      0    1.74e+00    0    1.22e+00
2007 02 26  2120    54157   76800      0    1.77e+00    0    1.24e+00
2007 02 26  2125    54157   77100      0    1.79e+00    0    1.26e+00
2007 02 26  2130    54157   77400      0    1.73e+00    0    1.21e+00
2007 02 26  2135    54157   77700      0    1.75e+00    0    1.22e+00
2007 02 26  2140    54157   78000      0    1.74e+00    0    1.22e+00
2007 02 26  2145    54157   78300      0    1.74e+00    0    1.22e+00
2007 02 26  2150    54157   78600      0    1.72e+00    0    1.20e+00
2007 02 26  2155    54157   78900      0    1.78e+00    0    1.24e+00
2007 02 26  2200    54157   79200      0    1.74e+00    0    1.23e+00
2007 02 26  2205    54157   79500      0    1.72e+00    0    1.19e+00
2007 02 26  2210    54157   79800      0    1.79e+00    0    1.26e+00
2007 02 26  2215    54157   80100      0    1.76e+00    0    1.23e+00
2007 02 26  2220    54157   80400      0    1.75e+00    0    1.23e+00
2007 02 26  2225    54157   80700      0    1.76e+00    0    1.24e+00
2007 02 26  2230    54157   81000      0    1.77e+00    0    1.23e+00
2007 02 26  2235    54157   81300      0    1.74e+00    0    1.22e+00
2007 02 26  2240    54157   81600      0    1.73e+00    0    1.22e+00
2007 02 26  2245    54157   81900      0    1.79e+00    0    1.25e+00
2007 02 26  2250    54157   82200      0    1.75e+00    0    1.22e+00
2007 02 26  2255    54157   82500      0    1.76e+00    0    1.23e+00
2007 02 26  2300    54157   82800      0    1.76e+00    0    1.23e+00
2007 02 26  2305    54157   83100      0    1.74e+00    0    1.24e+00
2007 02 26  2310    54157   83400      0    1.72e+00    0    1.21e+00
2007 02 26  2315    54157   83700      0    1.74e+00    0    1.22e+00
2007 02 26  2320    54157   84000      0    1.76e+00    0    1.24e+00
2007 02 26  2325    54157   84300      0    1.73e+00    0    1.21e+00
2007 02 26  2330    54157   84600      0    1.76e+00    0    1.23e+00
2007 02 26  2335    54157   84900      0    1.75e+00    0    1.21e+00
2007 02 26  2340    54157   85200      0    1.72e+00    0    1.21e+00
2007 02 26  2345    54157   85500      0    1.72e+00    0    1.19e+00
2007 02 26  2350    54157   85800      0    1.74e+00    0    1.22e+00
2007 02 26  2355    54157   86100      0    1.75e+00    0    1.21e+00
