:Data_list: 20070217_ace_sis_5m.txt
:Created: 2007 Feb 18 0011 UT
# Prepared by the U.S. Dept. of Commerce, NOAA, Space Environment Center.
# Please send comments and suggestions to SEC.Webmaster@noaa.gov 
# 
# Units: proton flux p/cs2-sec-ster
# Status(S): 0 = nominal data, 1 to 8 = bad data record, 9 = no data
# Missing data values: -1.00e+05
# Source: ACE Satellite - Solar Isotope Spectrometer
#
# 5-minute averaged Real-time Integral Flux of High-energy Solar Protons
# 
#                 Modified Seconds
# UT Date   Time   Julian  of the      ---- Integral Proton Flux ----
# YR MO DA  HHMM     Day     Day       S    > 10 MeV    S    > 30 MeV
#--------------------------------------------------------------------
2007 02 17  0000    54148       0      0    1.70e+00    0    1.19e+00
2007 02 17  0005    54148     300      0    1.70e+00    0    1.19e+00
2007 02 17  0010    54148     600      0    1.67e+00    0    1.16e+00
2007 02 17  0015    54148     900      0    1.69e+00    0    1.18e+00
2007 02 17  0020    54148    1200      0    1.70e+00    0    1.19e+00
2007 02 17  0025    54148    1500      0    1.70e+00    0    1.20e+00
2007 02 17  0030    54148    1800      0    1.71e+00    0    1.20e+00
2007 02 17  0035    54148    2100      0    1.70e+00    0    1.20e+00
2007 02 17  0040    54148    2400      0    1.73e+00    0    1.22e+00
2007 02 17  0045    54148    2700      0    1.70e+00    0    1.19e+00
2007 02 17  0050    54148    3000      0    1.72e+00    0    1.21e+00
2007 02 17  0055    54148    3300      0    1.73e+00    0    1.21e+00
2007 02 17  0100    54148    3600      0    1.72e+00    0    1.21e+00
2007 02 17  0105    54148    3900      0    1.75e+00    0    1.22e+00
2007 02 17  0110    54148    4200      0    1.68e+00    0    1.17e+00
2007 02 17  0115    54148    4500      0    1.68e+00    0    1.17e+00
2007 02 17  0120    54148    4800      0    1.72e+00    0    1.21e+00
2007 02 17  0125    54148    5100      0    1.75e+00    0    1.24e+00
2007 02 17  0130    54148    5400      0    1.73e+00    0    1.21e+00
2007 02 17  0135    54148    5700      0    1.73e+00    0    1.20e+00
2007 02 17  0140    54148    6000      0    1.71e+00    0    1.20e+00
2007 02 17  0145    54148    6300      0    1.70e+00    0    1.21e+00
2007 02 17  0150    54148    6600      0    1.72e+00    0    1.21e+00
2007 02 17  0155    54148    6900      0    1.71e+00    0    1.18e+00
2007 02 17  0200    54148    7200      0    1.71e+00    0    1.19e+00
2007 02 17  0205    54148    7500      0    1.69e+00    0    1.18e+00
2007 02 17  0210    54148    7800      0    1.71e+00    0    1.20e+00
2007 02 17  0215    54148    8100      0    1.74e+00    0    1.22e+00
2007 02 17  0220    54148    8400      0    1.70e+00    0    1.20e+00
2007 02 17  0225    54148    8700      0    1.70e+00    0    1.18e+00
2007 02 17  0230    54148    9000      0    1.73e+00    0    1.21e+00
2007 02 17  0235    54148    9300      0    1.71e+00    0    1.19e+00
2007 02 17  0240    54148    9600      0    1.65e+00    0    1.18e+00
2007 02 17  0245    54148    9900      0    1.70e+00    0    1.19e+00
2007 02 17  0250    54148   10200      0    1.73e+00    0    1.21e+00
2007 02 17  0255    54148   10500      0    1.68e+00    0    1.18e+00
2007 02 17  0300    54148   10800      0    1.71e+00    0    1.21e+00
2007 02 17  0305    54148   11100      0    1.69e+00    0    1.20e+00
2007 02 17  0310    54148   11400      0    1.72e+00    0    1.23e+00
2007 02 17  0315    54148   11700      0    1.70e+00    0    1.18e+00
2007 02 17  0320    54148   12000      0    1.71e+00    0    1.20e+00
2007 02 17  0325    54148   12300      0    1.71e+00    0    1.20e+00
2007 02 17  0330    54148   12600      0    1.65e+00    0    1.17e+00
2007 02 17  0335    54148   12900      0    1.68e+00    0    1.18e+00
2007 02 17  0340    54148   13200      0    1.67e+00    0    1.17e+00
2007 02 17  0345    54148   13500      0    1.68e+00    0    1.16e+00
2007 02 17  0350    54148   13800      0    1.71e+00    0    1.21e+00
2007 02 17  0355    54148   14100      0    1.70e+00    0    1.19e+00
2007 02 17  0400    54148   14400      0    1.70e+00    0    1.20e+00
2007 02 17  0405    54148   14700      0    1.68e+00    0    1.18e+00
2007 02 17  0410    54148   15000      0    1.67e+00    0    1.17e+00
2007 02 17  0415    54148   15300      0    1.72e+00    0    1.20e+00
2007 02 17  0420    54148   15600      0    1.72e+00    0    1.21e+00
2007 02 17  0425    54148   15900      0    1.71e+00    0    1.20e+00
2007 02 17  0430    54148   16200      0    1.67e+00    0    1.16e+00
2007 02 17  0435    54148   16500      0    1.74e+00    0    1.21e+00
2007 02 17  0440    54148   16800      0    1.75e+00    0    1.23e+00
2007 02 17  0445    54148   17100      0    1.73e+00    0    1.22e+00
2007 02 17  0450    54148   17400      0    1.74e+00    0    1.21e+00
2007 02 17  0455    54148   17700      0    1.69e+00    0    1.18e+00
2007 02 17  0500    54148   18000      0    1.71e+00    0    1.21e+00
2007 02 17  0505    54148   18300      0    1.71e+00    0    1.19e+00
2007 02 17  0510    54148   18600      0    1.72e+00    0    1.20e+00
2007 02 17  0515    54148   18900      0    1.70e+00    0    1.19e+00
2007 02 17  0520    54148   19200      0    1.72e+00    0    1.21e+00
2007 02 17  0525    54148   19500      0    1.74e+00    0    1.22e+00
2007 02 17  0530    54148   19800      0    1.72e+00    0    1.21e+00
2007 02 17  0535    54148   20100      0    1.71e+00    0    1.20e+00
2007 02 17  0540    54148   20400      0    1.74e+00    0    1.22e+00
2007 02 17  0545    54148   20700      0    1.72e+00    0    1.20e+00
2007 02 17  0550    54148   21000      0    1.72e+00    0    1.20e+00
2007 02 17  0555    54148   21300      0    1.71e+00    0    1.20e+00
2007 02 17  0600    54148   21600      0    1.70e+00    0    1.19e+00
2007 02 17  0605    54148   21900      0    1.68e+00    0    1.18e+00
2007 02 17  0610    54148   22200      0    1.69e+00    0    1.19e+00
2007 02 17  0615    54148   22500      0    1.69e+00    0    1.18e+00
2007 02 17  0620    54148   22800      0    1.72e+00    0    1.19e+00
2007 02 17  0625    54148   23100      0    1.69e+00    0    1.17e+00
2007 02 17  0630    54148   23400      0    1.71e+00    0    1.21e+00
2007 02 17  0635    54148   23700      0    1.72e+00    0    1.19e+00
2007 02 17  0640    54148   24000      0    1.74e+00    0    1.23e+00
2007 02 17  0645    54148   24300      0    1.72e+00    0    1.19e+00
2007 02 17  0650    54148   24600      0    1.67e+00    0    1.18e+00
2007 02 17  0655    54148   24900      9   -1.00e+05    9   -1.00e+05
2007 02 17  0700    54148   25200      0    1.80e+00    0    1.25e+00
2007 02 17  0705    54148   25500      0    1.74e+00    0    1.21e+00
2007 02 17  0710    54148   25800      0    1.73e+00    0    1.21e+00
2007 02 17  0715    54148   26100      0    1.70e+00    0    1.20e+00
2007 02 17  0720    54148   26400      0    1.72e+00    0    1.20e+00
2007 02 17  0725    54148   26700      0    1.73e+00    0    1.22e+00
2007 02 17  0730    54148   27000      0    1.72e+00    0    1.19e+00
2007 02 17  0735    54148   27300      0    1.71e+00    0    1.20e+00
2007 02 17  0740    54148   27600      0    1.73e+00    0    1.21e+00
2007 02 17  0745    54148   27900      0    1.70e+00    0    1.19e+00
2007 02 17  0750    54148   28200      0    1.73e+00    0    1.22e+00
2007 02 17  0755    54148   28500      0    1.71e+00    0    1.21e+00
2007 02 17  0800    54148   28800      0    1.70e+00    0    1.18e+00
2007 02 17  0805    54148   29100      0    1.68e+00    0    1.19e+00
2007 02 17  0810    54148   29400      0    1.72e+00    0    1.20e+00
2007 02 17  0815    54148   29700      0    1.73e+00    0    1.20e+00
2007 02 17  0820    54148   30000      0    1.72e+00    0    1.21e+00
2007 02 17  0825    54148   30300      0    1.71e+00    0    1.21e+00
2007 02 17  0830    54148   30600      0    1.70e+00    0    1.19e+00
2007 02 17  0835    54148   30900      0    1.73e+00    0    1.22e+00
2007 02 17  0840    54148   31200      0    1.72e+00    0    1.21e+00
2007 02 17  0845    54148   31500      0    1.69e+00    0    1.18e+00
2007 02 17  0850    54148   31800      0    1.73e+00    0    1.23e+00
2007 02 17  0855    54148   32100      0    1.69e+00    0    1.18e+00
2007 02 17  0900    54148   32400      0    1.72e+00    0    1.19e+00
2007 02 17  0905    54148   32700      0    1.73e+00    0    1.22e+00
2007 02 17  0910    54148   33000      0    1.72e+00    0    1.21e+00
2007 02 17  0915    54148   33300      0    1.68e+00    0    1.17e+00
2007 02 17  0920    54148   33600      0    1.71e+00    0    1.20e+00
2007 02 17  0925    54148   33900      0    1.73e+00    0    1.22e+00
2007 02 17  0930    54148   34200      0    1.76e+00    0    1.23e+00
2007 02 17  0935    54148   34500      0    1.73e+00    0    1.21e+00
2007 02 17  0940    54148   34800      0    1.71e+00    0    1.20e+00
2007 02 17  0945    54148   35100      0    1.72e+00    0    1.20e+00
2007 02 17  0950    54148   35400      0    1.70e+00    0    1.20e+00
2007 02 17  0955    54148   35700      0    1.74e+00    0    1.23e+00
2007 02 17  1000    54148   36000      0    1.70e+00    0    1.19e+00
2007 02 17  1005    54148   36300      0    1.74e+00    0    1.22e+00
2007 02 17  1010    54148   36600      0    1.73e+00    0    1.22e+00
2007 02 17  1015    54148   36900      0    1.74e+00    0    1.23e+00
2007 02 17  1020    54148   37200      0    1.71e+00    0    1.20e+00
2007 02 17  1025    54148   37500      0    1.72e+00    0    1.21e+00
2007 02 17  1030    54148   37800      0    1.73e+00    0    1.21e+00
2007 02 17  1035    54148   38100      0    1.70e+00    0    1.19e+00
2007 02 17  1040    54148   38400      0    1.73e+00    0    1.21e+00
2007 02 17  1045    54148   38700      0    1.72e+00    0    1.19e+00
2007 02 17  1050    54148   39000      0    1.68e+00    0    1.15e+00
2007 02 17  1055    54148   39300      0    1.72e+00    0    1.19e+00
2007 02 17  1100    54148   39600      0    1.71e+00    0    1.20e+00
2007 02 17  1105    54148   39900      0    1.72e+00    0    1.21e+00
2007 02 17  1110    54148   40200      0    1.57e+00    0    1.10e+00
2007 02 17  1115    54148   40500      0    1.72e+00    0    1.21e+00
2007 02 17  1120    54148   40800      0    1.70e+00    0    1.20e+00
2007 02 17  1125    54148   41100      0    1.71e+00    0    1.20e+00
2007 02 17  1130    54148   41400      0    1.73e+00    0    1.21e+00
2007 02 17  1135    54148   41700      0    1.74e+00    0    1.22e+00
2007 02 17  1140    54148   42000      0    1.72e+00    0    1.20e+00
2007 02 17  1145    54148   42300      0    1.72e+00    0    1.20e+00
2007 02 17  1150    54148   42600      0    1.71e+00    0    1.19e+00
2007 02 17  1155    54148   42900      0    1.73e+00    0    1.21e+00
2007 02 17  1200    54148   43200      0    1.72e+00    0    1.21e+00
2007 02 17  1205    54148   43500      0    1.72e+00    0    1.21e+00
2007 02 17  1210    54148   43800      0    1.72e+00    0    1.22e+00
2007 02 17  1215    54148   44100      0    1.69e+00    0    1.20e+00
2007 02 17  1220    54148   44400      0    1.74e+00    0    1.22e+00
2007 02 17  1225    54148   44700      0    1.71e+00    0    1.20e+00
2007 02 17  1230    54148   45000      0    1.72e+00    0    1.21e+00
2007 02 17  1235    54148   45300      0    1.72e+00    0    1.21e+00
2007 02 17  1240    54148   45600      0    1.73e+00    0    1.21e+00
2007 02 17  1245    54148   45900      0    1.72e+00    0    1.21e+00
2007 02 17  1250    54148   46200      0    1.70e+00    0    1.20e+00
2007 02 17  1255    54148   46500      0    1.72e+00    0    1.20e+00
2007 02 17  1300    54148   46800      0    1.73e+00    0    1.20e+00
2007 02 17  1305    54148   47100      0    1.72e+00    0    1.20e+00
2007 02 17  1310    54148   47400      0    1.70e+00    0    1.20e+00
2007 02 17  1315    54148   47700      0    1.73e+00    0    1.21e+00
2007 02 17  1320    54148   48000      0    1.73e+00    0    1.22e+00
2007 02 17  1325    54148   48300      0    1.73e+00    0    1.21e+00
2007 02 17  1330    54148   48600      0    1.71e+00    0    1.20e+00
2007 02 17  1335    54148   48900      0    1.72e+00    0    1.22e+00
2007 02 17  1340    54148   49200      0    1.73e+00    0    1.22e+00
2007 02 17  1345    54148   49500      0    1.70e+00    0    1.19e+00
2007 02 17  1350    54148   49800      0    1.72e+00    0    1.21e+00
2007 02 17  1355    54148   50100      0    1.71e+00    0    1.20e+00
2007 02 17  1400    54148   50400      0    1.69e+00    0    1.18e+00
2007 02 17  1405    54148   50700      0    1.71e+00    0    1.19e+00
2007 02 17  1410    54148   51000      0    1.70e+00    0    1.19e+00
2007 02 17  1415    54148   51300      0    1.75e+00    0    1.22e+00
2007 02 17  1420    54148   51600      0    1.69e+00    0    1.18e+00
2007 02 17  1425    54148   51900      0    1.75e+00    0    1.23e+00
2007 02 17  1430    54148   52200      0    1.74e+00    0    1.22e+00
2007 02 17  1435    54148   52500      0    1.76e+00    0    1.22e+00
2007 02 17  1440    54148   52800      0    1.74e+00    0    1.22e+00
2007 02 17  1445    54148   53100      0    1.72e+00    0    1.20e+00
2007 02 17  1450    54148   53400      0    1.71e+00    0    1.19e+00
2007 02 17  1455    54148   53700      0    1.72e+00    0    1.19e+00
2007 02 17  1500    54148   54000      0    1.70e+00    0    1.18e+00
2007 02 17  1505    54148   54300      0    1.71e+00    0    1.19e+00
2007 02 17  1510    54148   54600      0    1.75e+00    0    1.23e+00
2007 02 17  1515    54148   54900      0    1.74e+00    0    1.22e+00
2007 02 17  1520    54148   55200      0    1.72e+00    0    1.21e+00
2007 02 17  1525    54148   55500      0    1.67e+00    0    1.18e+00
2007 02 17  1530    54148   55800      0    1.70e+00    0    1.19e+00
2007 02 17  1535    54148   56100      0    1.68e+00    0    1.19e+00
2007 02 17  1540    54148   56400      0    1.70e+00    0    1.19e+00
2007 02 17  1545    54148   56700      0    1.72e+00    0    1.20e+00
2007 02 17  1550    54148   57000      0    1.73e+00    0    1.22e+00
2007 02 17  1555    54148   57300      0    1.68e+00    0    1.18e+00
2007 02 17  1600    54148   57600      0    1.75e+00    0    1.22e+00
2007 02 17  1605    54148   57900      0    1.72e+00    0    1.21e+00
2007 02 17  1610    54148   58200      0    1.74e+00    0    1.21e+00
2007 02 17  1615    54148   58500      0    1.70e+00    0    1.19e+00
2007 02 17  1620    54148   58800      0    1.73e+00    0    1.21e+00
2007 02 17  1625    54148   59100      0    1.73e+00    0    1.22e+00
2007 02 17  1630    54148   59400      0    1.74e+00    0    1.21e+00
2007 02 17  1635    54148   59700      0    1.69e+00    0    1.18e+00
2007 02 17  1640    54148   60000      0    1.76e+00    0    1.24e+00
2007 02 17  1645    54148   60300      0    1.73e+00    0    1.21e+00
2007 02 17  1650    54148   60600      0    1.69e+00    0    1.17e+00
2007 02 17  1655    54148   60900      0    1.73e+00    0    1.22e+00
2007 02 17  1700    54148   61200      0    1.70e+00    0    1.18e+00
2007 02 17  1705    54148   61500      0    1.70e+00    0    1.20e+00
2007 02 17  1710    54148   61800      0    1.71e+00    0    1.20e+00
2007 02 17  1715    54148   62100      0    1.67e+00    0    1.16e+00
2007 02 17  1720    54148   62400      0    1.70e+00    0    1.19e+00
2007 02 17  1725    54148   62700      0    1.69e+00    0    1.17e+00
2007 02 17  1730    54148   63000      0    1.71e+00    0    1.20e+00
2007 02 17  1735    54148   63300      0    1.71e+00    0    1.19e+00
2007 02 17  1740    54148   63600      0    1.70e+00    0    1.19e+00
2007 02 17  1745    54148   63900      0    1.72e+00    0    1.22e+00
2007 02 17  1750    54148   64200      0    1.72e+00    0    1.21e+00
2007 02 17  1755    54148   64500      0    1.68e+00    0    1.18e+00
2007 02 17  1800    54148   64800      0    1.73e+00    0    1.20e+00
2007 02 17  1805    54148   65100      0    1.69e+00    0    1.18e+00
2007 02 17  1810    54148   65400      0    1.73e+00    0    1.21e+00
2007 02 17  1815    54148   65700      0    1.74e+00    0    1.22e+00
2007 02 17  1820    54148   66000      0    1.71e+00    0    1.21e+00
2007 02 17  1825    54148   66300      0    1.73e+00    0    1.21e+00
2007 02 17  1830    54148   66600      0    1.71e+00    0    1.19e+00
2007 02 17  1835    54148   66900      0    1.70e+00    0    1.20e+00
2007 02 17  1840    54148   67200      0    1.73e+00    0    1.21e+00
2007 02 17  1845    54148   67500      0    1.75e+00    0    1.22e+00
2007 02 17  1850    54148   67800      0    1.72e+00    0    1.21e+00
2007 02 17  1855    54148   68100      0    1.71e+00    0    1.19e+00
2007 02 17  1900    54148   68400      0    1.75e+00    0    1.23e+00
2007 02 17  1905    54148   68700      0    1.75e+00    0    1.22e+00
2007 02 17  1910    54148   69000      0    1.71e+00    0    1.21e+00
2007 02 17  1915    54148   69300      0    1.71e+00    0    1.19e+00
2007 02 17  1920    54148   69600      0    1.71e+00    0    1.20e+00
2007 02 17  1925    54148   69900      0    1.73e+00    0    1.20e+00
2007 02 17  1930    54148   70200      0    1.69e+00    0    1.17e+00
2007 02 17  1935    54148   70500      0    1.71e+00    0    1.20e+00
2007 02 17  1940    54148   70800      0    1.69e+00    0    1.20e+00
2007 02 17  1945    54148   71100      0    1.67e+00    0    1.17e+00
2007 02 17  1950    54148   71400      0    1.72e+00    0    1.21e+00
2007 02 17  1955    54148   71700      0    1.69e+00    0    1.20e+00
2007 02 17  2000    54148   72000      0    1.71e+00    0    1.21e+00
2007 02 17  2005    54148   72300      0    1.68e+00    0    1.17e+00
2007 02 17  2010    54148   72600      0    1.77e+00    0    1.23e+00
2007 02 17  2015    54148   72900      0    1.73e+00    0    1.22e+00
2007 02 17  2020    54148   73200      0    1.74e+00    0    1.22e+00
2007 02 17  2025    54148   73500      0    1.73e+00    0    1.21e+00
2007 02 17  2030    54148   73800      0    1.73e+00    0    1.22e+00
2007 02 17  2035    54148   74100      0    1.69e+00    0    1.18e+00
2007 02 17  2040    54148   74400      0    1.72e+00    0    1.21e+00
2007 02 17  2045    54148   74700      0    1.72e+00    0    1.19e+00
2007 02 17  2050    54148   75000      0    1.69e+00    0    1.18e+00
2007 02 17  2055    54148   75300      0    1.68e+00    0    1.18e+00
2007 02 17  2100    54148   75600      0    1.71e+00    0    1.20e+00
2007 02 17  2105    54148   75900      0    1.73e+00    0    1.21e+00
2007 02 17  2110    54148   76200      0    1.73e+00    0    1.21e+00
2007 02 17  2115    54148   76500      0    1.68e+00    0    1.18e+00
2007 02 17  2120    54148   76800      0    1.69e+00    0    1.19e+00
2007 02 17  2125    54148   77100      0    1.70e+00    0    1.20e+00
2007 02 17  2130    54148   77400      0    1.72e+00    0    1.21e+00
2007 02 17  2135    54148   77700      0    1.69e+00    0    1.18e+00
2007 02 17  2140    54148   78000      0    1.71e+00    0    1.20e+00
2007 02 17  2145    54148   78300      0    1.71e+00    0    1.19e+00
2007 02 17  2150    54148   78600      0    1.69e+00    0    1.20e+00
2007 02 17  2155    54148   78900      0    1.68e+00    0    1.17e+00
2007 02 17  2200    54148   79200      0    1.68e+00    0    1.19e+00
2007 02 17  2205    54148   79500      0    1.70e+00    0    1.20e+00
2007 02 17  2210    54148   79800      0    1.73e+00    0    1.22e+00
2007 02 17  2215    54148   80100      0    1.71e+00    0    1.20e+00
2007 02 17  2220    54148   80400      0    1.71e+00    0    1.20e+00
2007 02 17  2225    54148   80700      0    1.69e+00    0    1.19e+00
2007 02 17  2230    54148   81000      0    1.71e+00    0    1.20e+00
2007 02 17  2235    54148   81300      0    1.71e+00    0    1.20e+00
2007 02 17  2240    54148   81600      0    1.77e+00    0    1.23e+00
2007 02 17  2245    54148   81900      9   -1.00e+05    9   -1.00e+05
2007 02 17  2250    54148   82200      9   -1.00e+05    9   -1.00e+05
2007 02 17  2255    54148   82500      9   -1.00e+05    9   -1.00e+05
2007 02 17  2300    54148   82800      9   -1.00e+05    9   -1.00e+05
2007 02 17  2305    54148   83100      9   -1.00e+05    9   -1.00e+05
2007 02 17  2310    54148   83400      9   -1.00e+05    9   -1.00e+05
2007 02 17  2315    54148   83700      9   -1.00e+05    9   -1.00e+05
2007 02 17  2320    54148   84000      9   -1.00e+05    9   -1.00e+05
2007 02 17  2325    54148   84300      9   -1.00e+05    9   -1.00e+05
2007 02 17  2330    54148   84600      9   -1.00e+05    9   -1.00e+05
2007 02 17  2335    54148   84900      9   -1.00e+05    9   -1.00e+05
2007 02 17  2340    54148   85200      0    1.77e+00    0    1.24e+00
2007 02 17  2345    54148   85500      0    1.72e+00    0    1.21e+00
2007 02 17  2350    54148   85800      0    1.71e+00    0    1.21e+00
2007 02 17  2355    54148   86100      0    1.72e+00    0    1.21e+00
