:Data_list: 20070326_ace_sis_5m.txt
:Created: 2007 Mar 27 0011 UT
# Prepared by the U.S. Dept. of Commerce, NOAA, Space Environment Center.
# Please send comments and suggestions to SEC.Webmaster@noaa.gov 
# 
# Units: proton flux p/cs2-sec-ster
# Status(S): 0 = nominal data, 1 to 8 = bad data record, 9 = no data
# Missing data values: -1.00e+05
# Source: ACE Satellite - Solar Isotope Spectrometer
#
# 5-minute averaged Real-time Integral Flux of High-energy Solar Protons
# 
#                 Modified Seconds
# UT Date   Time   Julian  of the      ---- Integral Proton Flux ----
# YR MO DA  HHMM     Day     Day       S    > 10 MeV    S    > 30 MeV
#--------------------------------------------------------------------
2007 03 26  0000    54185       0      9   -1.00e+05    9   -1.00e+05
2007 03 26  0005    54185     300      9   -1.00e+05    9   -1.00e+05
2007 03 26  0010    54185     600      9   -1.00e+05    9   -1.00e+05
2007 03 26  0015    54185     900      9   -1.00e+05    9   -1.00e+05
2007 03 26  0020    54185    1200      9   -1.00e+05    9   -1.00e+05
2007 03 26  0025    54185    1500      9   -1.00e+05    9   -1.00e+05
2007 03 26  0030    54185    1800      9   -1.00e+05    9   -1.00e+05
2007 03 26  0035    54185    2100      0    1.74e+00    0    1.21e+00
2007 03 26  0040    54185    2400      0    1.76e+00    0    1.23e+00
2007 03 26  0045    54185    2700      0    1.76e+00    0    1.23e+00
2007 03 26  0050    54185    3000      0    1.80e+00    0    1.27e+00
2007 03 26  0055    54185    3300      0    1.75e+00    0    1.23e+00
2007 03 26  0100    54185    3600      0    1.76e+00    0    1.23e+00
2007 03 26  0105    54185    3900      0    1.75e+00    0    1.21e+00
2007 03 26  0110    54185    4200      0    1.73e+00    0    1.22e+00
2007 03 26  0115    54185    4500      0    1.77e+00    0    1.25e+00
2007 03 26  0120    54185    4800      0    1.75e+00    0    1.22e+00
2007 03 26  0125    54185    5100      0    1.75e+00    0    1.22e+00
2007 03 26  0130    54185    5400      0    1.75e+00    0    1.21e+00
2007 03 26  0135    54185    5700      0    1.73e+00    0    1.20e+00
2007 03 26  0140    54185    6000      0    1.74e+00    0    1.23e+00
2007 03 26  0145    54185    6300      0    1.76e+00    0    1.22e+00
2007 03 26  0150    54185    6600      0    1.78e+00    0    1.25e+00
2007 03 26  0155    54185    6900      0    1.73e+00    0    1.21e+00
2007 03 26  0200    54185    7200      0    1.76e+00    0    1.22e+00
2007 03 26  0205    54185    7500      0    1.74e+00    0    1.22e+00
2007 03 26  0210    54185    7800      0    1.79e+00    0    1.25e+00
2007 03 26  0215    54185    8100      0    1.77e+00    0    1.25e+00
2007 03 26  0220    54185    8400      0    1.73e+00    0    1.21e+00
2007 03 26  0225    54185    8700      0    1.73e+00    0    1.21e+00
2007 03 26  0230    54185    9000      0    1.78e+00    0    1.26e+00
2007 03 26  0235    54185    9300      0    1.76e+00    0    1.24e+00
2007 03 26  0240    54185    9600      0    1.78e+00    0    1.24e+00
2007 03 26  0245    54185    9900      0    1.73e+00    0    1.20e+00
2007 03 26  0250    54185   10200      0    1.79e+00    0    1.25e+00
2007 03 26  0255    54185   10500      0    1.79e+00    0    1.27e+00
2007 03 26  0300    54185   10800      0    1.71e+00    0    1.19e+00
2007 03 26  0305    54185   11100      0    1.77e+00    0    1.23e+00
2007 03 26  0310    54185   11400      0    1.73e+00    0    1.21e+00
2007 03 26  0315    54185   11700      0    1.74e+00    0    1.21e+00
2007 03 26  0320    54185   12000      0    1.75e+00    0    1.22e+00
2007 03 26  0325    54185   12300      0    1.74e+00    0    1.21e+00
2007 03 26  0330    54185   12600      0    1.78e+00    0    1.25e+00
2007 03 26  0335    54185   12900      0    1.70e+00    0    1.20e+00
2007 03 26  0340    54185   13200      0    1.76e+00    0    1.24e+00
2007 03 26  0345    54185   13500      0    1.74e+00    0    1.23e+00
2007 03 26  0350    54185   13800      0    1.78e+00    0    1.25e+00
2007 03 26  0355    54185   14100      0    1.79e+00    0    1.25e+00
2007 03 26  0400    54185   14400      0    1.72e+00    0    1.20e+00
2007 03 26  0405    54185   14700      0    1.73e+00    0    1.22e+00
2007 03 26  0410    54185   15000      0    1.76e+00    0    1.23e+00
2007 03 26  0415    54185   15300      0    1.75e+00    0    1.22e+00
2007 03 26  0420    54185   15600      0    1.73e+00    0    1.20e+00
2007 03 26  0425    54185   15900      0    1.75e+00    0    1.24e+00
2007 03 26  0430    54185   16200      0    1.77e+00    0    1.23e+00
2007 03 26  0435    54185   16500      0    1.72e+00    0    1.20e+00
2007 03 26  0440    54185   16800      0    1.71e+00    0    1.19e+00
2007 03 26  0445    54185   17100      0    1.77e+00    0    1.24e+00
2007 03 26  0450    54185   17400      0    1.74e+00    0    1.21e+00
2007 03 26  0455    54185   17700      0    1.74e+00    0    1.22e+00
2007 03 26  0500    54185   18000      0    1.75e+00    0    1.22e+00
2007 03 26  0505    54185   18300      0    1.77e+00    0    1.23e+00
2007 03 26  0510    54185   18600      0    1.72e+00    0    1.20e+00
2007 03 26  0515    54185   18900      0    1.77e+00    0    1.23e+00
2007 03 26  0520    54185   19200      0    1.74e+00    0    1.23e+00
2007 03 26  0525    54185   19500      0    1.75e+00    0    1.23e+00
2007 03 26  0530    54185   19800      0    1.75e+00    0    1.22e+00
2007 03 26  0535    54185   20100      0    1.78e+00    0    1.25e+00
2007 03 26  0540    54185   20400      0    1.75e+00    0    1.25e+00
2007 03 26  0545    54185   20700      0    1.70e+00    0    1.18e+00
2007 03 26  0550    54185   21000      0    1.76e+00    0    1.24e+00
2007 03 26  0555    54185   21300      0    1.78e+00    0    1.24e+00
2007 03 26  0600    54185   21600      0    1.75e+00    0    1.23e+00
2007 03 26  0605    54185   21900      0    1.75e+00    0    1.22e+00
2007 03 26  0610    54185   22200      0    1.72e+00    0    1.21e+00
2007 03 26  0615    54185   22500      0    1.71e+00    0    1.19e+00
2007 03 26  0620    54185   22800      0    1.78e+00    0    1.24e+00
2007 03 26  0625    54185   23100      0    1.72e+00    0    1.19e+00
2007 03 26  0630    54185   23400      0    1.76e+00    0    1.23e+00
2007 03 26  0635    54185   23700      0    1.73e+00    0    1.23e+00
2007 03 26  0640    54185   24000      0    1.76e+00    0    1.23e+00
2007 03 26  0645    54185   24300      0    1.77e+00    0    1.23e+00
2007 03 26  0650    54185   24600      0    1.70e+00    0    1.20e+00
2007 03 26  0655    54185   24900      0    1.73e+00    0    1.22e+00
2007 03 26  0700    54185   25200      0    1.71e+00    0    1.20e+00
2007 03 26  0705    54185   25500      0    1.74e+00    0    1.23e+00
2007 03 26  0710    54185   25800      0    1.74e+00    0    1.23e+00
2007 03 26  0715    54185   26100      0    1.76e+00    0    1.22e+00
2007 03 26  0720    54185   26400      0    1.71e+00    0    1.20e+00
2007 03 26  0725    54185   26700      0    1.75e+00    0    1.23e+00
2007 03 26  0730    54185   27000      0    1.78e+00    0    1.25e+00
2007 03 26  0735    54185   27300      0    1.75e+00    0    1.22e+00
2007 03 26  0740    54185   27600      0    1.74e+00    0    1.23e+00
2007 03 26  0745    54185   27900      0    1.73e+00    0    1.21e+00
2007 03 26  0750    54185   28200      0    1.75e+00    0    1.23e+00
2007 03 26  0755    54185   28500      0    1.75e+00    0    1.22e+00
2007 03 26  0800    54185   28800      0    1.76e+00    0    1.23e+00
2007 03 26  0805    54185   29100      0    1.77e+00    0    1.24e+00
2007 03 26  0810    54185   29400      0    1.76e+00    0    1.24e+00
2007 03 26  0815    54185   29700      0    1.78e+00    0    1.24e+00
2007 03 26  0820    54185   30000      0    1.75e+00    0    1.23e+00
2007 03 26  0825    54185   30300      0    1.78e+00    0    1.26e+00
2007 03 26  0830    54185   30600      0    1.74e+00    0    1.22e+00
2007 03 26  0835    54185   30900      0    1.77e+00    0    1.24e+00
2007 03 26  0840    54185   31200      0    1.81e+00    0    1.27e+00
2007 03 26  0845    54185   31500      0    1.71e+00    0    1.21e+00
2007 03 26  0850    54185   31800      0    1.78e+00    0    1.24e+00
2007 03 26  0855    54185   32100      0    1.78e+00    0    1.25e+00
2007 03 26  0900    54185   32400      0    1.75e+00    0    1.23e+00
2007 03 26  0905    54185   32700      0    1.77e+00    0    1.23e+00
2007 03 26  0910    54185   33000      0    1.74e+00    0    1.21e+00
2007 03 26  0915    54185   33300      0    1.78e+00    0    1.25e+00
2007 03 26  0920    54185   33600      0    1.78e+00    0    1.26e+00
2007 03 26  0925    54185   33900      0    1.74e+00    0    1.21e+00
2007 03 26  0930    54185   34200      0    1.75e+00    0    1.22e+00
2007 03 26  0935    54185   34500      0    1.79e+00    0    1.26e+00
2007 03 26  0940    54185   34800      0    1.77e+00    0    1.24e+00
2007 03 26  0945    54185   35100      0    1.77e+00    0    1.24e+00
2007 03 26  0950    54185   35400      0    1.74e+00    0    1.21e+00
2007 03 26  0955    54185   35700      0    1.78e+00    0    1.24e+00
2007 03 26  1000    54185   36000      0    1.72e+00    0    1.20e+00
2007 03 26  1005    54185   36300      0    1.74e+00    0    1.23e+00
2007 03 26  1010    54185   36600      0    1.75e+00    0    1.24e+00
2007 03 26  1015    54185   36900      0    1.73e+00    0    1.22e+00
2007 03 26  1020    54185   37200      0    1.76e+00    0    1.24e+00
2007 03 26  1025    54185   37500      0    1.77e+00    0    1.25e+00
2007 03 26  1030    54185   37800      0    1.77e+00    0    1.22e+00
2007 03 26  1035    54185   38100      0    1.76e+00    0    1.24e+00
2007 03 26  1040    54185   38400      0    1.74e+00    0    1.22e+00
2007 03 26  1045    54185   38700      0    1.78e+00    0    1.25e+00
2007 03 26  1050    54185   39000      0    1.77e+00    0    1.25e+00
2007 03 26  1055    54185   39300      0    1.74e+00    0    1.22e+00
2007 03 26  1100    54185   39600      0    1.77e+00    0    1.23e+00
2007 03 26  1105    54185   39900      0    1.81e+00    0    1.27e+00
2007 03 26  1110    54185   40200      0    1.77e+00    0    1.24e+00
2007 03 26  1115    54185   40500      0    1.73e+00    0    1.21e+00
2007 03 26  1120    54185   40800      0    1.76e+00    0    1.23e+00
2007 03 26  1125    54185   41100      0    1.74e+00    0    1.22e+00
2007 03 26  1130    54185   41400      0    1.75e+00    0    1.23e+00
2007 03 26  1135    54185   41700      0    1.74e+00    0    1.22e+00
2007 03 26  1140    54185   42000      0    1.69e+00    0    1.19e+00
2007 03 26  1145    54185   42300      0    1.77e+00    0    1.24e+00
2007 03 26  1150    54185   42600      0    1.77e+00    0    1.24e+00
2007 03 26  1155    54185   42900      0    1.76e+00    0    1.23e+00
2007 03 26  1200    54185   43200      0    1.72e+00    0    1.21e+00
2007 03 26  1205    54185   43500      0    1.74e+00    0    1.21e+00
2007 03 26  1210    54185   43800      0    1.73e+00    0    1.21e+00
2007 03 26  1215    54185   44100      0    1.78e+00    0    1.24e+00
2007 03 26  1220    54185   44400      0    1.74e+00    0    1.22e+00
2007 03 26  1225    54185   44700      0    1.75e+00    0    1.23e+00
2007 03 26  1230    54185   45000      0    1.78e+00    0    1.24e+00
2007 03 26  1235    54185   45300      0    1.77e+00    0    1.25e+00
2007 03 26  1240    54185   45600      0    1.73e+00    0    1.22e+00
2007 03 26  1245    54185   45900      0    1.75e+00    0    1.22e+00
2007 03 26  1250    54185   46200      0    1.70e+00    0    1.20e+00
2007 03 26  1255    54185   46500      0    1.77e+00    0    1.24e+00
2007 03 26  1300    54185   46800      0    1.76e+00    0    1.24e+00
2007 03 26  1305    54185   47100      0    1.75e+00    0    1.21e+00
2007 03 26  1310    54185   47400      0    1.73e+00    0    1.20e+00
2007 03 26  1315    54185   47700      0    1.75e+00    0    1.23e+00
2007 03 26  1320    54185   48000      0    1.73e+00    0    1.22e+00
2007 03 26  1325    54185   48300      0    1.74e+00    0    1.22e+00
2007 03 26  1330    54185   48600      0    1.77e+00    0    1.24e+00
2007 03 26  1335    54185   48900      0    1.71e+00    0    1.20e+00
2007 03 26  1340    54185   49200      0    1.75e+00    0    1.22e+00
2007 03 26  1345    54185   49500      0    1.74e+00    0    1.23e+00
2007 03 26  1350    54185   49800      0    1.69e+00    0    1.19e+00
2007 03 26  1355    54185   50100      0    1.76e+00    0    1.24e+00
2007 03 26  1400    54185   50400      0    1.74e+00    0    1.20e+00
2007 03 26  1405    54185   50700      0    1.74e+00    0    1.22e+00
2007 03 26  1410    54185   51000      0    1.68e+00    0    1.17e+00
2007 03 26  1415    54185   51300      0    1.75e+00    0    1.23e+00
2007 03 26  1420    54185   51600      0    1.73e+00    0    1.22e+00
2007 03 26  1425    54185   51900      0    1.75e+00    0    1.23e+00
2007 03 26  1430    54185   52200      0    1.76e+00    0    1.23e+00
2007 03 26  1435    54185   52500      0    1.76e+00    0    1.23e+00
2007 03 26  1440    54185   52800      0    1.79e+00    0    1.26e+00
2007 03 26  1445    54185   53100      0    1.80e+00    0    1.27e+00
2007 03 26  1450    54185   53400      0    1.78e+00    0    1.25e+00
2007 03 26  1455    54185   53700      0    1.77e+00    0    1.23e+00
2007 03 26  1500    54185   54000      0    1.71e+00    0    1.19e+00
2007 03 26  1505    54185   54300      0    1.76e+00    0    1.22e+00
2007 03 26  1510    54185   54600      0    1.80e+00    0    1.26e+00
2007 03 26  1515    54185   54900      0    1.78e+00    0    1.24e+00
2007 03 26  1520    54185   55200      0    1.78e+00    0    1.25e+00
2007 03 26  1525    54185   55500      0    1.73e+00    0    1.20e+00
2007 03 26  1530    54185   55800      0    1.77e+00    0    1.25e+00
2007 03 26  1535    54185   56100      0    1.74e+00    0    1.23e+00
2007 03 26  1540    54185   56400      0    1.74e+00    0    1.20e+00
2007 03 26  1545    54185   56700      0    1.81e+00    0    1.27e+00
2007 03 26  1550    54185   57000      0    1.75e+00    0    1.24e+00
2007 03 26  1555    54185   57300      0    1.77e+00    0    1.24e+00
2007 03 26  1600    54185   57600      0    1.74e+00    0    1.22e+00
2007 03 26  1605    54185   57900      0    1.74e+00    0    1.20e+00
2007 03 26  1610    54185   58200      0    1.75e+00    0    1.21e+00
2007 03 26  1615    54185   58500      0    1.80e+00    0    1.27e+00
2007 03 26  1620    54185   58800      0    1.78e+00    0    1.25e+00
2007 03 26  1625    54185   59100      0    1.77e+00    0    1.25e+00
2007 03 26  1630    54185   59400      0    1.73e+00    0    1.22e+00
2007 03 26  1635    54185   59700      0    1.79e+00    0    1.26e+00
2007 03 26  1640    54185   60000      0    1.78e+00    0    1.25e+00
2007 03 26  1645    54185   60300      0    1.77e+00    0    1.25e+00
2007 03 26  1650    54185   60600      0    1.75e+00    0    1.23e+00
2007 03 26  1655    54185   60900      0    1.78e+00    0    1.24e+00
2007 03 26  1700    54185   61200      0    1.76e+00    0    1.24e+00
2007 03 26  1705    54185   61500      0    1.79e+00    0    1.27e+00
2007 03 26  1710    54185   61800      0    1.78e+00    0    1.25e+00
2007 03 26  1715    54185   62100      0    1.77e+00    0    1.23e+00
2007 03 26  1720    54185   62400      0    1.77e+00    0    1.25e+00
2007 03 26  1725    54185   62700      0    1.80e+00    0    1.27e+00
2007 03 26  1730    54185   63000      0    1.77e+00    0    1.24e+00
2007 03 26  1735    54185   63300      0    1.78e+00    0    1.25e+00
2007 03 26  1740    54185   63600      0    1.75e+00    0    1.22e+00
2007 03 26  1745    54185   63900      0    1.74e+00    0    1.22e+00
2007 03 26  1750    54185   64200      0    1.73e+00    0    1.22e+00
2007 03 26  1755    54185   64500      0    1.76e+00    0    1.22e+00
2007 03 26  1800    54185   64800      0    1.75e+00    0    1.23e+00
2007 03 26  1805    54185   65100      0    1.77e+00    0    1.25e+00
2007 03 26  1810    54185   65400      0    1.74e+00    0    1.23e+00
2007 03 26  1815    54185   65700      0    1.78e+00    0    1.25e+00
2007 03 26  1820    54185   66000      0    1.76e+00    0    1.24e+00
2007 03 26  1825    54185   66300      0    1.76e+00    0    1.23e+00
2007 03 26  1830    54185   66600      0    1.76e+00    0    1.23e+00
2007 03 26  1835    54185   66900      0    1.74e+00    0    1.22e+00
2007 03 26  1840    54185   67200      0    1.74e+00    0    1.22e+00
2007 03 26  1845    54185   67500      0    1.76e+00    0    1.23e+00
2007 03 26  1850    54185   67800      0    1.75e+00    0    1.22e+00
2007 03 26  1855    54185   68100      0    1.74e+00    0    1.21e+00
2007 03 26  1900    54185   68400      0    1.77e+00    0    1.24e+00
2007 03 26  1905    54185   68700      0    1.74e+00    0    1.21e+00
2007 03 26  1910    54185   69000      0    1.73e+00    0    1.21e+00
2007 03 26  1915    54185   69300      0    1.79e+00    0    1.25e+00
2007 03 26  1920    54185   69600      0    1.77e+00    0    1.24e+00
2007 03 26  1925    54185   69900      0    1.80e+00    0    1.26e+00
2007 03 26  1930    54185   70200      0    1.75e+00    0    1.24e+00
2007 03 26  1935    54185   70500      0    1.74e+00    0    1.21e+00
2007 03 26  1940    54185   70800      0    1.81e+00    0    1.27e+00
2007 03 26  1945    54185   71100      0    1.73e+00    0    1.20e+00
2007 03 26  1950    54185   71400      0    1.76e+00    0    1.24e+00
2007 03 26  1955    54185   71700      0    1.77e+00    0    1.24e+00
2007 03 26  2000    54185   72000      0    1.72e+00    0    1.19e+00
2007 03 26  2005    54185   72300      0    1.76e+00    0    1.22e+00
2007 03 26  2010    54185   72600      0    1.75e+00    0    1.22e+00
2007 03 26  2015    54185   72900      0    1.73e+00    0    1.21e+00
2007 03 26  2020    54185   73200      0    1.77e+00    0    1.24e+00
2007 03 26  2025    54185   73500      0    1.74e+00    0    1.21e+00
2007 03 26  2030    54185   73800      0    1.75e+00    0    1.22e+00
2007 03 26  2035    54185   74100      0    1.73e+00    0    1.21e+00
2007 03 26  2040    54185   74400      0    1.73e+00    0    1.20e+00
2007 03 26  2045    54185   74700      0    1.76e+00    0    1.23e+00
2007 03 26  2050    54185   75000      0    1.75e+00    0    1.23e+00
2007 03 26  2055    54185   75300      0    1.74e+00    0    1.21e+00
2007 03 26  2100    54185   75600      0    1.75e+00    0    1.23e+00
2007 03 26  2105    54185   75900      0    1.78e+00    0    1.25e+00
2007 03 26  2110    54185   76200      0    1.76e+00    0    1.23e+00
2007 03 26  2115    54185   76500      0    1.74e+00    0    1.23e+00
2007 03 26  2120    54185   76800      0    1.73e+00    0    1.21e+00
2007 03 26  2125    54185   77100      0    1.74e+00    0    1.24e+00
2007 03 26  2130    54185   77400      0    1.68e+00    0    1.18e+00
2007 03 26  2135    54185   77700      0    1.78e+00    0    1.25e+00
2007 03 26  2140    54185   78000      0    1.76e+00    0    1.23e+00
2007 03 26  2145    54185   78300      0    1.79e+00    0    1.25e+00
2007 03 26  2150    54185   78600      0    1.78e+00    0    1.23e+00
2007 03 26  2155    54185   78900      0    1.79e+00    0    1.27e+00
2007 03 26  2200    54185   79200      0    1.79e+00    0    1.25e+00
2007 03 26  2205    54185   79500      0    1.70e+00    0    1.18e+00
2007 03 26  2210    54185   79800      0    1.73e+00    0    1.21e+00
2007 03 26  2215    54185   80100      0    1.75e+00    0    1.23e+00
2007 03 26  2220    54185   80400      0    1.75e+00    0    1.22e+00
2007 03 26  2225    54185   80700      0    1.73e+00    0    1.21e+00
2007 03 26  2230    54185   81000      0    1.73e+00    0    1.21e+00
2007 03 26  2235    54185   81300      0    1.74e+00    0    1.21e+00
2007 03 26  2240    54185   81600      0    1.76e+00    0    1.24e+00
2007 03 26  2245    54185   81900      0    1.72e+00    0    1.21e+00
2007 03 26  2250    54185   82200      0    1.73e+00    0    1.21e+00
2007 03 26  2255    54185   82500      0    1.77e+00    0    1.23e+00
2007 03 26  2300    54185   82800      0    1.74e+00    0    1.21e+00
2007 03 26  2305    54185   83100      0    1.77e+00    0    1.24e+00
2007 03 26  2310    54185   83400      0    1.75e+00    0    1.23e+00
2007 03 26  2315    54185   83700      0    1.77e+00    0    1.24e+00
2007 03 26  2320    54185   84000      0    1.79e+00    0    1.25e+00
2007 03 26  2325    54185   84300      0    1.79e+00    0    1.25e+00
2007 03 26  2330    54185   84600      0    1.78e+00    0    1.24e+00
2007 03 26  2335    54185   84900      0    1.75e+00    0    1.23e+00
2007 03 26  2340    54185   85200      0    1.77e+00    0    1.26e+00
2007 03 26  2345    54185   85500      0    1.80e+00    0    1.26e+00
2007 03 26  2350    54185   85800      0    1.78e+00    0    1.23e+00
2007 03 26  2355    54185   86100      0    1.76e+00    0    1.23e+00
