:Data_list: 20070131_ace_sis_5m.txt
:Created: 2007 Feb 01 0011 UT
# Prepared by the U.S. Dept. of Commerce, NOAA, Space Environment Center.
# Please send comments and suggestions to SEC.Webmaster@noaa.gov 
# 
# Units: proton flux p/cs2-sec-ster
# Status(S): 0 = nominal data, 1 to 8 = bad data record, 9 = no data
# Missing data values: -1.00e+05
# Source: ACE Satellite - Solar Isotope Spectrometer
#
# 5-minute averaged Real-time Integral Flux of High-energy Solar Protons
# 
#                 Modified Seconds
# UT Date   Time   Julian  of the      ---- Integral Proton Flux ----
# YR MO DA  HHMM     Day     Day       S    > 10 MeV    S    > 30 MeV
#--------------------------------------------------------------------
2007 01 31  0000    54131       0      0    1.65e+00    0    1.15e+00
2007 01 31  0005    54131     300      0    1.65e+00    0    1.15e+00
2007 01 31  0010    54131     600      0    1.61e+00    0    1.14e+00
2007 01 31  0015    54131     900      0    1.65e+00    0    1.15e+00
2007 01 31  0020    54131    1200      0    1.66e+00    0    1.16e+00
2007 01 31  0025    54131    1500      0    1.64e+00    0    1.15e+00
2007 01 31  0030    54131    1800      0    1.59e+00    0    1.13e+00
2007 01 31  0035    54131    2100      0    1.61e+00    0    1.14e+00
2007 01 31  0040    54131    2400      0    1.61e+00    0    1.12e+00
2007 01 31  0045    54131    2700      0    1.64e+00    0    1.15e+00
2007 01 31  0050    54131    3000      0    1.63e+00    0    1.14e+00
2007 01 31  0055    54131    3300      0    1.63e+00    0    1.14e+00
2007 01 31  0100    54131    3600      0    1.63e+00    0    1.13e+00
2007 01 31  0105    54131    3900      0    1.61e+00    0    1.12e+00
2007 01 31  0110    54131    4200      0    1.64e+00    0    1.14e+00
2007 01 31  0115    54131    4500      0    1.65e+00    0    1.15e+00
2007 01 31  0120    54131    4800      0    1.65e+00    0    1.16e+00
2007 01 31  0125    54131    5100      0    1.62e+00    0    1.14e+00
2007 01 31  0130    54131    5400      0    1.60e+00    0    1.11e+00
2007 01 31  0135    54131    5700      0    1.62e+00    0    1.13e+00
2007 01 31  0140    54131    6000      0    1.67e+00    0    1.15e+00
2007 01 31  0145    54131    6300      0    1.64e+00    0    1.16e+00
2007 01 31  0150    54131    6600      0    1.62e+00    0    1.15e+00
2007 01 31  0155    54131    6900      0    1.59e+00    0    1.11e+00
2007 01 31  0200    54131    7200      0    1.64e+00    0    1.15e+00
2007 01 31  0205    54131    7500      0    1.64e+00    0    1.15e+00
2007 01 31  0210    54131    7800      0    1.63e+00    0    1.14e+00
2007 01 31  0215    54131    8100      0    1.61e+00    0    1.13e+00
2007 01 31  0220    54131    8400      0    1.63e+00    0    1.13e+00
2007 01 31  0225    54131    8700      0    1.62e+00    0    1.14e+00
2007 01 31  0230    54131    9000      0    1.62e+00    0    1.13e+00
2007 01 31  0235    54131    9300      0    1.64e+00    0    1.14e+00
2007 01 31  0240    54131    9600      0    1.63e+00    0    1.15e+00
2007 01 31  0245    54131    9900      0    1.60e+00    0    1.11e+00
2007 01 31  0250    54131   10200      0    1.64e+00    0    1.14e+00
2007 01 31  0255    54131   10500      0    1.66e+00    0    1.16e+00
2007 01 31  0300    54131   10800      0    1.63e+00    0    1.14e+00
2007 01 31  0305    54131   11100      0    1.61e+00    0    1.13e+00
2007 01 31  0310    54131   11400      0    1.66e+00    0    1.16e+00
2007 01 31  0315    54131   11700      0    1.65e+00    0    1.16e+00
2007 01 31  0320    54131   12000      0    1.63e+00    0    1.14e+00
2007 01 31  0325    54131   12300      0    1.64e+00    0    1.15e+00
2007 01 31  0330    54131   12600      0    1.61e+00    0    1.12e+00
2007 01 31  0335    54131   12900      0    1.62e+00    0    1.13e+00
2007 01 31  0340    54131   13200      0    1.61e+00    0    1.12e+00
2007 01 31  0345    54131   13500      0    1.61e+00    0    1.12e+00
2007 01 31  0350    54131   13800      0    1.62e+00    0    1.13e+00
2007 01 31  0355    54131   14100      0    1.60e+00    0    1.11e+00
2007 01 31  0400    54131   14400      0    1.65e+00    0    1.15e+00
2007 01 31  0405    54131   14700      0    1.64e+00    0    1.14e+00
2007 01 31  0410    54131   15000      0    1.65e+00    0    1.16e+00
2007 01 31  0415    54131   15300      0    1.63e+00    0    1.12e+00
2007 01 31  0420    54131   15600      0    1.61e+00    0    1.13e+00
2007 01 31  0425    54131   15900      0    1.62e+00    0    1.13e+00
2007 01 31  0430    54131   16200      0    1.60e+00    0    1.11e+00
2007 01 31  0435    54131   16500      0    1.60e+00    0    1.12e+00
2007 01 31  0440    54131   16800      0    1.59e+00    0    1.11e+00
2007 01 31  0445    54131   17100      0    1.64e+00    0    1.15e+00
2007 01 31  0450    54131   17400      0    1.59e+00    0    1.13e+00
2007 01 31  0455    54131   17700      0    1.61e+00    0    1.13e+00
2007 01 31  0500    54131   18000      0    1.64e+00    0    1.15e+00
2007 01 31  0505    54131   18300      0    1.60e+00    0    1.11e+00
2007 01 31  0510    54131   18600      0    1.62e+00    0    1.14e+00
2007 01 31  0515    54131   18900      0    1.62e+00    0    1.14e+00
2007 01 31  0520    54131   19200      0    1.65e+00    0    1.16e+00
2007 01 31  0525    54131   19500      0    1.63e+00    0    1.15e+00
2007 01 31  0530    54131   19800      0    1.63e+00    0    1.15e+00
2007 01 31  0535    54131   20100      0    1.63e+00    0    1.14e+00
2007 01 31  0540    54131   20400      0    1.61e+00    0    1.14e+00
2007 01 31  0545    54131   20700      0    1.59e+00    0    1.12e+00
2007 01 31  0550    54131   21000      0    1.57e+00    0    1.10e+00
2007 01 31  0555    54131   21300      0    1.58e+00    0    1.10e+00
2007 01 31  0600    54131   21600      0    1.65e+00    0    1.16e+00
2007 01 31  0605    54131   21900      0    1.58e+00    0    1.10e+00
2007 01 31  0610    54131   22200      0    1.62e+00    0    1.14e+00
2007 01 31  0615    54131   22500      0    1.60e+00    0    1.10e+00
2007 01 31  0620    54131   22800      0    1.55e+00    0    1.09e+00
2007 01 31  0625    54131   23100      0    1.64e+00    0    1.15e+00
2007 01 31  0630    54131   23400      0    1.62e+00    0    1.12e+00
2007 01 31  0635    54131   23700      0    1.63e+00    0    1.14e+00
2007 01 31  0640    54131   24000      0    1.61e+00    0    1.13e+00
2007 01 31  0645    54131   24300      0    1.57e+00    0    1.09e+00
2007 01 31  0650    54131   24600      0    1.63e+00    0    1.15e+00
2007 01 31  0655    54131   24900      0    1.62e+00    0    1.14e+00
2007 01 31  0700    54131   25200      0    1.60e+00    0    1.11e+00
2007 01 31  0705    54131   25500      0    1.59e+00    0    1.10e+00
2007 01 31  0710    54131   25800      0    1.60e+00    0    1.12e+00
2007 01 31  0715    54131   26100      0    1.63e+00    0    1.13e+00
2007 01 31  0720    54131   26400      0    1.63e+00    0    1.15e+00
2007 01 31  0725    54131   26700      0    1.60e+00    0    1.12e+00
2007 01 31  0730    54131   27000      0    1.59e+00    0    1.10e+00
2007 01 31  0735    54131   27300      0    1.62e+00    0    1.13e+00
2007 01 31  0740    54131   27600      0    1.62e+00    0    1.13e+00
2007 01 31  0745    54131   27900      0    1.61e+00    0    1.13e+00
2007 01 31  0750    54131   28200      0    1.60e+00    0    1.12e+00
2007 01 31  0755    54131   28500      0    1.66e+00    0    1.16e+00
2007 01 31  0800    54131   28800      0    1.63e+00    0    1.14e+00
2007 01 31  0805    54131   29100      0    1.61e+00    0    1.13e+00
2007 01 31  0810    54131   29400      0    1.61e+00    0    1.12e+00
2007 01 31  0815    54131   29700      0    1.62e+00    0    1.14e+00
2007 01 31  0820    54131   30000      0    1.60e+00    0    1.11e+00
2007 01 31  0825    54131   30300      0    1.61e+00    0    1.13e+00
2007 01 31  0830    54131   30600      0    1.62e+00    0    1.15e+00
2007 01 31  0835    54131   30900      0    1.58e+00    0    1.11e+00
2007 01 31  0840    54131   31200      0    1.60e+00    0    1.11e+00
2007 01 31  0845    54131   31500      0    1.63e+00    0    1.15e+00
2007 01 31  0850    54131   31800      0    1.64e+00    0    1.15e+00
2007 01 31  0855    54131   32100      0    1.66e+00    0    1.17e+00
2007 01 31  0900    54131   32400      0    1.60e+00    0    1.10e+00
2007 01 31  0905    54131   32700      0    1.64e+00    0    1.15e+00
2007 01 31  0910    54131   33000      0    1.58e+00    0    1.09e+00
2007 01 31  0915    54131   33300      0    1.63e+00    0    1.14e+00
2007 01 31  0920    54131   33600      0    1.63e+00    0    1.13e+00
2007 01 31  0925    54131   33900      0    1.64e+00    0    1.14e+00
2007 01 31  0930    54131   34200      0    1.67e+00    0    1.17e+00
2007 01 31  0935    54131   34500      0    1.62e+00    0    1.13e+00
2007 01 31  0940    54131   34800      0    1.63e+00    0    1.15e+00
2007 01 31  0945    54131   35100      0    1.61e+00    0    1.14e+00
2007 01 31  0950    54131   35400      0    1.65e+00    0    1.16e+00
2007 01 31  0955    54131   35700      0    1.58e+00    0    1.11e+00
2007 01 31  1000    54131   36000      0    1.61e+00    0    1.12e+00
2007 01 31  1005    54131   36300      0    1.60e+00    0    1.12e+00
2007 01 31  1010    54131   36600      0    1.56e+00    0    1.09e+00
2007 01 31  1015    54131   36900      0    1.60e+00    0    1.11e+00
2007 01 31  1020    54131   37200      0    1.60e+00    0    1.12e+00
2007 01 31  1025    54131   37500      0    1.64e+00    0    1.15e+00
2007 01 31  1030    54131   37800      0    1.61e+00    0    1.12e+00
2007 01 31  1035    54131   38100      0    1.61e+00    0    1.13e+00
2007 01 31  1040    54131   38400      0    1.62e+00    0    1.13e+00
2007 01 31  1045    54131   38700      0    1.61e+00    0    1.13e+00
2007 01 31  1050    54131   39000      0    1.65e+00    0    1.15e+00
2007 01 31  1055    54131   39300      0    1.63e+00    0    1.14e+00
2007 01 31  1100    54131   39600      0    1.60e+00    0    1.11e+00
2007 01 31  1105    54131   39900      0    1.64e+00    0    1.15e+00
2007 01 31  1110    54131   40200      0    1.65e+00    0    1.16e+00
2007 01 31  1115    54131   40500      0    1.64e+00    0    1.15e+00
2007 01 31  1120    54131   40800      0    1.61e+00    0    1.12e+00
2007 01 31  1125    54131   41100      0    1.63e+00    0    1.13e+00
2007 01 31  1130    54131   41400      0    1.66e+00    0    1.17e+00
2007 01 31  1135    54131   41700      0    1.62e+00    0    1.12e+00
2007 01 31  1140    54131   42000      0    1.60e+00    0    1.12e+00
2007 01 31  1145    54131   42300      0    1.62e+00    0    1.14e+00
2007 01 31  1150    54131   42600      0    1.60e+00    0    1.12e+00
2007 01 31  1155    54131   42900      0    1.63e+00    0    1.14e+00
2007 01 31  1200    54131   43200      0    1.60e+00    0    1.12e+00
2007 01 31  1205    54131   43500      0    1.64e+00    0    1.15e+00
2007 01 31  1210    54131   43800      0    1.65e+00    0    1.15e+00
2007 01 31  1215    54131   44100      0    1.64e+00    0    1.15e+00
2007 01 31  1220    54131   44400      0    1.63e+00    0    1.16e+00
2007 01 31  1225    54131   44700      0    1.60e+00    0    1.12e+00
2007 01 31  1230    54131   45000      0    1.61e+00    0    1.13e+00
2007 01 31  1235    54131   45300      0    1.66e+00    0    1.18e+00
2007 01 31  1240    54131   45600      0    1.64e+00    0    1.14e+00
2007 01 31  1245    54131   45900      0    1.58e+00    0    1.12e+00
2007 01 31  1250    54131   46200      0    1.64e+00    0    1.16e+00
2007 01 31  1255    54131   46500      0    1.63e+00    0    1.15e+00
2007 01 31  1300    54131   46800      0    1.65e+00    0    1.16e+00
2007 01 31  1305    54131   47100      0    1.63e+00    0    1.14e+00
2007 01 31  1310    54131   47400      0    1.62e+00    0    1.13e+00
2007 01 31  1315    54131   47700      0    1.59e+00    0    1.10e+00
2007 01 31  1320    54131   48000      0    1.65e+00    0    1.16e+00
2007 01 31  1325    54131   48300      0    1.63e+00    0    1.13e+00
2007 01 31  1330    54131   48600      0    1.58e+00    0    1.11e+00
2007 01 31  1335    54131   48900      0    1.65e+00    0    1.16e+00
2007 01 31  1340    54131   49200      0    1.62e+00    0    1.14e+00
2007 01 31  1345    54131   49500      0    1.67e+00    0    1.17e+00
2007 01 31  1350    54131   49800      0    1.57e+00    0    1.10e+00
2007 01 31  1355    54131   50100      0    1.62e+00    0    1.14e+00
2007 01 31  1400    54131   50400      0    1.59e+00    0    1.12e+00
2007 01 31  1405    54131   50700      0    1.65e+00    0    1.17e+00
2007 01 31  1410    54131   51000      0    1.61e+00    0    1.14e+00
2007 01 31  1415    54131   51300      0    1.61e+00    0    1.13e+00
2007 01 31  1420    54131   51600      0    1.63e+00    0    1.14e+00
2007 01 31  1425    54131   51900      0    1.63e+00    0    1.14e+00
2007 01 31  1430    54131   52200      0    1.62e+00    0    1.15e+00
2007 01 31  1435    54131   52500      0    1.62e+00    0    1.13e+00
2007 01 31  1440    54131   52800      0    1.64e+00    0    1.15e+00
2007 01 31  1445    54131   53100      0    1.60e+00    0    1.11e+00
2007 01 31  1450    54131   53400      0    1.64e+00    0    1.14e+00
2007 01 31  1455    54131   53700      0    1.61e+00    0    1.14e+00
2007 01 31  1500    54131   54000      0    1.59e+00    0    1.11e+00
2007 01 31  1505    54131   54300      0    1.62e+00    0    1.14e+00
2007 01 31  1510    54131   54600      0    1.63e+00    0    1.13e+00
2007 01 31  1515    54131   54900      0    1.63e+00    0    1.14e+00
2007 01 31  1520    54131   55200      0    1.62e+00    0    1.14e+00
2007 01 31  1525    54131   55500      9   -1.00e+05    9   -1.00e+05
2007 01 31  1530    54131   55800      0    1.63e+00    0    1.13e+00
2007 01 31  1535    54131   56100      0    1.54e+00    0    1.09e+00
2007 01 31  1540    54131   56400      0    1.62e+00    0    1.13e+00
2007 01 31  1545    54131   56700      0    1.64e+00    0    1.14e+00
2007 01 31  1550    54131   57000      0    1.62e+00    0    1.15e+00
2007 01 31  1555    54131   57300      0    1.55e+00    0    1.08e+00
2007 01 31  1600    54131   57600      0    1.62e+00    0    1.13e+00
2007 01 31  1605    54131   57900      0    1.63e+00    0    1.15e+00
2007 01 31  1610    54131   58200      0    1.64e+00    0    1.15e+00
2007 01 31  1615    54131   58500      0    1.59e+00    0    1.10e+00
2007 01 31  1620    54131   58800      0    1.58e+00    0    1.09e+00
2007 01 31  1625    54131   59100      0    1.60e+00    0    1.11e+00
2007 01 31  1630    54131   59400      0    1.61e+00    0    1.13e+00
2007 01 31  1635    54131   59700      0    1.58e+00    0    1.10e+00
2007 01 31  1640    54131   60000      0    1.64e+00    0    1.15e+00
2007 01 31  1645    54131   60300      0    1.61e+00    0    1.13e+00
2007 01 31  1650    54131   60600      0    1.60e+00    0    1.12e+00
2007 01 31  1655    54131   60900      0    1.63e+00    0    1.13e+00
2007 01 31  1700    54131   61200      0    1.62e+00    0    1.14e+00
2007 01 31  1705    54131   61500      0    1.60e+00    0    1.13e+00
2007 01 31  1710    54131   61800      0    1.62e+00    0    1.13e+00
2007 01 31  1715    54131   62100      0    1.62e+00    0    1.13e+00
2007 01 31  1720    54131   62400      0    1.62e+00    0    1.13e+00
2007 01 31  1725    54131   62700      0    1.66e+00    0    1.16e+00
2007 01 31  1730    54131   63000      0    1.63e+00    0    1.14e+00
2007 01 31  1735    54131   63300      0    1.62e+00    0    1.14e+00
2007 01 31  1740    54131   63600      0    1.59e+00    0    1.12e+00
2007 01 31  1745    54131   63900      0    1.62e+00    0    1.14e+00
2007 01 31  1750    54131   64200      0    1.67e+00    0    1.17e+00
2007 01 31  1755    54131   64500      0    1.63e+00    0    1.15e+00
2007 01 31  1800    54131   64800      0    1.58e+00    0    1.11e+00
2007 01 31  1805    54131   65100      0    1.65e+00    0    1.16e+00
2007 01 31  1810    54131   65400      0    1.62e+00    0    1.13e+00
2007 01 31  1815    54131   65700      0    1.60e+00    0    1.11e+00
2007 01 31  1820    54131   66000      0    1.59e+00    0    1.11e+00
2007 01 31  1825    54131   66300      0    1.60e+00    0    1.13e+00
2007 01 31  1830    54131   66600      0    1.63e+00    0    1.15e+00
2007 01 31  1835    54131   66900      0    1.64e+00    0    1.14e+00
2007 01 31  1840    54131   67200      0    1.62e+00    0    1.15e+00
2007 01 31  1845    54131   67500      0    1.59e+00    0    1.10e+00
2007 01 31  1850    54131   67800      0    1.63e+00    0    1.14e+00
2007 01 31  1855    54131   68100      0    1.60e+00    0    1.13e+00
2007 01 31  1900    54131   68400      0    1.59e+00    0    1.12e+00
2007 01 31  1905    54131   68700      0    1.59e+00    0    1.13e+00
2007 01 31  1910    54131   69000      0    1.61e+00    0    1.13e+00
2007 01 31  1915    54131   69300      0    1.58e+00    0    1.10e+00
2007 01 31  1920    54131   69600      0    1.62e+00    0    1.13e+00
2007 01 31  1925    54131   69900      0    1.56e+00    0    1.10e+00
2007 01 31  1930    54131   70200      0    1.62e+00    0    1.14e+00
2007 01 31  1935    54131   70500      0    1.61e+00    0    1.12e+00
2007 01 31  1940    54131   70800      0    1.64e+00    0    1.15e+00
2007 01 31  1945    54131   71100      0    1.60e+00    0    1.12e+00
2007 01 31  1950    54131   71400      0    1.63e+00    0    1.13e+00
2007 01 31  1955    54131   71700      0    1.63e+00    0    1.14e+00
2007 01 31  2000    54131   72000      0    1.59e+00    0    1.11e+00
2007 01 31  2005    54131   72300      0    1.59e+00    0    1.12e+00
2007 01 31  2010    54131   72600      0    1.61e+00    0    1.13e+00
2007 01 31  2015    54131   72900      0    1.62e+00    0    1.13e+00
2007 01 31  2020    54131   73200      0    1.61e+00    0    1.13e+00
2007 01 31  2025    54131   73500      0    1.57e+00    0    1.10e+00
2007 01 31  2030    54131   73800      0    1.58e+00    0    1.11e+00
2007 01 31  2035    54131   74100      0    1.63e+00    0    1.15e+00
2007 01 31  2040    54131   74400      0    1.59e+00    0    1.11e+00
2007 01 31  2045    54131   74700      0    1.62e+00    0    1.14e+00
2007 01 31  2050    54131   75000      0    1.63e+00    0    1.14e+00
2007 01 31  2055    54131   75300      0    1.59e+00    0    1.11e+00
2007 01 31  2100    54131   75600      0    1.63e+00    0    1.14e+00
2007 01 31  2105    54131   75900      0    1.62e+00    0    1.13e+00
2007 01 31  2110    54131   76200      0    1.65e+00    0    1.16e+00
2007 01 31  2115    54131   76500      0    1.63e+00    0    1.14e+00
2007 01 31  2120    54131   76800      0    1.61e+00    0    1.13e+00
2007 01 31  2125    54131   77100      0    1.58e+00    0    1.11e+00
2007 01 31  2130    54131   77400      0    1.58e+00    0    1.12e+00
2007 01 31  2135    54131   77700      0    1.62e+00    0    1.13e+00
2007 01 31  2140    54131   78000      0    1.59e+00    0    1.11e+00
2007 01 31  2145    54131   78300      0    1.61e+00    0    1.13e+00
2007 01 31  2150    54131   78600      0    1.63e+00    0    1.14e+00
2007 01 31  2155    54131   78900      0    1.65e+00    0    1.15e+00
2007 01 31  2200    54131   79200      0    1.60e+00    0    1.13e+00
2007 01 31  2205    54131   79500      0    1.61e+00    0    1.13e+00
2007 01 31  2210    54131   79800      0    1.64e+00    0    1.15e+00
2007 01 31  2215    54131   80100      0    1.61e+00    0    1.13e+00
2007 01 31  2220    54131   80400      0    1.64e+00    0    1.14e+00
2007 01 31  2225    54131   80700      0    1.60e+00    0    1.13e+00
2007 01 31  2230    54131   81000      0    1.61e+00    0    1.13e+00
2007 01 31  2235    54131   81300      0    1.62e+00    0    1.12e+00
2007 01 31  2240    54131   81600      0    1.61e+00    0    1.13e+00
2007 01 31  2245    54131   81900      0    1.62e+00    0    1.14e+00
2007 01 31  2250    54131   82200      0    1.64e+00    0    1.15e+00
2007 01 31  2255    54131   82500      0    1.64e+00    0    1.16e+00
2007 01 31  2300    54131   82800      0    1.64e+00    0    1.15e+00
2007 01 31  2305    54131   83100      0    1.63e+00    0    1.14e+00
2007 01 31  2310    54131   83400      0    1.59e+00    0    1.12e+00
2007 01 31  2315    54131   83700      0    1.58e+00    0    1.12e+00
2007 01 31  2320    54131   84000      0    1.61e+00    0    1.13e+00
2007 01 31  2325    54131   84300      9   -1.00e+05    9   -1.00e+05
2007 01 31  2330    54131   84600      9   -1.00e+05    9   -1.00e+05
2007 01 31  2335    54131   84900      9   -1.00e+05    9   -1.00e+05
2007 01 31  2340    54131   85200      9   -1.00e+05    9   -1.00e+05
2007 01 31  2345    54131   85500      9   -1.00e+05    9   -1.00e+05
2007 01 31  2350    54131   85800      9   -1.00e+05    9   -1.00e+05
2007 01 31  2355    54131   86100      9   -1.00e+05    9   -1.00e+05
