:Data_list: 20070704_ace_sis_5m.txt
:Created: 2007 Jul 05 0011 UT
# Prepared by the U.S. Dept. of Commerce, NOAA, Space Environment Center.
# Please send comments and suggestions to SEC.Webmaster@noaa.gov 
# 
# Units: proton flux p/cs2-sec-ster
# Status(S): 0 = nominal data, 1 to 8 = bad data record, 9 = no data
# Missing data values: -1.00e+05
# Source: ACE Satellite - Solar Isotope Spectrometer
#
# 5-minute averaged Real-time Integral Flux of High-energy Solar Protons
# 
#                 Modified Seconds
# UT Date   Time   Julian  of the      ---- Integral Proton Flux ----
# YR MO DA  HHMM     Day     Day       S    > 10 MeV    S    > 30 MeV
#--------------------------------------------------------------------
2007 07 04  0000    54285       0      0    1.88e+00    0    1.31e+00
2007 07 04  0005    54285     300      0    1.87e+00    0    1.31e+00
2007 07 04  0010    54285     600      0    1.90e+00    0    1.33e+00
2007 07 04  0015    54285     900      0    1.87e+00    0    1.31e+00
2007 07 04  0020    54285    1200      0    1.88e+00    0    1.32e+00
2007 07 04  0025    54285    1500      0    1.90e+00    0    1.33e+00
2007 07 04  0030    54285    1800      0    1.91e+00    0    1.33e+00
2007 07 04  0035    54285    2100      0    1.83e+00    0    1.28e+00
2007 07 04  0040    54285    2400      0    1.90e+00    0    1.32e+00
2007 07 04  0045    54285    2700      0    1.89e+00    0    1.32e+00
2007 07 04  0050    54285    3000      0    1.91e+00    0    1.34e+00
2007 07 04  0055    54285    3300      0    1.89e+00    0    1.31e+00
2007 07 04  0100    54285    3600      0    1.89e+00    0    1.33e+00
2007 07 04  0105    54285    3900      0    1.93e+00    0    1.34e+00
2007 07 04  0110    54285    4200      0    1.93e+00    0    1.34e+00
2007 07 04  0115    54285    4500      0    1.95e+00    0    1.35e+00
2007 07 04  0120    54285    4800      0    1.88e+00    0    1.32e+00
2007 07 04  0125    54285    5100      0    1.91e+00    0    1.33e+00
2007 07 04  0130    54285    5400      0    1.92e+00    0    1.34e+00
2007 07 04  0135    54285    5700      0    1.87e+00    0    1.30e+00
2007 07 04  0140    54285    6000      0    1.93e+00    0    1.34e+00
2007 07 04  0145    54285    6300      0    1.87e+00    0    1.30e+00
2007 07 04  0150    54285    6600      0    1.90e+00    0    1.33e+00
2007 07 04  0155    54285    6900      0    1.87e+00    0    1.30e+00
2007 07 04  0200    54285    7200      0    1.89e+00    0    1.33e+00
2007 07 04  0205    54285    7500      0    1.86e+00    0    1.30e+00
2007 07 04  0210    54285    7800      0    1.88e+00    0    1.31e+00
2007 07 04  0215    54285    8100      0    1.90e+00    0    1.33e+00
2007 07 04  0220    54285    8400      0    1.83e+00    0    1.29e+00
2007 07 04  0225    54285    8700      0    1.87e+00    0    1.30e+00
2007 07 04  0230    54285    9000      0    1.91e+00    0    1.33e+00
2007 07 04  0235    54285    9300      0    1.85e+00    0    1.28e+00
2007 07 04  0240    54285    9600      0    1.88e+00    0    1.32e+00
2007 07 04  0245    54285    9900      0    1.93e+00    0    1.35e+00
2007 07 04  0250    54285   10200      0    1.83e+00    0    1.28e+00
2007 07 04  0255    54285   10500      0    1.84e+00    0    1.28e+00
2007 07 04  0300    54285   10800      0    1.86e+00    0    1.31e+00
2007 07 04  0305    54285   11100      0    1.87e+00    0    1.31e+00
2007 07 04  0310    54285   11400      0    1.89e+00    0    1.32e+00
2007 07 04  0315    54285   11700      0    1.86e+00    0    1.29e+00
2007 07 04  0320    54285   12000      0    1.89e+00    0    1.32e+00
2007 07 04  0325    54285   12300      0    1.88e+00    0    1.32e+00
2007 07 04  0330    54285   12600      0    1.90e+00    0    1.33e+00
2007 07 04  0335    54285   12900      0    1.89e+00    0    1.33e+00
2007 07 04  0340    54285   13200      0    1.88e+00    0    1.33e+00
2007 07 04  0345    54285   13500      0    1.86e+00    0    1.31e+00
2007 07 04  0350    54285   13800      0    1.85e+00    0    1.28e+00
2007 07 04  0355    54285   14100      0    1.88e+00    0    1.31e+00
2007 07 04  0400    54285   14400      0    1.90e+00    0    1.32e+00
2007 07 04  0405    54285   14700      0    1.87e+00    0    1.30e+00
2007 07 04  0410    54285   15000      0    1.88e+00    0    1.32e+00
2007 07 04  0415    54285   15300      0    1.93e+00    0    1.35e+00
2007 07 04  0420    54285   15600      0    1.87e+00    0    1.31e+00
2007 07 04  0425    54285   15900      0    1.90e+00    0    1.34e+00
2007 07 04  0430    54285   16200      0    1.87e+00    0    1.31e+00
2007 07 04  0435    54285   16500      0    1.88e+00    0    1.31e+00
2007 07 04  0440    54285   16800      0    1.91e+00    0    1.34e+00
2007 07 04  0445    54285   17100      0    1.88e+00    0    1.30e+00
2007 07 04  0450    54285   17400      0    1.87e+00    0    1.30e+00
2007 07 04  0455    54285   17700      0    1.88e+00    0    1.31e+00
2007 07 04  0500    54285   18000      0    1.91e+00    0    1.33e+00
2007 07 04  0505    54285   18300      0    1.89e+00    0    1.32e+00
2007 07 04  0510    54285   18600      0    1.90e+00    0    1.33e+00
2007 07 04  0515    54285   18900      0    1.88e+00    0    1.30e+00
2007 07 04  0520    54285   19200      0    1.89e+00    0    1.32e+00
2007 07 04  0525    54285   19500      0    1.88e+00    0    1.32e+00
2007 07 04  0530    54285   19800      0    1.90e+00    0    1.32e+00
2007 07 04  0535    54285   20100      0    1.86e+00    0    1.30e+00
2007 07 04  0540    54285   20400      0    1.91e+00    0    1.33e+00
2007 07 04  0545    54285   20700      0    1.92e+00    0    1.35e+00
2007 07 04  0550    54285   21000      0    1.92e+00    0    1.33e+00
2007 07 04  0555    54285   21300      0    1.91e+00    0    1.33e+00
2007 07 04  0600    54285   21600      0    1.91e+00    0    1.33e+00
2007 07 04  0605    54285   21900      0    1.91e+00    0    1.34e+00
2007 07 04  0610    54285   22200      0    1.86e+00    0    1.29e+00
2007 07 04  0615    54285   22500      0    1.93e+00    0    1.34e+00
2007 07 04  0620    54285   22800      0    1.92e+00    0    1.34e+00
2007 07 04  0625    54285   23100      0    1.83e+00    0    1.28e+00
2007 07 04  0630    54285   23400      0    1.88e+00    0    1.32e+00
2007 07 04  0635    54285   23700      0    1.88e+00    0    1.31e+00
2007 07 04  0640    54285   24000      0    1.90e+00    0    1.32e+00
2007 07 04  0645    54285   24300      0    1.89e+00    0    1.33e+00
2007 07 04  0650    54285   24600      0    1.85e+00    0    1.30e+00
2007 07 04  0655    54285   24900      0    1.90e+00    0    1.33e+00
2007 07 04  0700    54285   25200      0    1.88e+00    0    1.30e+00
2007 07 04  0705    54285   25500      0    1.89e+00    0    1.33e+00
2007 07 04  0710    54285   25800      0    1.88e+00    0    1.32e+00
2007 07 04  0715    54285   26100      0    1.90e+00    0    1.34e+00
2007 07 04  0720    54285   26400      0    1.89e+00    0    1.31e+00
2007 07 04  0725    54285   26700      0    1.88e+00    0    1.33e+00
2007 07 04  0730    54285   27000      0    1.87e+00    0    1.30e+00
2007 07 04  0735    54285   27300      0    1.88e+00    0    1.32e+00
2007 07 04  0740    54285   27600      0    1.85e+00    0    1.29e+00
2007 07 04  0745    54285   27900      0    1.88e+00    0    1.31e+00
2007 07 04  0750    54285   28200      0    1.87e+00    0    1.31e+00
2007 07 04  0755    54285   28500      0    1.87e+00    0    1.31e+00
2007 07 04  0800    54285   28800      0    1.87e+00    0    1.31e+00
2007 07 04  0805    54285   29100      0    1.84e+00    0    1.29e+00
2007 07 04  0810    54285   29400      0    1.82e+00    0    1.27e+00
2007 07 04  0815    54285   29700      0    1.89e+00    0    1.33e+00
2007 07 04  0820    54285   30000      0    1.90e+00    0    1.32e+00
2007 07 04  0825    54285   30300      0    1.87e+00    0    1.32e+00
2007 07 04  0830    54285   30600      0    1.90e+00    0    1.32e+00
2007 07 04  0835    54285   30900      0    1.87e+00    0    1.30e+00
2007 07 04  0840    54285   31200      0    1.90e+00    0    1.33e+00
2007 07 04  0845    54285   31500      0    1.87e+00    0    1.32e+00
2007 07 04  0850    54285   31800      0    1.89e+00    0    1.31e+00
2007 07 04  0855    54285   32100      0    1.86e+00    0    1.30e+00
2007 07 04  0900    54285   32400      0    1.91e+00    0    1.33e+00
2007 07 04  0905    54285   32700      0    1.88e+00    0    1.32e+00
2007 07 04  0910    54285   33000      0    1.86e+00    0    1.30e+00
2007 07 04  0915    54285   33300      0    1.89e+00    0    1.32e+00
2007 07 04  0920    54285   33600      0    1.89e+00    0    1.32e+00
2007 07 04  0925    54285   33900      0    1.88e+00    0    1.32e+00
2007 07 04  0930    54285   34200      0    1.85e+00    0    1.30e+00
2007 07 04  0935    54285   34500      0    1.88e+00    0    1.31e+00
2007 07 04  0940    54285   34800      0    1.86e+00    0    1.30e+00
2007 07 04  0945    54285   35100      0    1.85e+00    0    1.29e+00
2007 07 04  0950    54285   35400      0    1.88e+00    0    1.30e+00
2007 07 04  0955    54285   35700      0    1.91e+00    0    1.32e+00
2007 07 04  1000    54285   36000      0    1.91e+00    0    1.34e+00
2007 07 04  1005    54285   36300      0    1.89e+00    0    1.32e+00
2007 07 04  1010    54285   36600      0    1.85e+00    0    1.30e+00
2007 07 04  1015    54285   36900      0    1.90e+00    0    1.33e+00
2007 07 04  1020    54285   37200      0    1.90e+00    0    1.33e+00
2007 07 04  1025    54285   37500      0    1.88e+00    0    1.31e+00
2007 07 04  1030    54285   37800      0    1.87e+00    0    1.31e+00
2007 07 04  1035    54285   38100      0    1.84e+00    0    1.29e+00
2007 07 04  1040    54285   38400      0    1.85e+00    0    1.29e+00
2007 07 04  1045    54285   38700      0    1.89e+00    0    1.32e+00
2007 07 04  1050    54285   39000      0    1.89e+00    0    1.32e+00
2007 07 04  1055    54285   39300      0    1.88e+00    0    1.31e+00
2007 07 04  1100    54285   39600      0    1.87e+00    0    1.30e+00
2007 07 04  1105    54285   39900      0    1.89e+00    0    1.33e+00
2007 07 04  1110    54285   40200      0    1.92e+00    0    1.35e+00
2007 07 04  1115    54285   40500      0    1.87e+00    0    1.31e+00
2007 07 04  1120    54285   40800      0    1.88e+00    0    1.31e+00
2007 07 04  1125    54285   41100      0    1.90e+00    0    1.33e+00
2007 07 04  1130    54285   41400      0    1.89e+00    0    1.32e+00
2007 07 04  1135    54285   41700      0    1.90e+00    0    1.33e+00
2007 07 04  1140    54285   42000      0    1.86e+00    0    1.28e+00
2007 07 04  1145    54285   42300      0    1.90e+00    0    1.34e+00
2007 07 04  1150    54285   42600      0    1.89e+00    0    1.31e+00
2007 07 04  1155    54285   42900      0    1.88e+00    0    1.32e+00
2007 07 04  1200    54285   43200      0    1.86e+00    0    1.29e+00
2007 07 04  1205    54285   43500      0    1.90e+00    0    1.34e+00
2007 07 04  1210    54285   43800      0    1.86e+00    0    1.31e+00
2007 07 04  1215    54285   44100      0    1.85e+00    0    1.31e+00
2007 07 04  1220    54285   44400      0    1.86e+00    0    1.30e+00
2007 07 04  1225    54285   44700      0    1.89e+00    0    1.32e+00
2007 07 04  1230    54285   45000      0    1.86e+00    0    1.29e+00
2007 07 04  1235    54285   45300      0    1.91e+00    0    1.33e+00
2007 07 04  1240    54285   45600      0    1.86e+00    0    1.29e+00
2007 07 04  1245    54285   45900      0    1.83e+00    0    1.28e+00
2007 07 04  1250    54285   46200      0    1.87e+00    0    1.30e+00
2007 07 04  1255    54285   46500      0    1.90e+00    0    1.33e+00
2007 07 04  1300    54285   46800      0    1.88e+00    0    1.31e+00
2007 07 04  1305    54285   47100      0    1.87e+00    0    1.30e+00
2007 07 04  1310    54285   47400      0    1.86e+00    0    1.30e+00
2007 07 04  1315    54285   47700      0    1.89e+00    0    1.32e+00
2007 07 04  1320    54285   48000      0    1.89e+00    0    1.33e+00
2007 07 04  1325    54285   48300      0    1.91e+00    0    1.34e+00
2007 07 04  1330    54285   48600      0    1.89e+00    0    1.32e+00
2007 07 04  1335    54285   48900      0    1.88e+00    0    1.30e+00
2007 07 04  1340    54285   49200      0    1.88e+00    0    1.31e+00
2007 07 04  1345    54285   49500      0    1.90e+00    0    1.32e+00
2007 07 04  1350    54285   49800      0    1.87e+00    0    1.30e+00
2007 07 04  1355    54285   50100      0    1.90e+00    0    1.33e+00
2007 07 04  1400    54285   50400      0    1.90e+00    0    1.33e+00
2007 07 04  1405    54285   50700      0    1.88e+00    0    1.32e+00
2007 07 04  1410    54285   51000      0    1.88e+00    0    1.31e+00
2007 07 04  1415    54285   51300      0    1.90e+00    0    1.32e+00
2007 07 04  1420    54285   51600      0    1.88e+00    0    1.31e+00
2007 07 04  1425    54285   51900      0    1.93e+00    0    1.34e+00
2007 07 04  1430    54285   52200      0    1.90e+00    0    1.32e+00
2007 07 04  1435    54285   52500      0    1.84e+00    0    1.29e+00
2007 07 04  1440    54285   52800      0    1.93e+00    0    1.35e+00
2007 07 04  1445    54285   53100      0    1.90e+00    0    1.33e+00
2007 07 04  1450    54285   53400      0    1.89e+00    0    1.33e+00
2007 07 04  1455    54285   53700      0    1.88e+00    0    1.32e+00
2007 07 04  1500    54285   54000      0    1.86e+00    0    1.30e+00
2007 07 04  1505    54285   54300      0    1.88e+00    0    1.31e+00
2007 07 04  1510    54285   54600      0    1.90e+00    0    1.33e+00
2007 07 04  1515    54285   54900      0    1.88e+00    0    1.32e+00
2007 07 04  1520    54285   55200      0    1.87e+00    0    1.31e+00
2007 07 04  1525    54285   55500      0    1.89e+00    0    1.32e+00
2007 07 04  1530    54285   55800      0    1.88e+00    0    1.30e+00
2007 07 04  1535    54285   56100      0    1.90e+00    0    1.33e+00
2007 07 04  1540    54285   56400      0    1.91e+00    0    1.34e+00
2007 07 04  1545    54285   56700      0    1.87e+00    0    1.31e+00
2007 07 04  1550    54285   57000      0    1.91e+00    0    1.33e+00
2007 07 04  1555    54285   57300      0    1.88e+00    0    1.32e+00
2007 07 04  1600    54285   57600      0    1.91e+00    0    1.32e+00
2007 07 04  1605    54285   57900      0    1.93e+00    0    1.35e+00
2007 07 04  1610    54285   58200      0    1.85e+00    0    1.30e+00
2007 07 04  1615    54285   58500      0    1.85e+00    0    1.29e+00
2007 07 04  1620    54285   58800      0    1.89e+00    0    1.32e+00
2007 07 04  1625    54285   59100      0    1.91e+00    0    1.34e+00
2007 07 04  1630    54285   59400      0    1.90e+00    0    1.33e+00
2007 07 04  1635    54285   59700      0    1.92e+00    0    1.35e+00
2007 07 04  1640    54285   60000      0    1.91e+00    0    1.32e+00
2007 07 04  1645    54285   60300      0    1.87e+00    0    1.32e+00
2007 07 04  1650    54285   60600      0    1.92e+00    0    1.35e+00
2007 07 04  1655    54285   60900      0    1.90e+00    0    1.32e+00
2007 07 04  1700    54285   61200      0    1.87e+00    0    1.32e+00
2007 07 04  1705    54285   61500      0    1.86e+00    0    1.30e+00
2007 07 04  1710    54285   61800      0    1.92e+00    0    1.35e+00
2007 07 04  1715    54285   62100      0    1.88e+00    0    1.31e+00
2007 07 04  1720    54285   62400      0    1.89e+00    0    1.31e+00
2007 07 04  1725    54285   62700      0    1.86e+00    0    1.31e+00
2007 07 04  1730    54285   63000      0    1.90e+00    0    1.32e+00
2007 07 04  1735    54285   63300      0    1.90e+00    0    1.33e+00
2007 07 04  1740    54285   63600      0    1.87e+00    0    1.30e+00
2007 07 04  1745    54285   63900      0    1.85e+00    0    1.28e+00
2007 07 04  1750    54285   64200      0    1.87e+00    0    1.31e+00
2007 07 04  1755    54285   64500      0    1.89e+00    0    1.32e+00
2007 07 04  1800    54285   64800      0    1.82e+00    0    1.29e+00
2007 07 04  1805    54285   65100      0    1.87e+00    0    1.31e+00
2007 07 04  1810    54285   65400      0    1.91e+00    0    1.32e+00
2007 07 04  1815    54285   65700      0    1.84e+00    0    1.28e+00
2007 07 04  1820    54285   66000      0    1.86e+00    0    1.30e+00
2007 07 04  1825    54285   66300      0    1.89e+00    0    1.32e+00
2007 07 04  1830    54285   66600      0    1.85e+00    0    1.29e+00
2007 07 04  1835    54285   66900      0    1.88e+00    0    1.32e+00
2007 07 04  1840    54285   67200      0    1.87e+00    0    1.29e+00
2007 07 04  1845    54285   67500      0    1.90e+00    0    1.33e+00
2007 07 04  1850    54285   67800      0    1.88e+00    0    1.32e+00
2007 07 04  1855    54285   68100      0    1.89e+00    0    1.32e+00
2007 07 04  1900    54285   68400      0    1.90e+00    0    1.34e+00
2007 07 04  1905    54285   68700      0    1.89e+00    0    1.32e+00
2007 07 04  1910    54285   69000      0    1.89e+00    0    1.33e+00
2007 07 04  1915    54285   69300      0    1.89e+00    0    1.31e+00
2007 07 04  1920    54285   69600      0    1.88e+00    0    1.31e+00
2007 07 04  1925    54285   69900      0    1.90e+00    0    1.32e+00
2007 07 04  1930    54285   70200      0    1.92e+00    0    1.34e+00
2007 07 04  1935    54285   70500      0    1.88e+00    0    1.30e+00
2007 07 04  1940    54285   70800      0    1.86e+00    0    1.30e+00
2007 07 04  1945    54285   71100      0    1.91e+00    0    1.34e+00
2007 07 04  1950    54285   71400      0    1.93e+00    0    1.35e+00
2007 07 04  1955    54285   71700      0    1.89e+00    0    1.32e+00
2007 07 04  2000    54285   72000      0    1.91e+00    0    1.33e+00
2007 07 04  2005    54285   72300      0    1.87e+00    0    1.31e+00
2007 07 04  2010    54285   72600      0    1.89e+00    0    1.32e+00
2007 07 04  2015    54285   72900      0    1.90e+00    0    1.32e+00
2007 07 04  2020    54285   73200      0    1.86e+00    0    1.31e+00
2007 07 04  2025    54285   73500      0    1.91e+00    0    1.34e+00
2007 07 04  2030    54285   73800      0    1.90e+00    0    1.32e+00
2007 07 04  2035    54285   74100      0    1.92e+00    0    1.34e+00
2007 07 04  2040    54285   74400      0    1.85e+00    0    1.27e+00
2007 07 04  2045    54285   74700      0    1.84e+00    0    1.28e+00
2007 07 04  2050    54285   75000      0    1.89e+00    0    1.33e+00
2007 07 04  2055    54285   75300      0    1.86e+00    0    1.30e+00
2007 07 04  2100    54285   75600      0    1.87e+00    0    1.32e+00
2007 07 04  2105    54285   75900      0    1.90e+00    0    1.32e+00
2007 07 04  2110    54285   76200      0    1.86e+00    0    1.31e+00
2007 07 04  2115    54285   76500      0    1.90e+00    0    1.33e+00
2007 07 04  2120    54285   76800      0    1.89e+00    0    1.32e+00
2007 07 04  2125    54285   77100      0    1.88e+00    0    1.31e+00
2007 07 04  2130    54285   77400      0    1.78e+00    0    1.25e+00
2007 07 04  2135    54285   77700      0    1.89e+00    0    1.32e+00
2007 07 04  2140    54285   78000      0    1.90e+00    0    1.33e+00
2007 07 04  2145    54285   78300      0    1.89e+00    0    1.32e+00
2007 07 04  2150    54285   78600      0    1.90e+00    0    1.33e+00
2007 07 04  2155    54285   78900      0    1.90e+00    0    1.33e+00
2007 07 04  2200    54285   79200      0    1.87e+00    0    1.32e+00
2007 07 04  2205    54285   79500      0    1.90e+00    0    1.32e+00
2007 07 04  2210    54285   79800      0    1.90e+00    0    1.32e+00
2007 07 04  2215    54285   80100      0    1.89e+00    0    1.33e+00
2007 07 04  2220    54285   80400      0    1.86e+00    0    1.31e+00
2007 07 04  2225    54285   80700      0    1.90e+00    0    1.31e+00
2007 07 04  2230    54285   81000      0    1.89e+00    0    1.34e+00
2007 07 04  2235    54285   81300      0    1.91e+00    0    1.35e+00
2007 07 04  2240    54285   81600      0    1.87e+00    0    1.29e+00
2007 07 04  2245    54285   81900      0    1.87e+00    0    1.31e+00
2007 07 04  2250    54285   82200      0    1.90e+00    0    1.33e+00
2007 07 04  2255    54285   82500      0    1.85e+00    0    1.29e+00
2007 07 04  2300    54285   82800      0    1.86e+00    0    1.29e+00
2007 07 04  2305    54285   83100      0    1.88e+00    0    1.30e+00
2007 07 04  2310    54285   83400      0    1.89e+00    0    1.31e+00
2007 07 04  2315    54285   83700      0    1.87e+00    0    1.31e+00
2007 07 04  2320    54285   84000      0    1.88e+00    0    1.30e+00
2007 07 04  2325    54285   84300      0    1.92e+00    0    1.33e+00
2007 07 04  2330    54285   84600      0    1.92e+00    0    1.35e+00
2007 07 04  2335    54285   84900      0    1.89e+00    0    1.33e+00
2007 07 04  2340    54285   85200      0    1.93e+00    0    1.36e+00
2007 07 04  2345    54285   85500      0    1.80e+00    0    1.25e+00
2007 07 04  2350    54285   85800      0    1.87e+00    0    1.29e+00
2007 07 04  2355    54285   86100      0    1.87e+00    0    1.30e+00
