:Data_list: 20070908_ace_sis_5m.txt
:Created: 2007 Sep 09 0011 UT
# Prepared by the U.S. Dept. of Commerce, NOAA, Space Environment Center.
# Please send comments and suggestions to SEC.Webmaster@noaa.gov 
# 
# Units: proton flux p/cs2-sec-ster
# Status(S): 0 = nominal data, 1 to 8 = bad data record, 9 = no data
# Missing data values: -1.00e+05
# Source: ACE Satellite - Solar Isotope Spectrometer
#
# 5-minute averaged Real-time Integral Flux of High-energy Solar Protons
# 
#                 Modified Seconds
# UT Date   Time   Julian  of the      ---- Integral Proton Flux ----
# YR MO DA  HHMM     Day     Day       S    > 10 MeV    S    > 30 MeV
#--------------------------------------------------------------------
2007 09 08  0000    54351       0      0    1.89e+00    0    1.33e+00
2007 09 08  0005    54351     300      0    1.87e+00    0    1.31e+00
2007 09 08  0010    54351     600      0    1.89e+00    0    1.32e+00
2007 09 08  0015    54351     900      0    1.91e+00    0    1.35e+00
2007 09 08  0020    54351    1200      0    1.89e+00    0    1.32e+00
2007 09 08  0025    54351    1500      0    1.89e+00    0    1.32e+00
2007 09 08  0030    54351    1800      0    1.92e+00    0    1.34e+00
2007 09 08  0035    54351    2100      0    1.84e+00    0    1.29e+00
2007 09 08  0040    54351    2400      0    1.91e+00    0    1.33e+00
2007 09 08  0045    54351    2700      0    1.87e+00    0    1.30e+00
2007 09 08  0050    54351    3000      0    1.88e+00    0    1.32e+00
2007 09 08  0055    54351    3300      0    1.89e+00    0    1.33e+00
2007 09 08  0100    54351    3600      0    1.86e+00    0    1.28e+00
2007 09 08  0105    54351    3900      0    1.88e+00    0    1.31e+00
2007 09 08  0110    54351    4200      0    1.90e+00    0    1.32e+00
2007 09 08  0115    54351    4500      0    1.88e+00    0    1.31e+00
2007 09 08  0120    54351    4800      0    1.89e+00    0    1.32e+00
2007 09 08  0125    54351    5100      0    1.91e+00    0    1.33e+00
2007 09 08  0130    54351    5400      0    1.91e+00    0    1.34e+00
2007 09 08  0135    54351    5700      0    1.90e+00    0    1.32e+00
2007 09 08  0140    54351    6000      0    1.91e+00    0    1.35e+00
2007 09 08  0145    54351    6300      0    1.88e+00    0    1.32e+00
2007 09 08  0150    54351    6600      0    1.88e+00    0    1.31e+00
2007 09 08  0155    54351    6900      0    1.91e+00    0    1.33e+00
2007 09 08  0200    54351    7200      0    1.88e+00    0    1.32e+00
2007 09 08  0205    54351    7500      0    1.91e+00    0    1.34e+00
2007 09 08  0210    54351    7800      0    1.91e+00    0    1.34e+00
2007 09 08  0215    54351    8100      0    1.89e+00    0    1.32e+00
2007 09 08  0220    54351    8400      0    1.88e+00    0    1.30e+00
2007 09 08  0225    54351    8700      0    1.91e+00    0    1.34e+00
2007 09 08  0230    54351    9000      0    1.94e+00    0    1.37e+00
2007 09 08  0235    54351    9300      0    1.91e+00    0    1.34e+00
2007 09 08  0240    54351    9600      0    1.87e+00    0    1.30e+00
2007 09 08  0245    54351    9900      0    1.90e+00    0    1.32e+00
2007 09 08  0250    54351   10200      0    1.88e+00    0    1.32e+00
2007 09 08  0255    54351   10500      0    1.88e+00    0    1.32e+00
2007 09 08  0300    54351   10800      0    1.88e+00    0    1.32e+00
2007 09 08  0305    54351   11100      0    1.91e+00    0    1.35e+00
2007 09 08  0310    54351   11400      0    1.85e+00    0    1.29e+00
2007 09 08  0315    54351   11700      0    1.89e+00    0    1.31e+00
2007 09 08  0320    54351   12000      0    1.90e+00    0    1.32e+00
2007 09 08  0325    54351   12300      0    1.87e+00    0    1.30e+00
2007 09 08  0330    54351   12600      0    1.91e+00    0    1.34e+00
2007 09 08  0335    54351   12900      0    1.89e+00    0    1.31e+00
2007 09 08  0340    54351   13200      0    1.92e+00    0    1.34e+00
2007 09 08  0345    54351   13500      0    1.89e+00    0    1.32e+00
2007 09 08  0350    54351   13800      0    1.89e+00    0    1.32e+00
2007 09 08  0355    54351   14100      0    1.91e+00    0    1.34e+00
2007 09 08  0400    54351   14400      0    1.85e+00    0    1.29e+00
2007 09 08  0405    54351   14700      0    1.91e+00    0    1.34e+00
2007 09 08  0410    54351   15000      0    1.91e+00    0    1.34e+00
2007 09 08  0415    54351   15300      0    1.90e+00    0    1.34e+00
2007 09 08  0420    54351   15600      0    1.92e+00    0    1.33e+00
2007 09 08  0425    54351   15900      0    1.94e+00    0    1.36e+00
2007 09 08  0430    54351   16200      0    1.90e+00    0    1.33e+00
2007 09 08  0435    54351   16500      0    1.91e+00    0    1.33e+00
2007 09 08  0440    54351   16800      0    1.94e+00    0    1.36e+00
2007 09 08  0445    54351   17100      0    1.86e+00    0    1.29e+00
2007 09 08  0450    54351   17400      0    1.91e+00    0    1.35e+00
2007 09 08  0455    54351   17700      0    1.90e+00    0    1.32e+00
2007 09 08  0500    54351   18000      0    1.94e+00    0    1.35e+00
2007 09 08  0505    54351   18300      0    1.93e+00    0    1.35e+00
2007 09 08  0510    54351   18600      0    1.87e+00    0    1.31e+00
2007 09 08  0515    54351   18900      0    1.91e+00    0    1.33e+00
2007 09 08  0520    54351   19200      0    1.93e+00    0    1.35e+00
2007 09 08  0525    54351   19500      0    1.86e+00    0    1.31e+00
2007 09 08  0530    54351   19800      0    1.90e+00    0    1.34e+00
2007 09 08  0535    54351   20100      0    1.90e+00    0    1.34e+00
2007 09 08  0540    54351   20400      0    1.89e+00    0    1.31e+00
2007 09 08  0545    54351   20700      0    1.90e+00    0    1.34e+00
2007 09 08  0550    54351   21000      0    1.91e+00    0    1.34e+00
2007 09 08  0555    54351   21300      0    1.89e+00    0    1.32e+00
2007 09 08  0600    54351   21600      0    1.89e+00    0    1.32e+00
2007 09 08  0605    54351   21900      0    1.87e+00    0    1.30e+00
2007 09 08  0610    54351   22200      9   -1.00e+05    9   -1.00e+05
2007 09 08  0615    54351   22500      0    1.92e+00    0    1.35e+00
2007 09 08  0620    54351   22800      0    1.87e+00    0    1.29e+00
2007 09 08  0625    54351   23100      0    1.91e+00    0    1.33e+00
2007 09 08  0630    54351   23400      0    1.93e+00    0    1.34e+00
2007 09 08  0635    54351   23700      0    1.91e+00    0    1.33e+00
2007 09 08  0640    54351   24000      0    1.80e+00    0    1.24e+00
2007 09 08  0645    54351   24300      0    1.87e+00    0    1.31e+00
2007 09 08  0650    54351   24600      0    1.91e+00    0    1.35e+00
2007 09 08  0655    54351   24900      0    1.91e+00    0    1.34e+00
2007 09 08  0700    54351   25200      0    1.91e+00    0    1.32e+00
2007 09 08  0705    54351   25500      0    1.92e+00    0    1.33e+00
2007 09 08  0710    54351   25800      0    1.86e+00    0    1.31e+00
2007 09 08  0715    54351   26100      0    1.91e+00    0    1.33e+00
2007 09 08  0720    54351   26400      0    1.92e+00    0    1.35e+00
2007 09 08  0725    54351   26700      0    1.90e+00    0    1.33e+00
2007 09 08  0730    54351   27000      0    1.91e+00    0    1.34e+00
2007 09 08  0735    54351   27300      0    1.90e+00    0    1.31e+00
2007 09 08  0740    54351   27600      0    1.91e+00    0    1.33e+00
2007 09 08  0745    54351   27900      0    1.91e+00    0    1.32e+00
2007 09 08  0750    54351   28200      0    1.91e+00    0    1.33e+00
2007 09 08  0755    54351   28500      0    1.92e+00    0    1.35e+00
2007 09 08  0800    54351   28800      0    1.90e+00    0    1.31e+00
2007 09 08  0805    54351   29100      0    1.90e+00    0    1.32e+00
2007 09 08  0810    54351   29400      0    1.93e+00    0    1.35e+00
2007 09 08  0815    54351   29700      0    1.93e+00    0    1.36e+00
2007 09 08  0820    54351   30000      0    1.92e+00    0    1.35e+00
2007 09 08  0825    54351   30300      0    1.92e+00    0    1.34e+00
2007 09 08  0830    54351   30600      0    1.89e+00    0    1.34e+00
2007 09 08  0835    54351   30900      0    1.96e+00    0    1.36e+00
2007 09 08  0840    54351   31200      0    1.93e+00    0    1.35e+00
2007 09 08  0845    54351   31500      0    1.92e+00    0    1.36e+00
2007 09 08  0850    54351   31800      0    1.92e+00    0    1.34e+00
2007 09 08  0855    54351   32100      0    1.87e+00    0    1.31e+00
2007 09 08  0900    54351   32400      0    1.91e+00    0    1.34e+00
2007 09 08  0905    54351   32700      0    1.89e+00    0    1.32e+00
2007 09 08  0910    54351   33000      0    1.92e+00    0    1.36e+00
2007 09 08  0915    54351   33300      0    1.90e+00    0    1.34e+00
2007 09 08  0920    54351   33600      0    1.89e+00    0    1.33e+00
2007 09 08  0925    54351   33900      0    1.92e+00    0    1.35e+00
2007 09 08  0930    54351   34200      0    1.93e+00    0    1.36e+00
2007 09 08  0935    54351   34500      0    1.94e+00    0    1.36e+00
2007 09 08  0940    54351   34800      0    1.93e+00    0    1.35e+00
2007 09 08  0945    54351   35100      0    1.98e+00    0    1.41e+00
2007 09 08  0950    54351   35400      0    1.91e+00    0    1.35e+00
2007 09 08  0955    54351   35700      0    1.91e+00    0    1.34e+00
2007 09 08  1000    54351   36000      0    1.94e+00    0    1.36e+00
2007 09 08  1005    54351   36300      0    1.94e+00    0    1.36e+00
2007 09 08  1010    54351   36600      0    1.92e+00    0    1.35e+00
2007 09 08  1015    54351   36900      0    1.91e+00    0    1.34e+00
2007 09 08  1020    54351   37200      0    1.89e+00    0    1.32e+00
2007 09 08  1025    54351   37500      0    1.90e+00    0    1.32e+00
2007 09 08  1030    54351   37800      0    1.96e+00    0    1.38e+00
2007 09 08  1035    54351   38100      0    1.90e+00    0    1.34e+00
2007 09 08  1040    54351   38400      0    1.81e+00    0    1.26e+00
2007 09 08  1045    54351   38700      0    1.91e+00    0    1.34e+00
2007 09 08  1050    54351   39000      0    1.93e+00    0    1.34e+00
2007 09 08  1055    54351   39300      0    1.91e+00    0    1.33e+00
2007 09 08  1100    54351   39600      0    1.87e+00    0    1.33e+00
2007 09 08  1105    54351   39900      0    1.89e+00    0    1.32e+00
2007 09 08  1110    54351   40200      0    1.90e+00    0    1.32e+00
2007 09 08  1115    54351   40500      0    1.91e+00    0    1.33e+00
2007 09 08  1120    54351   40800      0    1.88e+00    0    1.31e+00
2007 09 08  1125    54351   41100      0    1.93e+00    0    1.35e+00
2007 09 08  1130    54351   41400      0    1.92e+00    0    1.35e+00
2007 09 08  1135    54351   41700      0    1.92e+00    0    1.35e+00
2007 09 08  1140    54351   42000      0    1.91e+00    0    1.34e+00
2007 09 08  1145    54351   42300      0    1.89e+00    0    1.33e+00
2007 09 08  1150    54351   42600      0    1.92e+00    0    1.35e+00
2007 09 08  1155    54351   42900      0    1.90e+00    0    1.33e+00
2007 09 08  1200    54351   43200      0    1.93e+00    0    1.34e+00
2007 09 08  1205    54351   43500      0    1.89e+00    0    1.31e+00
2007 09 08  1210    54351   43800      0    1.92e+00    0    1.35e+00
2007 09 08  1215    54351   44100      0    1.96e+00    0    1.37e+00
2007 09 08  1220    54351   44400      0    1.87e+00    0    1.30e+00
2007 09 08  1225    54351   44700      0    1.92e+00    0    1.35e+00
2007 09 08  1230    54351   45000      0    1.89e+00    0    1.31e+00
2007 09 08  1235    54351   45300      0    1.93e+00    0    1.34e+00
2007 09 08  1240    54351   45600      0    1.94e+00    0    1.36e+00
2007 09 08  1245    54351   45900      0    1.93e+00    0    1.36e+00
2007 09 08  1250    54351   46200      0    1.93e+00    0    1.35e+00
2007 09 08  1255    54351   46500      0    1.87e+00    0    1.31e+00
2007 09 08  1300    54351   46800      0    1.92e+00    0    1.35e+00
2007 09 08  1305    54351   47100      0    1.91e+00    0    1.34e+00
2007 09 08  1310    54351   47400      0    1.89e+00    0    1.31e+00
2007 09 08  1315    54351   47700      0    1.95e+00    0    1.37e+00
2007 09 08  1320    54351   48000      0    1.95e+00    0    1.38e+00
2007 09 08  1325    54351   48300      0    1.90e+00    0    1.33e+00
2007 09 08  1330    54351   48600      0    1.93e+00    0    1.34e+00
2007 09 08  1335    54351   48900      0    1.89e+00    0    1.33e+00
2007 09 08  1340    54351   49200      0    1.90e+00    0    1.33e+00
2007 09 08  1345    54351   49500      0    1.91e+00    0    1.35e+00
2007 09 08  1350    54351   49800      0    1.91e+00    0    1.34e+00
2007 09 08  1355    54351   50100      0    1.89e+00    0    1.31e+00
2007 09 08  1400    54351   50400      0    1.92e+00    0    1.35e+00
2007 09 08  1405    54351   50700      0    1.91e+00    0    1.34e+00
2007 09 08  1410    54351   51000      0    1.91e+00    0    1.34e+00
2007 09 08  1415    54351   51300      0    1.92e+00    0    1.36e+00
2007 09 08  1420    54351   51600      0    1.92e+00    0    1.34e+00
2007 09 08  1425    54351   51900      0    1.92e+00    0    1.35e+00
2007 09 08  1430    54351   52200      0    1.91e+00    0    1.32e+00
2007 09 08  1435    54351   52500      0    1.92e+00    0    1.35e+00
2007 09 08  1440    54351   52800      0    1.94e+00    0    1.36e+00
2007 09 08  1445    54351   53100      0    1.93e+00    0    1.36e+00
2007 09 08  1450    54351   53400      0    1.93e+00    0    1.35e+00
2007 09 08  1455    54351   53700      0    1.92e+00    0    1.35e+00
2007 09 08  1500    54351   54000      0    1.91e+00    0    1.32e+00
2007 09 08  1505    54351   54300      0    1.90e+00    0    1.32e+00
2007 09 08  1510    54351   54600      0    1.97e+00    0    1.39e+00
2007 09 08  1515    54351   54900      0    1.88e+00    0    1.33e+00
2007 09 08  1520    54351   55200      0    1.89e+00    0    1.33e+00
2007 09 08  1525    54351   55500      0    1.91e+00    0    1.32e+00
2007 09 08  1530    54351   55800      0    1.94e+00    0    1.35e+00
2007 09 08  1535    54351   56100      0    1.95e+00    0    1.36e+00
2007 09 08  1540    54351   56400      0    1.92e+00    0    1.32e+00
2007 09 08  1545    54351   56700      0    1.96e+00    0    1.38e+00
2007 09 08  1550    54351   57000      0    1.95e+00    0    1.37e+00
2007 09 08  1555    54351   57300      0    1.93e+00    0    1.35e+00
2007 09 08  1600    54351   57600      0    1.92e+00    0    1.35e+00
2007 09 08  1605    54351   57900      0    1.94e+00    0    1.36e+00
2007 09 08  1610    54351   58200      0    1.96e+00    0    1.38e+00
2007 09 08  1615    54351   58500      0    1.91e+00    0    1.32e+00
2007 09 08  1620    54351   58800      0    1.95e+00    0    1.38e+00
2007 09 08  1625    54351   59100      0    1.92e+00    0    1.34e+00
2007 09 08  1630    54351   59400      0    1.94e+00    0    1.35e+00
2007 09 08  1635    54351   59700      0    1.90e+00    0    1.35e+00
2007 09 08  1640    54351   60000      0    1.93e+00    0    1.36e+00
2007 09 08  1645    54351   60300      0    1.91e+00    0    1.33e+00
2007 09 08  1650    54351   60600      0    1.91e+00    0    1.32e+00
2007 09 08  1655    54351   60900      0    1.89e+00    0    1.32e+00
2007 09 08  1700    54351   61200      0    1.89e+00    0    1.32e+00
2007 09 08  1705    54351   61500      0    1.98e+00    0    1.40e+00
2007 09 08  1710    54351   61800      0    1.93e+00    0    1.37e+00
2007 09 08  1715    54351   62100      0    1.93e+00    0    1.34e+00
2007 09 08  1720    54351   62400      0    1.95e+00    0    1.36e+00
2007 09 08  1725    54351   62700      0    1.93e+00    0    1.35e+00
2007 09 08  1730    54351   63000      0    1.96e+00    0    1.37e+00
2007 09 08  1735    54351   63300      0    1.92e+00    0    1.33e+00
2007 09 08  1740    54351   63600      0    1.90e+00    0    1.33e+00
2007 09 08  1745    54351   63900      0    1.92e+00    0    1.35e+00
2007 09 08  1750    54351   64200      0    1.93e+00    0    1.35e+00
2007 09 08  1755    54351   64500      0    1.91e+00    0    1.34e+00
2007 09 08  1800    54351   64800      0    1.97e+00    0    1.39e+00
2007 09 08  1805    54351   65100      0    1.93e+00    0    1.35e+00
2007 09 08  1810    54351   65400      0    1.89e+00    0    1.32e+00
2007 09 08  1815    54351   65700      0    1.90e+00    0    1.33e+00
2007 09 08  1820    54351   66000      0    1.96e+00    0    1.37e+00
2007 09 08  1825    54351   66300      0    1.89e+00    0    1.32e+00
2007 09 08  1830    54351   66600      9   -1.00e+05    9   -1.00e+05
2007 09 08  1835    54351   66900      9   -1.00e+05    9   -1.00e+05
2007 09 08  1840    54351   67200      9   -1.00e+05    9   -1.00e+05
2007 09 08  1845    54351   67500      9   -1.00e+05    9   -1.00e+05
2007 09 08  1850    54351   67800      9   -1.00e+05    9   -1.00e+05
2007 09 08  1855    54351   68100      9   -1.00e+05    9   -1.00e+05
2007 09 08  1900    54351   68400      9   -1.00e+05    9   -1.00e+05
2007 09 08  1905    54351   68700      9   -1.00e+05    9   -1.00e+05
2007 09 08  1910    54351   69000      9   -1.00e+05    9   -1.00e+05
2007 09 08  1915    54351   69300      9   -1.00e+05    9   -1.00e+05
2007 09 08  1920    54351   69600      0    1.91e+00    0    1.34e+00
2007 09 08  1925    54351   69900      0    1.97e+00    0    1.38e+00
2007 09 08  1930    54351   70200      0    1.93e+00    0    1.36e+00
2007 09 08  1935    54351   70500      0    1.90e+00    0    1.34e+00
2007 09 08  1940    54351   70800      0    1.92e+00    0    1.34e+00
2007 09 08  1945    54351   71100      0    1.94e+00    0    1.36e+00
2007 09 08  1950    54351   71400      0    1.95e+00    0    1.36e+00
2007 09 08  1955    54351   71700      0    1.95e+00    0    1.37e+00
2007 09 08  2000    54351   72000      0    1.92e+00    0    1.35e+00
2007 09 08  2005    54351   72300      0    1.93e+00    0    1.34e+00
2007 09 08  2010    54351   72600      0    1.90e+00    0    1.34e+00
2007 09 08  2015    54351   72900      0    1.89e+00    0    1.33e+00
2007 09 08  2020    54351   73200      0    1.88e+00    0    1.32e+00
2007 09 08  2025    54351   73500      0    1.90e+00    0    1.34e+00
2007 09 08  2030    54351   73800      0    1.92e+00    0    1.33e+00
2007 09 08  2035    54351   74100      0    1.88e+00    0    1.32e+00
2007 09 08  2040    54351   74400      0    1.91e+00    0    1.32e+00
2007 09 08  2045    54351   74700      0    1.89e+00    0    1.32e+00
2007 09 08  2050    54351   75000      0    1.91e+00    0    1.33e+00
2007 09 08  2055    54351   75300      0    1.89e+00    0    1.32e+00
2007 09 08  2100    54351   75600      0    1.92e+00    0    1.36e+00
2007 09 08  2105    54351   75900      0    1.91e+00    0    1.35e+00
2007 09 08  2110    54351   76200      0    1.89e+00    0    1.32e+00
2007 09 08  2115    54351   76500      0    1.91e+00    0    1.34e+00
2007 09 08  2120    54351   76800      0    1.94e+00    0    1.37e+00
2007 09 08  2125    54351   77100      0    1.94e+00    0    1.35e+00
2007 09 08  2130    54351   77400      0    1.90e+00    0    1.33e+00
2007 09 08  2135    54351   77700      0    1.88e+00    0    1.30e+00
2007 09 08  2140    54351   78000      0    1.90e+00    0    1.33e+00
2007 09 08  2145    54351   78300      0    1.95e+00    0    1.37e+00
2007 09 08  2150    54351   78600      0    1.90e+00    0    1.35e+00
2007 09 08  2155    54351   78900      0    1.94e+00    0    1.34e+00
2007 09 08  2200    54351   79200      0    1.90e+00    0    1.33e+00
2007 09 08  2205    54351   79500      0    1.91e+00    0    1.32e+00
2007 09 08  2210    54351   79800      0    1.93e+00    0    1.35e+00
2007 09 08  2215    54351   80100      0    1.96e+00    0    1.37e+00
2007 09 08  2220    54351   80400      0    1.93e+00    0    1.35e+00
2007 09 08  2225    54351   80700      0    1.95e+00    0    1.37e+00
2007 09 08  2230    54351   81000      0    1.91e+00    0    1.33e+00
2007 09 08  2235    54351   81300      0    1.91e+00    0    1.33e+00
2007 09 08  2240    54351   81600      0    1.87e+00    0    1.30e+00
2007 09 08  2245    54351   81900      0    1.92e+00    0    1.35e+00
2007 09 08  2250    54351   82200      0    1.94e+00    0    1.35e+00
2007 09 08  2255    54351   82500      0    1.91e+00    0    1.34e+00
2007 09 08  2300    54351   82800      0    1.87e+00    0    1.30e+00
2007 09 08  2305    54351   83100      0    1.91e+00    0    1.33e+00
2007 09 08  2310    54351   83400      0    1.93e+00    0    1.35e+00
2007 09 08  2315    54351   83700      0    1.93e+00    0    1.35e+00
2007 09 08  2320    54351   84000      0    1.91e+00    0    1.34e+00
2007 09 08  2325    54351   84300      0    1.91e+00    0    1.34e+00
2007 09 08  2330    54351   84600      0    1.92e+00    0    1.34e+00
2007 09 08  2335    54351   84900      0    1.93e+00    0    1.34e+00
2007 09 08  2340    54351   85200      0    1.88e+00    0    1.32e+00
2007 09 08  2345    54351   85500      0    1.88e+00    0    1.31e+00
2007 09 08  2350    54351   85800      0    1.90e+00    0    1.34e+00
2007 09 08  2355    54351   86100      0    1.89e+00    0    1.33e+00
