:Data_list: 20070520_ace_sis_5m.txt
:Created: 2007 May 21 0011 UT
# Prepared by the U.S. Dept. of Commerce, NOAA, Space Environment Center.
# Please send comments and suggestions to SEC.Webmaster@noaa.gov 
# 
# Units: proton flux p/cs2-sec-ster
# Status(S): 0 = nominal data, 1 to 8 = bad data record, 9 = no data
# Missing data values: -1.00e+05
# Source: ACE Satellite - Solar Isotope Spectrometer
#
# 5-minute averaged Real-time Integral Flux of High-energy Solar Protons
# 
#                 Modified Seconds
# UT Date   Time   Julian  of the      ---- Integral Proton Flux ----
# YR MO DA  HHMM     Day     Day       S    > 10 MeV    S    > 30 MeV
#--------------------------------------------------------------------
2007 05 20  0000    54240       0      0    1.90e+00    0    1.29e+00
2007 05 20  0005    54240     300      0    1.95e+00    0    1.34e+00
2007 05 20  0010    54240     600      0    1.89e+00    0    1.27e+00
2007 05 20  0015    54240     900      0    1.93e+00    0    1.31e+00
2007 05 20  0020    54240    1200      0    1.91e+00    0    1.29e+00
2007 05 20  0025    54240    1500      0    1.94e+00    0    1.32e+00
2007 05 20  0030    54240    1800      0    1.90e+00    0    1.27e+00
2007 05 20  0035    54240    2100      0    1.94e+00    0    1.32e+00
2007 05 20  0040    54240    2400      0    1.95e+00    0    1.32e+00
2007 05 20  0045    54240    2700      0    1.90e+00    0    1.30e+00
2007 05 20  0050    54240    3000      0    1.94e+00    0    1.32e+00
2007 05 20  0055    54240    3300      0    1.97e+00    0    1.34e+00
2007 05 20  0100    54240    3600      0    1.90e+00    0    1.29e+00
2007 05 20  0105    54240    3900      0    1.91e+00    0    1.29e+00
2007 05 20  0110    54240    4200      0    1.91e+00    0    1.28e+00
2007 05 20  0115    54240    4500      0    1.90e+00    0    1.29e+00
2007 05 20  0120    54240    4800      0    1.92e+00    0    1.30e+00
2007 05 20  0125    54240    5100      0    1.89e+00    0    1.30e+00
2007 05 20  0130    54240    5400      0    1.93e+00    0    1.32e+00
2007 05 20  0135    54240    5700      0    1.87e+00    0    1.27e+00
2007 05 20  0140    54240    6000      0    1.92e+00    0    1.31e+00
2007 05 20  0145    54240    6300      0    1.93e+00    0    1.32e+00
2007 05 20  0150    54240    6600      0    1.88e+00    0    1.26e+00
2007 05 20  0155    54240    6900      0    1.90e+00    0    1.30e+00
2007 05 20  0200    54240    7200      0    1.92e+00    0    1.32e+00
2007 05 20  0205    54240    7500      0    1.92e+00    0    1.30e+00
2007 05 20  0210    54240    7800      0    1.88e+00    0    1.27e+00
2007 05 20  0215    54240    8100      0    1.94e+00    0    1.33e+00
2007 05 20  0220    54240    8400      0    1.91e+00    0    1.29e+00
2007 05 20  0225    54240    8700      0    1.90e+00    0    1.28e+00
2007 05 20  0230    54240    9000      0    1.91e+00    0    1.30e+00
2007 05 20  0235    54240    9300      0    1.92e+00    0    1.32e+00
2007 05 20  0240    54240    9600      0    1.89e+00    0    1.30e+00
2007 05 20  0245    54240    9900      0    1.93e+00    0    1.33e+00
2007 05 20  0250    54240   10200      0    1.87e+00    0    1.26e+00
2007 05 20  0255    54240   10500      0    1.92e+00    0    1.31e+00
2007 05 20  0300    54240   10800      0    1.86e+00    0    1.26e+00
2007 05 20  0305    54240   11100      0    1.93e+00    0    1.32e+00
2007 05 20  0310    54240   11400      0    1.92e+00    0    1.31e+00
2007 05 20  0315    54240   11700      0    1.90e+00    0    1.30e+00
2007 05 20  0320    54240   12000      0    1.89e+00    0    1.27e+00
2007 05 20  0325    54240   12300      0    1.94e+00    0    1.33e+00
2007 05 20  0330    54240   12600      0    1.93e+00    0    1.31e+00
2007 05 20  0335    54240   12900      0    1.83e+00    0    1.25e+00
2007 05 20  0340    54240   13200      0    1.96e+00    0    1.34e+00
2007 05 20  0345    54240   13500      0    1.93e+00    0    1.31e+00
2007 05 20  0350    54240   13800      0    1.92e+00    0    1.32e+00
2007 05 20  0355    54240   14100      0    1.94e+00    0    1.33e+00
2007 05 20  0400    54240   14400      0    1.94e+00    0    1.32e+00
2007 05 20  0405    54240   14700      0    1.98e+00    0    1.35e+00
2007 05 20  0410    54240   15000      0    1.95e+00    0    1.34e+00
2007 05 20  0415    54240   15300      0    1.91e+00    0    1.30e+00
2007 05 20  0420    54240   15600      0    1.97e+00    0    1.36e+00
2007 05 20  0425    54240   15900      0    1.91e+00    0    1.31e+00
2007 05 20  0430    54240   16200      0    1.91e+00    0    1.31e+00
2007 05 20  0435    54240   16500      0    1.92e+00    0    1.31e+00
2007 05 20  0440    54240   16800      0    1.94e+00    0    1.33e+00
2007 05 20  0445    54240   17100      0    1.92e+00    0    1.32e+00
2007 05 20  0450    54240   17400      0    1.87e+00    0    1.28e+00
2007 05 20  0455    54240   17700      0    1.94e+00    0    1.33e+00
2007 05 20  0500    54240   18000      0    1.92e+00    0    1.32e+00
2007 05 20  0505    54240   18300      0    1.90e+00    0    1.30e+00
2007 05 20  0510    54240   18600      0    1.92e+00    0    1.31e+00
2007 05 20  0515    54240   18900      0    1.89e+00    0    1.30e+00
2007 05 20  0520    54240   19200      0    1.93e+00    0    1.31e+00
2007 05 20  0525    54240   19500      0    1.94e+00    0    1.33e+00
2007 05 20  0530    54240   19800      0    1.86e+00    0    1.27e+00
2007 05 20  0535    54240   20100      0    1.91e+00    0    1.30e+00
2007 05 20  0540    54240   20400      0    1.92e+00    0    1.32e+00
2007 05 20  0545    54240   20700      0    1.92e+00    0    1.32e+00
2007 05 20  0550    54240   21000      0    1.89e+00    0    1.31e+00
2007 05 20  0555    54240   21300      0    1.86e+00    0    1.28e+00
2007 05 20  0600    54240   21600      0    1.92e+00    0    1.31e+00
2007 05 20  0605    54240   21900      0    1.89e+00    0    1.29e+00
2007 05 20  0610    54240   22200      0    1.85e+00    0    1.27e+00
2007 05 20  0615    54240   22500      0    1.90e+00    0    1.29e+00
2007 05 20  0620    54240   22800      0    1.87e+00    0    1.27e+00
2007 05 20  0625    54240   23100      0    1.93e+00    0    1.33e+00
2007 05 20  0630    54240   23400      0    1.89e+00    0    1.30e+00
2007 05 20  0635    54240   23700      0    1.87e+00    0    1.29e+00
2007 05 20  0640    54240   24000      0    1.87e+00    0    1.28e+00
2007 05 20  0645    54240   24300      0    1.87e+00    0    1.28e+00
2007 05 20  0650    54240   24600      0    1.95e+00    0    1.34e+00
2007 05 20  0655    54240   24900      0    1.92e+00    0    1.32e+00
2007 05 20  0700    54240   25200      0    1.89e+00    0    1.30e+00
2007 05 20  0705    54240   25500      0    1.87e+00    0    1.29e+00
2007 05 20  0710    54240   25800      0    1.86e+00    0    1.29e+00
2007 05 20  0715    54240   26100      0    1.86e+00    0    1.29e+00
2007 05 20  0720    54240   26400      0    1.93e+00    0    1.32e+00
2007 05 20  0725    54240   26700      0    1.88e+00    0    1.29e+00
2007 05 20  0730    54240   27000      0    1.88e+00    0    1.30e+00
2007 05 20  0735    54240   27300      0    1.84e+00    0    1.26e+00
2007 05 20  0740    54240   27600      0    1.91e+00    0    1.31e+00
2007 05 20  0745    54240   27900      0    1.88e+00    0    1.29e+00
2007 05 20  0750    54240   28200      0    1.88e+00    0    1.30e+00
2007 05 20  0755    54240   28500      0    1.87e+00    0    1.29e+00
2007 05 20  0800    54240   28800      0    1.87e+00    0    1.28e+00
2007 05 20  0805    54240   29100      0    1.89e+00    0    1.29e+00
2007 05 20  0810    54240   29400      0    1.94e+00    0    1.35e+00
2007 05 20  0815    54240   29700      0    1.87e+00    0    1.28e+00
2007 05 20  0820    54240   30000      0    1.90e+00    0    1.32e+00
2007 05 20  0825    54240   30300      0    1.78e+00    0    1.22e+00
2007 05 20  0830    54240   30600      0    1.88e+00    0    1.30e+00
2007 05 20  0835    54240   30900      0    1.89e+00    0    1.31e+00
2007 05 20  0840    54240   31200      0    1.87e+00    0    1.29e+00
2007 05 20  0845    54240   31500      0    1.89e+00    0    1.30e+00
2007 05 20  0850    54240   31800      0    1.88e+00    0    1.31e+00
2007 05 20  0855    54240   32100      0    1.91e+00    0    1.32e+00
2007 05 20  0900    54240   32400      0    1.89e+00    0    1.31e+00
2007 05 20  0905    54240   32700      0    1.89e+00    0    1.30e+00
2007 05 20  0910    54240   33000      0    1.84e+00    0    1.28e+00
2007 05 20  0915    54240   33300      0    1.86e+00    0    1.28e+00
2007 05 20  0920    54240   33600      0    1.90e+00    0    1.32e+00
2007 05 20  0925    54240   33900      0    1.88e+00    0    1.30e+00
2007 05 20  0930    54240   34200      0    1.83e+00    0    1.27e+00
2007 05 20  0935    54240   34500      0    1.87e+00    0    1.31e+00
2007 05 20  0940    54240   34800      0    1.86e+00    0    1.28e+00
2007 05 20  0945    54240   35100      0    1.89e+00    0    1.31e+00
2007 05 20  0950    54240   35400      0    1.92e+00    0    1.33e+00
2007 05 20  0955    54240   35700      0    1.85e+00    0    1.27e+00
2007 05 20  1000    54240   36000      0    1.86e+00    0    1.28e+00
2007 05 20  1005    54240   36300      0    1.89e+00    0    1.31e+00
2007 05 20  1010    54240   36600      0    1.86e+00    0    1.28e+00
2007 05 20  1015    54240   36900      0    1.89e+00    0    1.30e+00
2007 05 20  1020    54240   37200      0    1.92e+00    0    1.33e+00
2007 05 20  1025    54240   37500      0    1.85e+00    0    1.29e+00
2007 05 20  1030    54240   37800      0    1.89e+00    0    1.31e+00
2007 05 20  1035    54240   38100      0    1.84e+00    0    1.28e+00
2007 05 20  1040    54240   38400      0    1.90e+00    0    1.32e+00
2007 05 20  1045    54240   38700      0    1.89e+00    0    1.29e+00
2007 05 20  1050    54240   39000      0    1.88e+00    0    1.30e+00
2007 05 20  1055    54240   39300      0    1.89e+00    0    1.30e+00
2007 05 20  1100    54240   39600      0    1.85e+00    0    1.28e+00
2007 05 20  1105    54240   39900      0    1.90e+00    0    1.31e+00
2007 05 20  1110    54240   40200      0    1.84e+00    0    1.28e+00
2007 05 20  1115    54240   40500      0    1.83e+00    0    1.27e+00
2007 05 20  1120    54240   40800      0    1.85e+00    0    1.29e+00
2007 05 20  1125    54240   41100      0    1.91e+00    0    1.32e+00
2007 05 20  1130    54240   41400      0    1.89e+00    0    1.32e+00
2007 05 20  1135    54240   41700      0    1.90e+00    0    1.32e+00
2007 05 20  1140    54240   42000      0    1.83e+00    0    1.27e+00
2007 05 20  1145    54240   42300      0    1.84e+00    0    1.28e+00
2007 05 20  1150    54240   42600      0    1.88e+00    0    1.31e+00
2007 05 20  1155    54240   42900      0    1.88e+00    0    1.31e+00
2007 05 20  1200    54240   43200      0    1.90e+00    0    1.32e+00
2007 05 20  1205    54240   43500      0    1.79e+00    0    1.23e+00
2007 05 20  1210    54240   43800      0    1.88e+00    0    1.31e+00
2007 05 20  1215    54240   44100      0    1.82e+00    0    1.27e+00
2007 05 20  1220    54240   44400      0    1.90e+00    0    1.31e+00
2007 05 20  1225    54240   44700      0    1.86e+00    0    1.29e+00
2007 05 20  1230    54240   45000      0    1.84e+00    0    1.27e+00
2007 05 20  1235    54240   45300      0    1.85e+00    0    1.26e+00
2007 05 20  1240    54240   45600      0    1.83e+00    0    1.27e+00
2007 05 20  1245    54240   45900      0    1.86e+00    0    1.30e+00
2007 05 20  1250    54240   46200      0    1.89e+00    0    1.30e+00
2007 05 20  1255    54240   46500      0    1.80e+00    0    1.25e+00
2007 05 20  1300    54240   46800      0    1.86e+00    0    1.29e+00
2007 05 20  1305    54240   47100      0    1.83e+00    0    1.27e+00
2007 05 20  1310    54240   47400      0    1.84e+00    0    1.29e+00
2007 05 20  1315    54240   47700      0    1.86e+00    0    1.30e+00
2007 05 20  1320    54240   48000      0    1.83e+00    0    1.26e+00
2007 05 20  1325    54240   48300      0    1.85e+00    0    1.29e+00
2007 05 20  1330    54240   48600      0    1.80e+00    0    1.25e+00
2007 05 20  1335    54240   48900      0    1.85e+00    0    1.29e+00
2007 05 20  1340    54240   49200      0    1.87e+00    0    1.29e+00
2007 05 20  1345    54240   49500      0    1.89e+00    0    1.32e+00
2007 05 20  1350    54240   49800      0    1.84e+00    0    1.28e+00
2007 05 20  1355    54240   50100      0    1.87e+00    0    1.30e+00
2007 05 20  1400    54240   50400      0    1.87e+00    0    1.30e+00
2007 05 20  1405    54240   50700      0    1.87e+00    0    1.30e+00
2007 05 20  1410    54240   51000      0    1.84e+00    0    1.28e+00
2007 05 20  1415    54240   51300      0    1.83e+00    0    1.27e+00
2007 05 20  1420    54240   51600      0    1.85e+00    0    1.27e+00
2007 05 20  1425    54240   51900      0    1.85e+00    0    1.27e+00
2007 05 20  1430    54240   52200      0    1.86e+00    0    1.29e+00
2007 05 20  1435    54240   52500      0    1.85e+00    0    1.29e+00
2007 05 20  1440    54240   52800      0    1.83e+00    0    1.27e+00
2007 05 20  1445    54240   53100      0    1.89e+00    0    1.32e+00
2007 05 20  1450    54240   53400      0    1.88e+00    0    1.30e+00
2007 05 20  1455    54240   53700      0    1.86e+00    0    1.28e+00
2007 05 20  1500    54240   54000      0    1.93e+00    0    1.34e+00
2007 05 20  1505    54240   54300      0    1.87e+00    0    1.30e+00
2007 05 20  1510    54240   54600      0    1.86e+00    0    1.29e+00
2007 05 20  1515    54240   54900      0    1.86e+00    0    1.29e+00
2007 05 20  1520    54240   55200      0    1.86e+00    0    1.29e+00
2007 05 20  1525    54240   55500      0    1.88e+00    0    1.31e+00
2007 05 20  1530    54240   55800      0    1.85e+00    0    1.28e+00
2007 05 20  1535    54240   56100      0    1.88e+00    0    1.31e+00
2007 05 20  1540    54240   56400      0    1.86e+00    0    1.30e+00
2007 05 20  1545    54240   56700      0    1.87e+00    0    1.31e+00
2007 05 20  1550    54240   57000      0    1.85e+00    0    1.28e+00
2007 05 20  1555    54240   57300      0    1.88e+00    0    1.31e+00
2007 05 20  1600    54240   57600      0    1.88e+00    0    1.32e+00
2007 05 20  1605    54240   57900      0    1.86e+00    0    1.29e+00
2007 05 20  1610    54240   58200      0    1.88e+00    0    1.31e+00
2007 05 20  1615    54240   58500      0    1.87e+00    0    1.30e+00
2007 05 20  1620    54240   58800      0    1.91e+00    0    1.32e+00
2007 05 20  1625    54240   59100      0    1.84e+00    0    1.28e+00
2007 05 20  1630    54240   59400      0    1.87e+00    0    1.30e+00
2007 05 20  1635    54240   59700      0    1.85e+00    0    1.29e+00
2007 05 20  1640    54240   60000      0    1.86e+00    0    1.30e+00
2007 05 20  1645    54240   60300      0    1.88e+00    0    1.32e+00
2007 05 20  1650    54240   60600      0    1.87e+00    0    1.30e+00
2007 05 20  1655    54240   60900      0    2.42e+03    0    1.34e+00
2007 05 20  1700    54240   61200      0    1.84e+00    0    1.27e+00
2007 05 20  1705    54240   61500      0    1.90e+00    0    1.31e+00
2007 05 20  1710    54240   61800      0    1.88e+00    0    1.31e+00
2007 05 20  1715    54240   62100      0    1.89e+00    0    1.31e+00
2007 05 20  1720    54240   62400      0    1.88e+00    0    1.31e+00
2007 05 20  1725    54240   62700      0    1.84e+00    0    1.28e+00
2007 05 20  1730    54240   63000      0    1.86e+00    0    1.30e+00
2007 05 20  1735    54240   63300      0    1.85e+00    0    1.28e+00
2007 05 20  1740    54240   63600      0    1.88e+00    0    1.31e+00
2007 05 20  1745    54240   63900      0    1.85e+00    0    1.29e+00
2007 05 20  1750    54240   64200      0    1.89e+00    0    1.32e+00
2007 05 20  1755    54240   64500      0    1.85e+00    0    1.29e+00
2007 05 20  1800    54240   64800      0    1.91e+00    0    1.32e+00
2007 05 20  1805    54240   65100      0    1.84e+00    0    1.28e+00
2007 05 20  1810    54240   65400      0    1.82e+00    0    1.27e+00
2007 05 20  1815    54240   65700      0    1.83e+00    0    1.26e+00
2007 05 20  1820    54240   66000      0    1.80e+00    0    1.25e+00
2007 05 20  1825    54240   66300      0    1.85e+00    0    1.29e+00
2007 05 20  1830    54240   66600      0    1.83e+00    0    1.26e+00
2007 05 20  1835    54240   66900      0    1.83e+00    0    1.29e+00
2007 05 20  1840    54240   67200      0    1.81e+00    0    1.26e+00
2007 05 20  1845    54240   67500      0    1.83e+00    0    1.28e+00
2007 05 20  1850    54240   67800      0    1.81e+00    0    1.25e+00
2007 05 20  1855    54240   68100      0    1.87e+00    0    1.30e+00
2007 05 20  1900    54240   68400      0    1.85e+00    0    1.28e+00
2007 05 20  1905    54240   68700      0    1.81e+00    0    1.26e+00
2007 05 20  1910    54240   69000      0    1.85e+00    0    1.27e+00
2007 05 20  1915    54240   69300      0    1.87e+00    0    1.31e+00
2007 05 20  1920    54240   69600      0    1.89e+00    0    1.32e+00
2007 05 20  1925    54240   69900      0    1.87e+00    0    1.30e+00
2007 05 20  1930    54240   70200      0    1.84e+00    0    1.29e+00
2007 05 20  1935    54240   70500      0    1.81e+00    0    1.26e+00
2007 05 20  1940    54240   70800      0    1.84e+00    0    1.29e+00
2007 05 20  1945    54240   71100      0    1.83e+00    0    1.27e+00
2007 05 20  1950    54240   71400      0    1.86e+00    0    1.29e+00
2007 05 20  1955    54240   71700      0    1.85e+00    0    1.28e+00
2007 05 20  2000    54240   72000      0    1.82e+00    0    1.27e+00
2007 05 20  2005    54240   72300      0    1.82e+00    0    1.28e+00
2007 05 20  2010    54240   72600      0    1.85e+00    0    1.28e+00
2007 05 20  2015    54240   72900      0    1.87e+00    0    1.31e+00
2007 05 20  2020    54240   73200      0    1.76e+00    0    1.23e+00
2007 05 20  2025    54240   73500      0    1.81e+00    0    1.26e+00
2007 05 20  2030    54240   73800      0    1.82e+00    0    1.27e+00
2007 05 20  2035    54240   74100      0    1.84e+00    0    1.28e+00
2007 05 20  2040    54240   74400      0    1.89e+00    0    1.32e+00
2007 05 20  2045    54240   74700      0    1.85e+00    0    1.27e+00
2007 05 20  2050    54240   75000      0    1.85e+00    0    1.29e+00
2007 05 20  2055    54240   75300      0    1.86e+00    0    1.28e+00
2007 05 20  2100    54240   75600      0    1.88e+00    0    1.32e+00
2007 05 20  2105    54240   75900      0    1.89e+00    0    1.32e+00
2007 05 20  2110    54240   76200      0    1.81e+00    0    1.26e+00
2007 05 20  2115    54240   76500      0    1.82e+00    0    1.27e+00
2007 05 20  2120    54240   76800      0    1.85e+00    0    1.29e+00
2007 05 20  2125    54240   77100      0    1.86e+00    0    1.29e+00
2007 05 20  2130    54240   77400      0    1.83e+00    0    1.27e+00
2007 05 20  2135    54240   77700      0    1.84e+00    0    1.28e+00
2007 05 20  2140    54240   78000      0    1.81e+00    0    1.26e+00
2007 05 20  2145    54240   78300      0    1.82e+00    0    1.26e+00
2007 05 20  2150    54240   78600      0    1.84e+00    0    1.29e+00
2007 05 20  2155    54240   78900      0    1.85e+00    0    1.29e+00
2007 05 20  2200    54240   79200      0    1.83e+00    0    1.26e+00
2007 05 20  2205    54240   79500      0    1.88e+00    0    1.30e+00
2007 05 20  2210    54240   79800      0    1.88e+00    0    1.32e+00
2007 05 20  2215    54240   80100      0    1.86e+00    0    1.32e+00
2007 05 20  2220    54240   80400      0    1.86e+00    0    1.29e+00
2007 05 20  2225    54240   80700      0    1.84e+00    0    1.27e+00
2007 05 20  2230    54240   81000      0    1.84e+00    0    1.29e+00
2007 05 20  2235    54240   81300      0    1.82e+00    0    1.28e+00
2007 05 20  2240    54240   81600      0    1.85e+00    0    1.29e+00
2007 05 20  2245    54240   81900      0    1.87e+00    0    1.30e+00
2007 05 20  2250    54240   82200      0    1.84e+00    0    1.29e+00
2007 05 20  2255    54240   82500      0    1.82e+00    0    1.28e+00
2007 05 20  2300    54240   82800      0    1.88e+00    0    1.31e+00
2007 05 20  2305    54240   83100      0    1.85e+00    0    1.30e+00
2007 05 20  2310    54240   83400      0    1.84e+00    0    1.29e+00
2007 05 20  2315    54240   83700      0    1.86e+00    0    1.29e+00
2007 05 20  2320    54240   84000      0    1.85e+00    0    1.30e+00
2007 05 20  2325    54240   84300      0    1.82e+00    0    1.28e+00
2007 05 20  2330    54240   84600      0    1.82e+00    0    1.26e+00
2007 05 20  2335    54240   84900      0    1.88e+00    0    1.31e+00
2007 05 20  2340    54240   85200      0    1.87e+00    0    1.31e+00
2007 05 20  2345    54240   85500      0    1.86e+00    0    1.30e+00
2007 05 20  2350    54240   85800      0    1.86e+00    0    1.30e+00
2007 05 20  2355    54240   86100      0    1.81e+00    0    1.26e+00
