:Data_list: 20070902_ace_sis_5m.txt
:Created: 2007 Sep 03 0011 UT
# Prepared by the U.S. Dept. of Commerce, NOAA, Space Environment Center.
# Please send comments and suggestions to SEC.Webmaster@noaa.gov 
# 
# Units: proton flux p/cs2-sec-ster
# Status(S): 0 = nominal data, 1 to 8 = bad data record, 9 = no data
# Missing data values: -1.00e+05
# Source: ACE Satellite - Solar Isotope Spectrometer
#
# 5-minute averaged Real-time Integral Flux of High-energy Solar Protons
# 
#                 Modified Seconds
# UT Date   Time   Julian  of the      ---- Integral Proton Flux ----
# YR MO DA  HHMM     Day     Day       S    > 10 MeV    S    > 30 MeV
#--------------------------------------------------------------------
2007 09 02  0000    54345       0      0    1.90e+00    0    1.33e+00
2007 09 02  0005    54345     300      0    1.86e+00    0    1.30e+00
2007 09 02  0010    54345     600      0    1.94e+00    0    1.35e+00
2007 09 02  0015    54345     900      0    1.86e+00    0    1.30e+00
2007 09 02  0020    54345    1200      0    1.92e+00    0    1.36e+00
2007 09 02  0025    54345    1500      0    1.88e+00    0    1.31e+00
2007 09 02  0030    54345    1800      0    1.88e+00    0    1.32e+00
2007 09 02  0035    54345    2100      0    1.89e+00    0    1.33e+00
2007 09 02  0040    54345    2400      0    1.88e+00    0    1.32e+00
2007 09 02  0045    54345    2700      0    1.86e+00    0    1.31e+00
2007 09 02  0050    54345    3000      0    1.88e+00    0    1.32e+00
2007 09 02  0055    54345    3300      0    1.92e+00    0    1.35e+00
2007 09 02  0100    54345    3600      0    1.90e+00    0    1.33e+00
2007 09 02  0105    54345    3900      0    1.92e+00    0    1.35e+00
2007 09 02  0110    54345    4200      0    1.85e+00    0    1.28e+00
2007 09 02  0115    54345    4500      0    1.89e+00    0    1.32e+00
2007 09 02  0120    54345    4800      0    1.86e+00    0    1.31e+00
2007 09 02  0125    54345    5100      0    1.90e+00    0    1.34e+00
2007 09 02  0130    54345    5400      0    1.86e+00    0    1.29e+00
2007 09 02  0135    54345    5700      0    1.86e+00    0    1.31e+00
2007 09 02  0140    54345    6000      0    1.86e+00    0    1.30e+00
2007 09 02  0145    54345    6300      0    1.85e+00    0    1.30e+00
2007 09 02  0150    54345    6600      0    1.85e+00    0    1.29e+00
2007 09 02  0155    54345    6900      0    1.87e+00    0    1.29e+00
2007 09 02  0200    54345    7200      0    1.89e+00    0    1.33e+00
2007 09 02  0205    54345    7500      0    1.88e+00    0    1.32e+00
2007 09 02  0210    54345    7800      0    1.88e+00    0    1.31e+00
2007 09 02  0215    54345    8100      0    1.88e+00    0    1.32e+00
2007 09 02  0220    54345    8400      0    1.92e+00    0    1.35e+00
2007 09 02  0225    54345    8700      0    1.96e+00    0    1.37e+00
2007 09 02  0230    54345    9000      0    1.90e+00    0    1.33e+00
2007 09 02  0235    54345    9300      0    1.89e+00    0    1.33e+00
2007 09 02  0240    54345    9600      0    1.92e+00    0    1.35e+00
2007 09 02  0245    54345    9900      0    1.89e+00    0    1.33e+00
2007 09 02  0250    54345   10200      0    1.91e+00    0    1.35e+00
2007 09 02  0255    54345   10500      0    1.89e+00    0    1.32e+00
2007 09 02  0300    54345   10800      0    1.86e+00    0    1.29e+00
2007 09 02  0305    54345   11100      0    1.88e+00    0    1.32e+00
2007 09 02  0310    54345   11400      0    1.94e+00    0    1.35e+00
2007 09 02  0315    54345   11700      0    1.87e+00    0    1.30e+00
2007 09 02  0320    54345   12000      0    1.88e+00    0    1.32e+00
2007 09 02  0325    54345   12300      0    1.85e+00    0    1.29e+00
2007 09 02  0330    54345   12600      0    1.87e+00    0    1.31e+00
2007 09 02  0335    54345   12900      0    1.87e+00    0    1.30e+00
2007 09 02  0340    54345   13200      0    1.91e+00    0    1.34e+00
2007 09 02  0345    54345   13500      0    1.86e+00    0    1.31e+00
2007 09 02  0350    54345   13800      0    1.92e+00    0    1.34e+00
2007 09 02  0355    54345   14100      0    1.90e+00    0    1.33e+00
2007 09 02  0400    54345   14400      0    1.87e+00    0    1.31e+00
2007 09 02  0405    54345   14700      0    1.86e+00    0    1.30e+00
2007 09 02  0410    54345   15000      0    1.90e+00    0    1.33e+00
2007 09 02  0415    54345   15300      0    1.87e+00    0    1.32e+00
2007 09 02  0420    54345   15600      0    1.90e+00    0    1.34e+00
2007 09 02  0425    54345   15900      0    1.87e+00    0    1.31e+00
2007 09 02  0430    54345   16200      0    1.89e+00    0    1.31e+00
2007 09 02  0435    54345   16500      0    1.93e+00    0    1.36e+00
2007 09 02  0440    54345   16800      0    1.89e+00    0    1.33e+00
2007 09 02  0445    54345   17100      0    1.91e+00    0    1.35e+00
2007 09 02  0450    54345   17400      0    1.86e+00    0    1.30e+00
2007 09 02  0455    54345   17700      0    1.90e+00    0    1.34e+00
2007 09 02  0500    54345   18000      0    1.84e+00    0    1.28e+00
2007 09 02  0505    54345   18300      0    1.83e+00    0    1.28e+00
2007 09 02  0510    54345   18600      0    1.87e+00    0    1.31e+00
2007 09 02  0515    54345   18900      0    1.87e+00    0    1.30e+00
2007 09 02  0520    54345   19200      0    1.94e+00    0    1.35e+00
2007 09 02  0525    54345   19500      0    1.88e+00    0    1.30e+00
2007 09 02  0530    54345   19800      0    1.90e+00    0    1.33e+00
2007 09 02  0535    54345   20100      0    1.92e+00    0    1.34e+00
2007 09 02  0540    54345   20400      0    1.85e+00    0    1.29e+00
2007 09 02  0545    54345   20700      0    1.87e+00    0    1.31e+00
2007 09 02  0550    54345   21000      0    1.85e+00    0    1.28e+00
2007 09 02  0555    54345   21300      0    1.89e+00    0    1.34e+00
2007 09 02  0600    54345   21600      0    1.88e+00    0    1.31e+00
2007 09 02  0605    54345   21900      0    1.85e+00    0    1.29e+00
2007 09 02  0610    54345   22200      0    1.86e+00    0    1.31e+00
2007 09 02  0615    54345   22500      0    1.89e+00    0    1.32e+00
2007 09 02  0620    54345   22800      0    1.90e+00    0    1.34e+00
2007 09 02  0625    54345   23100      0    1.88e+00    0    1.32e+00
2007 09 02  0630    54345   23400      0    1.89e+00    0    1.32e+00
2007 09 02  0635    54345   23700      0    1.90e+00    0    1.34e+00
2007 09 02  0640    54345   24000      0    1.89e+00    0    1.32e+00
2007 09 02  0645    54345   24300      0    1.88e+00    0    1.32e+00
2007 09 02  0650    54345   24600      0    1.87e+00    0    1.30e+00
2007 09 02  0655    54345   24900      0    1.92e+00    0    1.33e+00
2007 09 02  0700    54345   25200      0    1.84e+00    0    1.28e+00
2007 09 02  0705    54345   25500      0    1.87e+00    0    1.32e+00
2007 09 02  0710    54345   25800      0    1.87e+00    0    1.32e+00
2007 09 02  0715    54345   26100      0    1.84e+00    0    1.30e+00
2007 09 02  0720    54345   26400      0    1.88e+00    0    1.31e+00
2007 09 02  0725    54345   26700      0    1.87e+00    0    1.30e+00
2007 09 02  0730    54345   27000      0    1.85e+00    0    1.29e+00
2007 09 02  0735    54345   27300      0    1.89e+00    0    1.33e+00
2007 09 02  0740    54345   27600      0    1.88e+00    0    1.32e+00
2007 09 02  0745    54345   27900      0    1.84e+00    0    1.28e+00
2007 09 02  0750    54345   28200      0    1.89e+00    0    1.33e+00
2007 09 02  0755    54345   28500      0    1.86e+00    0    1.30e+00
2007 09 02  0800    54345   28800      0    1.87e+00    0    1.32e+00
2007 09 02  0805    54345   29100      0    1.86e+00    0    1.28e+00
2007 09 02  0810    54345   29400      0    1.83e+00    0    1.28e+00
2007 09 02  0815    54345   29700      0    1.90e+00    0    1.32e+00
2007 09 02  0820    54345   30000      0    1.90e+00    0    1.33e+00
2007 09 02  0825    54345   30300      0    1.93e+00    0    1.36e+00
2007 09 02  0830    54345   30600      0    1.83e+00    0    1.26e+00
2007 09 02  0835    54345   30900      0    1.88e+00    0    1.30e+00
2007 09 02  0840    54345   31200      0    1.84e+00    0    1.29e+00
2007 09 02  0845    54345   31500      0    1.88e+00    0    1.31e+00
2007 09 02  0850    54345   31800      0    1.90e+00    0    1.34e+00
2007 09 02  0855    54345   32100      0    1.86e+00    0    1.30e+00
2007 09 02  0900    54345   32400      0    1.90e+00    0    1.34e+00
2007 09 02  0905    54345   32700      0    1.83e+00    0    1.28e+00
2007 09 02  0910    54345   33000      0    1.95e+00    0    1.36e+00
2007 09 02  0915    54345   33300      0    1.85e+00    0    1.27e+00
2007 09 02  0920    54345   33600      0    1.84e+00    0    1.28e+00
2007 09 02  0925    54345   33900      0    1.90e+00    0    1.32e+00
2007 09 02  0930    54345   34200      0    1.85e+00    0    1.29e+00
2007 09 02  0935    54345   34500      0    1.86e+00    0    1.30e+00
2007 09 02  0940    54345   34800      0    1.88e+00    0    1.30e+00
2007 09 02  0945    54345   35100      0    1.88e+00    0    1.31e+00
2007 09 02  0950    54345   35400      0    1.88e+00    0    1.33e+00
2007 09 02  0955    54345   35700      0    1.87e+00    0    1.32e+00
2007 09 02  1000    54345   36000      0    1.86e+00    0    1.30e+00
2007 09 02  1005    54345   36300      0    1.86e+00    0    1.31e+00
2007 09 02  1010    54345   36600      0    1.89e+00    0    1.31e+00
2007 09 02  1015    54345   36900      0    1.89e+00    0    1.32e+00
2007 09 02  1020    54345   37200      0    1.85e+00    0    1.29e+00
2007 09 02  1025    54345   37500      0    1.88e+00    0    1.31e+00
2007 09 02  1030    54345   37800      0    1.89e+00    0    1.33e+00
2007 09 02  1035    54345   38100      0    1.87e+00    0    1.32e+00
2007 09 02  1040    54345   38400      0    1.90e+00    0    1.34e+00
2007 09 02  1045    54345   38700      0    1.89e+00    0    1.32e+00
2007 09 02  1050    54345   39000      0    1.85e+00    0    1.29e+00
2007 09 02  1055    54345   39300      0    1.87e+00    0    1.29e+00
2007 09 02  1100    54345   39600      0    1.86e+00    0    1.29e+00
2007 09 02  1105    54345   39900      0    1.88e+00    0    1.31e+00
2007 09 02  1110    54345   40200      0    1.92e+00    0    1.35e+00
2007 09 02  1115    54345   40500      0    1.89e+00    0    1.33e+00
2007 09 02  1120    54345   40800      0    1.90e+00    0    1.34e+00
2007 09 02  1125    54345   41100      0    1.87e+00    0    1.31e+00
2007 09 02  1130    54345   41400      0    1.88e+00    0    1.32e+00
2007 09 02  1135    54345   41700      0    1.87e+00    0    1.31e+00
2007 09 02  1140    54345   42000      0    1.88e+00    0    1.31e+00
2007 09 02  1145    54345   42300      0    1.82e+00    0    1.25e+00
2007 09 02  1150    54345   42600      0    1.87e+00    0    1.32e+00
2007 09 02  1155    54345   42900      0    1.86e+00    0    1.31e+00
2007 09 02  1200    54345   43200      0    1.90e+00    0    1.31e+00
2007 09 02  1205    54345   43500      0    1.88e+00    0    1.31e+00
2007 09 02  1210    54345   43800      0    1.87e+00    0    1.31e+00
2007 09 02  1215    54345   44100      0    1.89e+00    0    1.33e+00
2007 09 02  1220    54345   44400      0    1.89e+00    0    1.33e+00
2007 09 02  1225    54345   44700      0    1.89e+00    0    1.33e+00
2007 09 02  1230    54345   45000      0    1.91e+00    0    1.34e+00
2007 09 02  1235    54345   45300      0    1.86e+00    0    1.30e+00
2007 09 02  1240    54345   45600      0    1.87e+00    0    1.31e+00
2007 09 02  1245    54345   45900      0    1.84e+00    0    1.29e+00
2007 09 02  1250    54345   46200      0    1.89e+00    0    1.32e+00
2007 09 02  1255    54345   46500      0    1.86e+00    0    1.31e+00
2007 09 02  1300    54345   46800      0    1.89e+00    0    1.32e+00
2007 09 02  1305    54345   47100      0    1.89e+00    0    1.33e+00
2007 09 02  1310    54345   47400      0    1.87e+00    0    1.31e+00
2007 09 02  1315    54345   47700      0    1.91e+00    0    1.33e+00
2007 09 02  1320    54345   48000      0    1.89e+00    0    1.32e+00
2007 09 02  1325    54345   48300      0    1.89e+00    0    1.31e+00
2007 09 02  1330    54345   48600      0    1.88e+00    0    1.32e+00
2007 09 02  1335    54345   48900      0    1.89e+00    0    1.32e+00
2007 09 02  1340    54345   49200      0    1.85e+00    0    1.29e+00
2007 09 02  1345    54345   49500      0    1.83e+00    0    1.29e+00
2007 09 02  1350    54345   49800      0    1.85e+00    0    1.29e+00
2007 09 02  1355    54345   50100      0    1.89e+00    0    1.32e+00
2007 09 02  1400    54345   50400      0    1.86e+00    0    1.30e+00
2007 09 02  1405    54345   50700      0    1.91e+00    0    1.35e+00
2007 09 02  1410    54345   51000      0    1.88e+00    0    1.32e+00
2007 09 02  1415    54345   51300      0    1.88e+00    0    1.31e+00
2007 09 02  1420    54345   51600      0    1.86e+00    0    1.31e+00
2007 09 02  1425    54345   51900      0    1.87e+00    0    1.32e+00
2007 09 02  1430    54345   52200      0    1.84e+00    0    1.30e+00
2007 09 02  1435    54345   52500      0    1.89e+00    0    1.32e+00
2007 09 02  1440    54345   52800      0    1.89e+00    0    1.33e+00
2007 09 02  1445    54345   53100      0    1.88e+00    0    1.30e+00
2007 09 02  1450    54345   53400      0    1.84e+00    0    1.30e+00
2007 09 02  1455    54345   53700      0    1.89e+00    0    1.33e+00
2007 09 02  1500    54345   54000      0    1.85e+00    0    1.29e+00
2007 09 02  1505    54345   54300      0    1.83e+00    0    1.28e+00
2007 09 02  1510    54345   54600      0    1.80e+00    0    1.26e+00
2007 09 02  1515    54345   54900      0    1.87e+00    0    1.29e+00
2007 09 02  1520    54345   55200      0    1.89e+00    0    1.32e+00
2007 09 02  1525    54345   55500      0    1.89e+00    0    1.32e+00
2007 09 02  1530    54345   55800      0    1.81e+00    0    1.26e+00
2007 09 02  1535    54345   56100      0    1.88e+00    0    1.33e+00
2007 09 02  1540    54345   56400      0    1.86e+00    0    1.30e+00
2007 09 02  1545    54345   56700      0    1.90e+00    0    1.34e+00
2007 09 02  1550    54345   57000      0    1.90e+00    0    1.33e+00
2007 09 02  1555    54345   57300      0    1.88e+00    0    1.32e+00
2007 09 02  1600    54345   57600      0    1.89e+00    0    1.32e+00
2007 09 02  1605    54345   57900      0    1.92e+00    0    1.35e+00
2007 09 02  1610    54345   58200      0    1.90e+00    0    1.32e+00
2007 09 02  1615    54345   58500      0    1.88e+00    0    1.33e+00
2007 09 02  1620    54345   58800      0    1.88e+00    0    1.32e+00
2007 09 02  1625    54345   59100      0    1.89e+00    0    1.31e+00
2007 09 02  1630    54345   59400      0    1.85e+00    0    1.30e+00
2007 09 02  1635    54345   59700      0    1.84e+00    0    1.30e+00
2007 09 02  1640    54345   60000      0    1.91e+00    0    1.36e+00
2007 09 02  1645    54345   60300      0    1.87e+00    0    1.30e+00
2007 09 02  1650    54345   60600      0    1.89e+00    0    1.34e+00
2007 09 02  1655    54345   60900      0    1.87e+00    0    1.31e+00
2007 09 02  1700    54345   61200      0    1.85e+00    0    1.30e+00
2007 09 02  1705    54345   61500      0    1.87e+00    0    1.30e+00
2007 09 02  1710    54345   61800      0    1.90e+00    0    1.33e+00
2007 09 02  1715    54345   62100      0    1.87e+00    0    1.31e+00
2007 09 02  1720    54345   62400      0    1.87e+00    0    1.30e+00
2007 09 02  1725    54345   62700      0    1.88e+00    0    1.32e+00
2007 09 02  1730    54345   63000      0    1.90e+00    0    1.34e+00
2007 09 02  1735    54345   63300      0    1.91e+00    0    1.33e+00
2007 09 02  1740    54345   63600      0    1.87e+00    0    1.32e+00
2007 09 02  1745    54345   63900      0    1.89e+00    0    1.32e+00
2007 09 02  1750    54345   64200      0    1.87e+00    0    1.31e+00
2007 09 02  1755    54345   64500      0    1.86e+00    0    1.30e+00
2007 09 02  1800    54345   64800      0    1.88e+00    0    1.32e+00
2007 09 02  1805    54345   65100      0    1.90e+00    0    1.33e+00
2007 09 02  1810    54345   65400      0    1.89e+00    0    1.31e+00
2007 09 02  1815    54345   65700      0    1.88e+00    0    1.31e+00
2007 09 02  1820    54345   66000      0    1.88e+00    0    1.31e+00
2007 09 02  1825    54345   66300      0    1.86e+00    0    1.31e+00
2007 09 02  1830    54345   66600      0    1.87e+00    0    1.30e+00
2007 09 02  1835    54345   66900      0    1.88e+00    0    1.32e+00
2007 09 02  1840    54345   67200      0    1.86e+00    0    1.30e+00
2007 09 02  1845    54345   67500      0    1.82e+00    0    1.27e+00
2007 09 02  1850    54345   67800      0    1.94e+00    0    1.36e+00
2007 09 02  1855    54345   68100      0    1.87e+00    0    1.31e+00
2007 09 02  1900    54345   68400      0    1.89e+00    0    1.33e+00
2007 09 02  1905    54345   68700      0    1.77e+00    0    1.23e+00
2007 09 02  1910    54345   69000      0    1.86e+00    0    1.30e+00
2007 09 02  1915    54345   69300      0    1.92e+00    0    1.37e+00
2007 09 02  1920    54345   69600      0    1.88e+00    0    1.33e+00
2007 09 02  1925    54345   69900      0    1.90e+00    0    1.32e+00
2007 09 02  1930    54345   70200      0    1.85e+00    0    1.28e+00
2007 09 02  1935    54345   70500      0    1.86e+00    0    1.31e+00
2007 09 02  1940    54345   70800      0    1.87e+00    0    1.32e+00
2007 09 02  1945    54345   71100      0    1.87e+00    0    1.30e+00
2007 09 02  1950    54345   71400      0    1.86e+00    0    1.30e+00
2007 09 02  1955    54345   71700      0    1.88e+00    0    1.32e+00
2007 09 02  2000    54345   72000      0    1.87e+00    0    1.31e+00
2007 09 02  2005    54345   72300      0    1.86e+00    0    1.31e+00
2007 09 02  2010    54345   72600      0    1.88e+00    0    1.31e+00
2007 09 02  2015    54345   72900      0    1.94e+00    0    1.37e+00
2007 09 02  2020    54345   73200      0    1.87e+00    0    1.31e+00
2007 09 02  2025    54345   73500      0    1.88e+00    0    1.34e+00
2007 09 02  2030    54345   73800      0    1.89e+00    0    1.32e+00
2007 09 02  2035    54345   74100      0    1.90e+00    0    1.32e+00
2007 09 02  2040    54345   74400      0    1.86e+00    0    1.30e+00
2007 09 02  2045    54345   74700      0    1.87e+00    0    1.31e+00
2007 09 02  2050    54345   75000      0    1.87e+00    0    1.30e+00
2007 09 02  2055    54345   75300      0    1.88e+00    0    1.33e+00
2007 09 02  2100    54345   75600      0    1.88e+00    0    1.32e+00
2007 09 02  2105    54345   75900      0    1.86e+00    0    1.31e+00
2007 09 02  2110    54345   76200      0    1.84e+00    0    1.28e+00
2007 09 02  2115    54345   76500      0    1.90e+00    0    1.34e+00
2007 09 02  2120    54345   76800      0    1.92e+00    0    1.35e+00
2007 09 02  2125    54345   77100      0    1.88e+00    0    1.31e+00
2007 09 02  2130    54345   77400      0    1.93e+00    0    1.33e+00
2007 09 02  2135    54345   77700      0    1.91e+00    0    1.35e+00
2007 09 02  2140    54345   78000      0    1.89e+00    0    1.32e+00
2007 09 02  2145    54345   78300      0    1.89e+00    0    1.32e+00
2007 09 02  2150    54345   78600      0    1.87e+00    0    1.31e+00
2007 09 02  2155    54345   78900      0    1.86e+00    0    1.29e+00
2007 09 02  2200    54345   79200      0    1.89e+00    0    1.32e+00
2007 09 02  2205    54345   79500      0    1.92e+00    0    1.35e+00
2007 09 02  2210    54345   79800      0    1.90e+00    0    1.34e+00
2007 09 02  2215    54345   80100      0    1.90e+00    0    1.33e+00
2007 09 02  2220    54345   80400      0    1.93e+00    0    1.34e+00
2007 09 02  2225    54345   80700      0    1.85e+00    0    1.28e+00
2007 09 02  2230    54345   81000      0    1.92e+00    0    1.34e+00
2007 09 02  2235    54345   81300      0    1.86e+00    0    1.30e+00
2007 09 02  2240    54345   81600      0    1.89e+00    0    1.32e+00
2007 09 02  2245    54345   81900      0    1.87e+00    0    1.31e+00
2007 09 02  2250    54345   82200      0    1.87e+00    0    1.30e+00
2007 09 02  2255    54345   82500      0    1.89e+00    0    1.33e+00
2007 09 02  2300    54345   82800      0    1.88e+00    0    1.33e+00
2007 09 02  2305    54345   83100      0    1.89e+00    0    1.32e+00
2007 09 02  2310    54345   83400      0    1.89e+00    0    1.33e+00
2007 09 02  2315    54345   83700      0    1.86e+00    0    1.31e+00
2007 09 02  2320    54345   84000      0    1.88e+00    0    1.31e+00
2007 09 02  2325    54345   84300      0    1.86e+00    0    1.30e+00
2007 09 02  2330    54345   84600      0    1.93e+00    0    1.35e+00
2007 09 02  2335    54345   84900      0    1.84e+00    0    1.29e+00
2007 09 02  2340    54345   85200      0    1.89e+00    0    1.33e+00
2007 09 02  2345    54345   85500      0    1.88e+00    0    1.32e+00
2007 09 02  2350    54345   85800      0    1.90e+00    0    1.31e+00
2007 09 02  2355    54345   86100      0    1.91e+00    0    1.34e+00
