:Data_list: 20070927_ace_sis_5m.txt
:Created: 2007 Sep 28 0011 UT
# Prepared by the U.S. Dept. of Commerce, NOAA, Space Environment Center.
# Please send comments and suggestions to SEC.Webmaster@noaa.gov 
# 
# Units: proton flux p/cs2-sec-ster
# Status(S): 0 = nominal data, 1 to 8 = bad data record, 9 = no data
# Missing data values: -1.00e+05
# Source: ACE Satellite - Solar Isotope Spectrometer
#
# 5-minute averaged Real-time Integral Flux of High-energy Solar Protons
# 
#                 Modified Seconds
# UT Date   Time   Julian  of the      ---- Integral Proton Flux ----
# YR MO DA  HHMM     Day     Day       S    > 10 MeV    S    > 30 MeV
#--------------------------------------------------------------------
2007 09 27  0000    54370       0      0    1.91e+00    0    1.34e+00
2007 09 27  0005    54370     300      0    1.89e+00    0    1.32e+00
2007 09 27  0010    54370     600      0    1.90e+00    0    1.35e+00
2007 09 27  0015    54370     900      0    1.93e+00    0    1.37e+00
2007 09 27  0020    54370    1200      0    1.90e+00    0    1.34e+00
2007 09 27  0025    54370    1500      0    1.86e+00    0    1.31e+00
2007 09 27  0030    54370    1800      0    1.89e+00    0    1.31e+00
2007 09 27  0035    54370    2100      0    1.91e+00    0    1.34e+00
2007 09 27  0040    54370    2400      0    1.98e+00    0    1.40e+00
2007 09 27  0045    54370    2700      0    1.92e+00    0    1.35e+00
2007 09 27  0050    54370    3000      0    1.90e+00    0    1.32e+00
2007 09 27  0055    54370    3300      0    1.89e+00    0    1.32e+00
2007 09 27  0100    54370    3600      0    1.89e+00    0    1.34e+00
2007 09 27  0105    54370    3900      0    1.92e+00    0    1.36e+00
2007 09 27  0110    54370    4200      0    1.93e+00    0    1.35e+00
2007 09 27  0115    54370    4500      0    1.92e+00    0    1.35e+00
2007 09 27  0120    54370    4800      0    1.94e+00    0    1.36e+00
2007 09 27  0125    54370    5100      0    1.92e+00    0    1.35e+00
2007 09 27  0130    54370    5400      0    1.96e+00    0    1.38e+00
2007 09 27  0135    54370    5700      0    1.90e+00    0    1.31e+00
2007 09 27  0140    54370    6000      0    1.94e+00    0    1.35e+00
2007 09 27  0145    54370    6300      0    1.91e+00    0    1.32e+00
2007 09 27  0150    54370    6600      0    1.92e+00    0    1.34e+00
2007 09 27  0155    54370    6900      0    1.91e+00    0    1.32e+00
2007 09 27  0200    54370    7200      0    1.92e+00    0    1.34e+00
2007 09 27  0205    54370    7500      0    1.91e+00    0    1.33e+00
2007 09 27  0210    54370    7800      0    1.94e+00    0    1.37e+00
2007 09 27  0215    54370    8100      0    1.95e+00    0    1.36e+00
2007 09 27  0220    54370    8400      0    1.90e+00    0    1.34e+00
2007 09 27  0225    54370    8700      0    1.90e+00    0    1.32e+00
2007 09 27  0230    54370    9000      0    1.90e+00    0    1.32e+00
2007 09 27  0235    54370    9300      0    1.92e+00    0    1.36e+00
2007 09 27  0240    54370    9600      0    1.94e+00    0    1.36e+00
2007 09 27  0245    54370    9900      0    1.92e+00    0    1.36e+00
2007 09 27  0250    54370   10200      0    1.90e+00    0    1.34e+00
2007 09 27  0255    54370   10500      0    1.91e+00    0    1.34e+00
2007 09 27  0300    54370   10800      0    1.92e+00    0    1.34e+00
2007 09 27  0305    54370   11100      0    1.91e+00    0    1.33e+00
2007 09 27  0310    54370   11400      0    1.95e+00    0    1.34e+00
2007 09 27  0315    54370   11700      0    1.90e+00    0    1.33e+00
2007 09 27  0320    54370   12000      0    1.93e+00    0    1.35e+00
2007 09 27  0325    54370   12300      0    1.92e+00    0    1.35e+00
2007 09 27  0330    54370   12600      0    1.90e+00    0    1.32e+00
2007 09 27  0335    54370   12900      0    1.93e+00    0    1.33e+00
2007 09 27  0340    54370   13200      0    1.91e+00    0    1.34e+00
2007 09 27  0345    54370   13500      0    1.93e+00    0    1.35e+00
2007 09 27  0350    54370   13800      0    1.95e+00    0    1.36e+00
2007 09 27  0355    54370   14100      0    1.93e+00    0    1.36e+00
2007 09 27  0400    54370   14400      0    1.94e+00    0    1.36e+00
2007 09 27  0405    54370   14700      0    1.92e+00    0    1.35e+00
2007 09 27  0410    54370   15000      0    1.92e+00    0    1.34e+00
2007 09 27  0415    54370   15300      0    1.88e+00    0    1.30e+00
2007 09 27  0420    54370   15600      0    1.96e+00    0    1.40e+00
2007 09 27  0425    54370   15900      0    1.94e+00    0    1.36e+00
2007 09 27  0430    54370   16200      0    1.91e+00    0    1.34e+00
2007 09 27  0435    54370   16500      0    1.90e+00    0    1.35e+00
2007 09 27  0440    54370   16800      0    1.92e+00    0    1.33e+00
2007 09 27  0445    54370   17100      0    1.92e+00    0    1.35e+00
2007 09 27  0450    54370   17400      0    1.93e+00    0    1.35e+00
2007 09 27  0455    54370   17700      0    1.95e+00    0    1.37e+00
2007 09 27  0500    54370   18000      0    1.95e+00    0    1.37e+00
2007 09 27  0505    54370   18300      0    1.91e+00    0    1.32e+00
2007 09 27  0510    54370   18600      0    1.91e+00    0    1.34e+00
2007 09 27  0515    54370   18900      0    1.94e+00    0    1.36e+00
2007 09 27  0520    54370   19200      0    1.93e+00    0    1.34e+00
2007 09 27  0525    54370   19500      0    1.92e+00    0    1.34e+00
2007 09 27  0530    54370   19800      0    1.93e+00    0    1.36e+00
2007 09 27  0535    54370   20100      0    1.92e+00    0    1.35e+00
2007 09 27  0540    54370   20400      0    1.94e+00    0    1.36e+00
2007 09 27  0545    54370   20700      0    1.92e+00    0    1.36e+00
2007 09 27  0550    54370   21000      0    1.91e+00    0    1.34e+00
2007 09 27  0555    54370   21300      0    1.93e+00    0    1.36e+00
2007 09 27  0600    54370   21600      0    1.90e+00    0    1.33e+00
2007 09 27  0605    54370   21900      0    1.94e+00    0    1.36e+00
2007 09 27  0610    54370   22200      0    1.96e+00    0    1.38e+00
2007 09 27  0615    54370   22500      0    1.94e+00    0    1.36e+00
2007 09 27  0620    54370   22800      0    1.88e+00    0    1.31e+00
2007 09 27  0625    54370   23100      0    1.95e+00    0    1.37e+00
2007 09 27  0630    54370   23400      0    1.89e+00    0    1.33e+00
2007 09 27  0635    54370   23700      0    1.84e+00    0    1.27e+00
2007 09 27  0640    54370   24000      0    1.94e+00    0    1.34e+00
2007 09 27  0645    54370   24300      0    1.88e+00    0    1.31e+00
2007 09 27  0650    54370   24600      0    1.90e+00    0    1.33e+00
2007 09 27  0655    54370   24900      0    1.99e+00    0    1.38e+00
2007 09 27  0700    54370   25200      0    1.94e+00    0    1.35e+00
2007 09 27  0705    54370   25500      0    1.91e+00    0    1.33e+00
2007 09 27  0710    54370   25800      0    1.91e+00    0    1.33e+00
2007 09 27  0715    54370   26100      0    1.95e+00    0    1.37e+00
2007 09 27  0720    54370   26400      0    1.95e+00    0    1.36e+00
2007 09 27  0725    54370   26700      0    1.95e+00    0    1.36e+00
2007 09 27  0730    54370   27000      0    1.94e+00    0    1.36e+00
2007 09 27  0735    54370   27300      0    1.96e+00    0    1.37e+00
2007 09 27  0740    54370   27600      0    1.90e+00    0    1.32e+00
2007 09 27  0745    54370   27900      0    1.96e+00    0    1.35e+00
2007 09 27  0750    54370   28200      0    1.88e+00    0    1.32e+00
2007 09 27  0755    54370   28500      0    1.94e+00    0    1.37e+00
2007 09 27  0800    54370   28800      0    1.97e+00    0    1.38e+00
2007 09 27  0805    54370   29100      0    1.92e+00    0    1.35e+00
2007 09 27  0810    54370   29400      0    1.96e+00    0    1.37e+00
2007 09 27  0815    54370   29700      0    1.96e+00    0    1.37e+00
2007 09 27  0820    54370   30000      0    1.90e+00    0    1.32e+00
2007 09 27  0825    54370   30300      0    1.92e+00    0    1.36e+00
2007 09 27  0830    54370   30600      0    1.92e+00    0    1.35e+00
2007 09 27  0835    54370   30900      0    1.94e+00    0    1.35e+00
2007 09 27  0840    54370   31200      0    1.90e+00    0    1.31e+00
2007 09 27  0845    54370   31500      0    1.94e+00    0    1.34e+00
2007 09 27  0850    54370   31800      0    1.91e+00    0    1.34e+00
2007 09 27  0855    54370   32100      0    1.96e+00    0    1.38e+00
2007 09 27  0900    54370   32400      0    1.91e+00    0    1.34e+00
2007 09 27  0905    54370   32700      0    1.97e+00    0    1.39e+00
2007 09 27  0910    54370   33000      0    1.94e+00    0    1.35e+00
2007 09 27  0915    54370   33300      0    1.90e+00    0    1.33e+00
2007 09 27  0920    54370   33600      0    1.91e+00    0    1.34e+00
2007 09 27  0925    54370   33900      0    1.92e+00    0    1.35e+00
2007 09 27  0930    54370   34200      0    1.97e+00    0    1.37e+00
2007 09 27  0935    54370   34500      0    1.97e+00    0    1.38e+00
2007 09 27  0940    54370   34800      0    1.95e+00    0    1.35e+00
2007 09 27  0945    54370   35100      0    1.91e+00    0    1.34e+00
2007 09 27  0950    54370   35400      0    1.96e+00    0    1.36e+00
2007 09 27  0955    54370   35700      0    1.94e+00    0    1.36e+00
2007 09 27  1000    54370   36000      0    1.94e+00    0    1.37e+00
2007 09 27  1005    54370   36300      0    1.93e+00    0    1.35e+00
2007 09 27  1010    54370   36600      0    1.92e+00    0    1.35e+00
2007 09 27  1015    54370   36900      0    1.95e+00    0    1.38e+00
2007 09 27  1020    54370   37200      0    1.91e+00    0    1.33e+00
2007 09 27  1025    54370   37500      0    1.95e+00    0    1.36e+00
2007 09 27  1030    54370   37800      0    1.91e+00    0    1.35e+00
2007 09 27  1035    54370   38100      0    1.92e+00    0    1.34e+00
2007 09 27  1040    54370   38400      0    1.96e+00    0    1.39e+00
2007 09 27  1045    54370   38700      0    1.86e+00    0    1.30e+00
2007 09 27  1050    54370   39000      0    1.92e+00    0    1.35e+00
2007 09 27  1055    54370   39300      0    1.95e+00    0    1.36e+00
2007 09 27  1100    54370   39600      0    1.91e+00    0    1.35e+00
2007 09 27  1105    54370   39900      0    1.91e+00    0    1.34e+00
2007 09 27  1110    54370   40200      0    1.91e+00    0    1.34e+00
2007 09 27  1115    54370   40500      0    1.94e+00    0    1.36e+00
2007 09 27  1120    54370   40800      0    1.88e+00    0    1.31e+00
2007 09 27  1125    54370   41100      0    1.91e+00    0    1.35e+00
2007 09 27  1130    54370   41400      0    1.90e+00    0    1.34e+00
2007 09 27  1135    54370   41700      0    1.92e+00    0    1.35e+00
2007 09 27  1140    54370   42000      0    1.93e+00    0    1.35e+00
2007 09 27  1145    54370   42300      0    1.94e+00    0    1.34e+00
2007 09 27  1150    54370   42600      0    1.93e+00    0    1.35e+00
2007 09 27  1155    54370   42900      0    1.92e+00    0    1.34e+00
2007 09 27  1200    54370   43200      0    1.93e+00    0    1.34e+00
2007 09 27  1205    54370   43500      0    1.89e+00    0    1.33e+00
2007 09 27  1210    54370   43800      0    1.91e+00    0    1.34e+00
2007 09 27  1215    54370   44100      0    1.91e+00    0    1.33e+00
2007 09 27  1220    54370   44400      0    1.94e+00    0    1.35e+00
2007 09 27  1225    54370   44700      0    1.94e+00    0    1.36e+00
2007 09 27  1230    54370   45000      0    1.92e+00    0    1.33e+00
2007 09 27  1235    54370   45300      0    1.93e+00    0    1.35e+00
2007 09 27  1240    54370   45600      0    1.92e+00    0    1.35e+00
2007 09 27  1245    54370   45900      0    1.90e+00    0    1.33e+00
2007 09 27  1250    54370   46200      0    1.93e+00    0    1.34e+00
2007 09 27  1255    54370   46500      0    1.94e+00    0    1.35e+00
2007 09 27  1300    54370   46800      0    1.90e+00    0    1.34e+00
2007 09 27  1305    54370   47100      0    1.89e+00    0    1.33e+00
2007 09 27  1310    54370   47400      0    1.93e+00    0    1.35e+00
2007 09 27  1315    54370   47700      0    1.92e+00    0    1.34e+00
2007 09 27  1320    54370   48000      0    1.91e+00    0    1.35e+00
2007 09 27  1325    54370   48300      0    1.90e+00    0    1.33e+00
2007 09 27  1330    54370   48600      0    1.90e+00    0    1.33e+00
2007 09 27  1335    54370   48900      0    1.92e+00    0    1.37e+00
2007 09 27  1340    54370   49200      0    1.90e+00    0    1.33e+00
2007 09 27  1345    54370   49500      0    1.92e+00    0    1.35e+00
2007 09 27  1350    54370   49800      0    1.91e+00    0    1.33e+00
2007 09 27  1355    54370   50100      0    1.94e+00    0    1.37e+00
2007 09 27  1400    54370   50400      0    1.92e+00    0    1.35e+00
2007 09 27  1405    54370   50700      0    1.92e+00    0    1.33e+00
2007 09 27  1410    54370   51000      0    1.89e+00    0    1.31e+00
2007 09 27  1415    54370   51300      0    1.91e+00    0    1.34e+00
2007 09 27  1420    54370   51600      0    1.92e+00    0    1.34e+00
2007 09 27  1425    54370   51900      0    1.94e+00    0    1.35e+00
2007 09 27  1430    54370   52200      0    1.91e+00    0    1.34e+00
2007 09 27  1435    54370   52500      0    1.92e+00    0    1.34e+00
2007 09 27  1440    54370   52800      0    1.92e+00    0    1.33e+00
2007 09 27  1445    54370   53100      0    1.90e+00    0    1.33e+00
2007 09 27  1450    54370   53400      0    1.94e+00    0    1.37e+00
2007 09 27  1455    54370   53700      0    1.91e+00    0    1.33e+00
2007 09 27  1500    54370   54000      0    1.91e+00    0    1.34e+00
2007 09 27  1505    54370   54300      0    1.92e+00    0    1.34e+00
2007 09 27  1510    54370   54600      0    1.96e+00    0    1.39e+00
2007 09 27  1515    54370   54900      0    1.95e+00    0    1.36e+00
2007 09 27  1520    54370   55200      0    1.92e+00    0    1.35e+00
2007 09 27  1525    54370   55500      0    1.91e+00    0    1.34e+00
2007 09 27  1530    54370   55800      0    1.93e+00    0    1.34e+00
2007 09 27  1535    54370   56100      0    1.97e+00    0    1.39e+00
2007 09 27  1540    54370   56400      0    1.90e+00    0    1.34e+00
2007 09 27  1545    54370   56700      0    1.91e+00    0    1.33e+00
2007 09 27  1550    54370   57000      0    1.90e+00    0    1.34e+00
2007 09 27  1555    54370   57300      0    1.91e+00    0    1.33e+00
2007 09 27  1600    54370   57600      0    1.92e+00    0    1.35e+00
2007 09 27  1605    54370   57900      0    1.93e+00    0    1.37e+00
2007 09 27  1610    54370   58200      0    1.87e+00    0    1.31e+00
2007 09 27  1615    54370   58500      0    1.91e+00    0    1.34e+00
2007 09 27  1620    54370   58800      0    1.89e+00    0    1.33e+00
2007 09 27  1625    54370   59100      0    1.93e+00    0    1.36e+00
2007 09 27  1630    54370   59400      0    1.94e+00    0    1.35e+00
2007 09 27  1635    54370   59700      0    1.90e+00    0    1.33e+00
2007 09 27  1640    54370   60000      0    1.96e+00    0    1.38e+00
2007 09 27  1645    54370   60300      0    1.95e+00    0    1.37e+00
2007 09 27  1650    54370   60600      0    1.89e+00    0    1.32e+00
2007 09 27  1655    54370   60900      0    1.92e+00    0    1.33e+00
2007 09 27  1700    54370   61200      0    1.89e+00    0    1.31e+00
2007 09 27  1705    54370   61500      0    1.88e+00    0    1.30e+00
2007 09 27  1710    54370   61800      0    1.88e+00    0    1.31e+00
2007 09 27  1715    54370   62100      0    1.88e+00    0    1.30e+00
2007 09 27  1720    54370   62400      0    1.88e+00    0    1.32e+00
2007 09 27  1725    54370   62700      0    1.86e+00    0    1.30e+00
2007 09 27  1730    54370   63000      0    1.85e+00    0    1.29e+00
2007 09 27  1735    54370   63300      0    1.91e+00    0    1.33e+00
2007 09 27  1740    54370   63600      0    1.91e+00    0    1.35e+00
2007 09 27  1745    54370   63900      0    1.89e+00    0    1.33e+00
2007 09 27  1750    54370   64200      0    1.89e+00    0    1.32e+00
2007 09 27  1755    54370   64500      0    1.91e+00    0    1.33e+00
2007 09 27  1800    54370   64800      0    1.91e+00    0    1.33e+00
2007 09 27  1805    54370   65100      0    1.88e+00    0    1.32e+00
2007 09 27  1810    54370   65400      0    1.87e+00    0    1.29e+00
2007 09 27  1815    54370   65700      9   -1.00e+05    9   -1.00e+05
2007 09 27  1820    54370   66000      9   -1.00e+05    9   -1.00e+05
2007 09 27  1825    54370   66300      9   -1.00e+05    9   -1.00e+05
2007 09 27  1830    54370   66600      9   -1.00e+05    9   -1.00e+05
2007 09 27  1835    54370   66900      9   -1.00e+05    9   -1.00e+05
2007 09 27  1840    54370   67200      9   -1.00e+05    9   -1.00e+05
2007 09 27  1845    54370   67500      9   -1.00e+05    9   -1.00e+05
2007 09 27  1850    54370   67800      9   -1.00e+05    9   -1.00e+05
2007 09 27  1855    54370   68100      9   -1.00e+05    9   -1.00e+05
2007 09 27  1900    54370   68400      9   -1.00e+05    9   -1.00e+05
2007 09 27  1905    54370   68700      9   -1.00e+05    9   -1.00e+05
2007 09 27  1910    54370   69000      9   -1.00e+05    9   -1.00e+05
2007 09 27  1915    54370   69300      9   -1.00e+05    9   -1.00e+05
2007 09 27  1920    54370   69600      9   -1.00e+05    9   -1.00e+05
2007 09 27  1925    54370   69900      9   -1.00e+05    9   -1.00e+05
2007 09 27  1930    54370   70200      9   -1.00e+05    9   -1.00e+05
2007 09 27  1935    54370   70500      9   -1.00e+05    9   -1.00e+05
2007 09 27  1940    54370   70800      9   -1.00e+05    9   -1.00e+05
2007 09 27  1945    54370   71100      9   -1.00e+05    9   -1.00e+05
2007 09 27  1950    54370   71400      9   -1.00e+05    9   -1.00e+05
2007 09 27  1955    54370   71700      9   -1.00e+05    9   -1.00e+05
2007 09 27  2000    54370   72000      9   -1.00e+05    9   -1.00e+05
2007 09 27  2005    54370   72300      9   -1.00e+05    9   -1.00e+05
2007 09 27  2010    54370   72600      9   -1.00e+05    9   -1.00e+05
2007 09 27  2015    54370   72900      9   -1.00e+05    9   -1.00e+05
2007 09 27  2020    54370   73200      9   -1.00e+05    9   -1.00e+05
2007 09 27  2025    54370   73500      9   -1.00e+05    9   -1.00e+05
2007 09 27  2030    54370   73800      9   -1.00e+05    9   -1.00e+05
2007 09 27  2035    54370   74100      9   -1.00e+05    9   -1.00e+05
2007 09 27  2040    54370   74400      9   -1.00e+05    9   -1.00e+05
2007 09 27  2045    54370   74700      9   -1.00e+05    9   -1.00e+05
2007 09 27  2050    54370   75000      9   -1.00e+05    9   -1.00e+05
2007 09 27  2055    54370   75300      9   -1.00e+05    9   -1.00e+05
2007 09 27  2100    54370   75600      9   -1.00e+05    9   -1.00e+05
2007 09 27  2105    54370   75900      9   -1.00e+05    9   -1.00e+05
2007 09 27  2110    54370   76200      9   -1.00e+05    9   -1.00e+05
2007 09 27  2115    54370   76500      9   -1.00e+05    9   -1.00e+05
2007 09 27  2120    54370   76800      9   -1.00e+05    9   -1.00e+05
2007 09 27  2125    54370   77100      9   -1.00e+05    9   -1.00e+05
2007 09 27  2130    54370   77400      9   -1.00e+05    9   -1.00e+05
2007 09 27  2135    54370   77700      9   -1.00e+05    9   -1.00e+05
2007 09 27  2140    54370   78000      9   -1.00e+05    9   -1.00e+05
2007 09 27  2145    54370   78300      9   -1.00e+05    9   -1.00e+05
2007 09 27  2150    54370   78600      9   -1.00e+05    9   -1.00e+05
2007 09 27  2155    54370   78900      9   -1.00e+05    9   -1.00e+05
2007 09 27  2200    54370   79200      0    1.89e+00    0    1.32e+00
2007 09 27  2205    54370   79500      0    1.87e+00    0    1.30e+00
2007 09 27  2210    54370   79800      0    1.89e+00    0    1.33e+00
2007 09 27  2215    54370   80100      0    1.94e+00    0    1.37e+00
2007 09 27  2220    54370   80400      0    1.90e+00    0    1.32e+00
2007 09 27  2225    54370   80700      0    1.89e+00    0    1.32e+00
2007 09 27  2230    54370   81000      0    1.90e+00    0    1.32e+00
2007 09 27  2235    54370   81300      0    1.88e+00    0    1.32e+00
2007 09 27  2240    54370   81600      0    1.91e+00    0    1.34e+00
2007 09 27  2245    54370   81900      0    1.89e+00    0    1.33e+00
2007 09 27  2250    54370   82200      0    1.88e+00    0    1.32e+00
2007 09 27  2255    54370   82500      0    1.89e+00    0    1.32e+00
2007 09 27  2300    54370   82800      0    1.91e+00    0    1.34e+00
2007 09 27  2305    54370   83100      0    1.93e+00    0    1.35e+00
2007 09 27  2310    54370   83400      0    1.91e+00    0    1.34e+00
2007 09 27  2315    54370   83700      0    1.91e+00    0    1.34e+00
2007 09 27  2320    54370   84000      0    1.85e+00    0    1.29e+00
2007 09 27  2325    54370   84300      0    1.89e+00    0    1.33e+00
2007 09 27  2330    54370   84600      0    1.90e+00    0    1.33e+00
2007 09 27  2335    54370   84900      0    1.89e+00    0    1.34e+00
2007 09 27  2340    54370   85200      0    1.87e+00    0    1.30e+00
2007 09 27  2345    54370   85500      0    1.88e+00    0    1.32e+00
2007 09 27  2350    54370   85800      0    1.86e+00    0    1.31e+00
2007 09 27  2355    54370   86100      0    1.90e+00    0    1.33e+00
