:Data_list: 20070225_ace_sis_5m.txt
:Created: 2007 Feb 26 0011 UT
# Prepared by the U.S. Dept. of Commerce, NOAA, Space Environment Center.
# Please send comments and suggestions to SEC.Webmaster@noaa.gov 
# 
# Units: proton flux p/cs2-sec-ster
# Status(S): 0 = nominal data, 1 to 8 = bad data record, 9 = no data
# Missing data values: -1.00e+05
# Source: ACE Satellite - Solar Isotope Spectrometer
#
# 5-minute averaged Real-time Integral Flux of High-energy Solar Protons
# 
#                 Modified Seconds
# UT Date   Time   Julian  of the      ---- Integral Proton Flux ----
# YR MO DA  HHMM     Day     Day       S    > 10 MeV    S    > 30 MeV
#--------------------------------------------------------------------
2007 02 25  0000    54156       0      0    1.78e+00    0    1.25e+00
2007 02 25  0005    54156     300      0    1.77e+00    0    1.25e+00
2007 02 25  0010    54156     600      0    1.76e+00    0    1.22e+00
2007 02 25  0015    54156     900      0    1.78e+00    0    1.25e+00
2007 02 25  0020    54156    1200      0    1.80e+00    0    1.27e+00
2007 02 25  0025    54156    1500      0    1.80e+00    0    1.27e+00
2007 02 25  0030    54156    1800      0    1.77e+00    0    1.23e+00
2007 02 25  0035    54156    2100      0    1.81e+00    0    1.27e+00
2007 02 25  0040    54156    2400      0    1.75e+00    0    1.23e+00
2007 02 25  0045    54156    2700      0    1.78e+00    0    1.26e+00
2007 02 25  0050    54156    3000      0    1.78e+00    0    1.25e+00
2007 02 25  0055    54156    3300      0    1.78e+00    0    1.25e+00
2007 02 25  0100    54156    3600      0    1.80e+00    0    1.26e+00
2007 02 25  0105    54156    3900      0    1.80e+00    0    1.27e+00
2007 02 25  0110    54156    4200      0    1.77e+00    0    1.26e+00
2007 02 25  0115    54156    4500      0    1.75e+00    0    1.23e+00
2007 02 25  0120    54156    4800      0    1.79e+00    0    1.24e+00
2007 02 25  0125    54156    5100      0    1.77e+00    0    1.24e+00
2007 02 25  0130    54156    5400      0    1.80e+00    0    1.27e+00
2007 02 25  0135    54156    5700      0    1.80e+00    0    1.27e+00
2007 02 25  0140    54156    6000      0    1.76e+00    0    1.24e+00
2007 02 25  0145    54156    6300      0    1.76e+00    0    1.23e+00
2007 02 25  0150    54156    6600      0    1.78e+00    0    1.26e+00
2007 02 25  0155    54156    6900      0    1.75e+00    0    1.22e+00
2007 02 25  0200    54156    7200      0    1.81e+00    0    1.27e+00
2007 02 25  0205    54156    7500      0    1.78e+00    0    1.24e+00
2007 02 25  0210    54156    7800      0    1.80e+00    0    1.26e+00
2007 02 25  0215    54156    8100      0    1.78e+00    0    1.26e+00
2007 02 25  0220    54156    8400      0    1.79e+00    0    1.26e+00
2007 02 25  0225    54156    8700      0    1.80e+00    0    1.26e+00
2007 02 25  0230    54156    9000      0    1.81e+00    0    1.27e+00
2007 02 25  0235    54156    9300      0    1.80e+00    0    1.25e+00
2007 02 25  0240    54156    9600      0    1.76e+00    0    1.23e+00
2007 02 25  0245    54156    9900      0    1.78e+00    0    1.24e+00
2007 02 25  0250    54156   10200      0    1.73e+00    0    1.21e+00
2007 02 25  0255    54156   10500      0    1.79e+00    0    1.25e+00
2007 02 25  0300    54156   10800      0    1.78e+00    0    1.24e+00
2007 02 25  0305    54156   11100      0    1.79e+00    0    1.24e+00
2007 02 25  0310    54156   11400      0    1.81e+00    0    1.26e+00
2007 02 25  0315    54156   11700      9   -1.00e+05    9   -1.00e+05
2007 02 25  0320    54156   12000      9   -1.00e+05    9   -1.00e+05
2007 02 25  0325    54156   12300      9   -1.00e+05    9   -1.00e+05
2007 02 25  0330    54156   12600      9   -1.00e+05    9   -1.00e+05
2007 02 25  0335    54156   12900      0    1.78e+00    0    1.24e+00
2007 02 25  0340    54156   13200      0    1.83e+00    0    1.29e+00
2007 02 25  0345    54156   13500      0    1.81e+00    0    1.27e+00
2007 02 25  0350    54156   13800      0    1.84e+00    0    1.28e+00
2007 02 25  0355    54156   14100      0    1.78e+00    0    1.25e+00
2007 02 25  0400    54156   14400      0    1.78e+00    0    1.24e+00
2007 02 25  0405    54156   14700      0    1.78e+00    0    1.24e+00
2007 02 25  0410    54156   15000      0    1.79e+00    0    1.24e+00
2007 02 25  0415    54156   15300      0    1.74e+00    0    1.23e+00
2007 02 25  0420    54156   15600      0    1.75e+00    0    1.23e+00
2007 02 25  0425    54156   15900      0    1.75e+00    0    1.23e+00
2007 02 25  0430    54156   16200      0    1.79e+00    0    1.26e+00
2007 02 25  0435    54156   16500      0    1.81e+00    0    1.27e+00
2007 02 25  0440    54156   16800      0    1.77e+00    0    1.24e+00
2007 02 25  0445    54156   17100      0    1.78e+00    0    1.25e+00
2007 02 25  0450    54156   17400      0    1.78e+00    0    1.27e+00
2007 02 25  0455    54156   17700      0    1.76e+00    0    1.22e+00
2007 02 25  0500    54156   18000      0    1.80e+00    0    1.26e+00
2007 02 25  0505    54156   18300      0    1.76e+00    0    1.23e+00
2007 02 25  0510    54156   18600      0    1.79e+00    0    1.26e+00
2007 02 25  0515    54156   18900      0    1.73e+00    0    1.21e+00
2007 02 25  0520    54156   19200      0    1.78e+00    0    1.24e+00
2007 02 25  0525    54156   19500      0    1.80e+00    0    1.26e+00
2007 02 25  0530    54156   19800      0    1.74e+00    0    1.22e+00
2007 02 25  0535    54156   20100      0    1.78e+00    0    1.26e+00
2007 02 25  0540    54156   20400      0    1.84e+00    0    1.29e+00
2007 02 25  0545    54156   20700      0    1.78e+00    0    1.25e+00
2007 02 25  0550    54156   21000      0    1.77e+00    0    1.25e+00
2007 02 25  0555    54156   21300      0    1.79e+00    0    1.26e+00
2007 02 25  0600    54156   21600      0    1.76e+00    0    1.23e+00
2007 02 25  0605    54156   21900      0    1.77e+00    0    1.25e+00
2007 02 25  0610    54156   22200      0    1.72e+00    0    1.20e+00
2007 02 25  0615    54156   22500      0    1.78e+00    0    1.25e+00
2007 02 25  0620    54156   22800      0    1.76e+00    0    1.23e+00
2007 02 25  0625    54156   23100      0    1.77e+00    0    1.25e+00
2007 02 25  0630    54156   23400      0    1.77e+00    0    1.25e+00
2007 02 25  0635    54156   23700      0    1.74e+00    0    1.22e+00
2007 02 25  0640    54156   24000      0    1.78e+00    0    1.25e+00
2007 02 25  0645    54156   24300      0    1.66e+00    0    1.17e+00
2007 02 25  0650    54156   24600      0    1.80e+00    0    1.26e+00
2007 02 25  0655    54156   24900      0    1.76e+00    0    1.22e+00
2007 02 25  0700    54156   25200      0    1.76e+00    0    1.24e+00
2007 02 25  0705    54156   25500      0    1.79e+00    0    1.25e+00
2007 02 25  0710    54156   25800      0    1.80e+00    0    1.25e+00
2007 02 25  0715    54156   26100      0    1.82e+00    0    1.27e+00
2007 02 25  0720    54156   26400      0    1.79e+00    0    1.26e+00
2007 02 25  0725    54156   26700      0    1.76e+00    0    1.23e+00
2007 02 25  0730    54156   27000      0    1.76e+00    0    1.23e+00
2007 02 25  0735    54156   27300      0    1.76e+00    0    1.23e+00
2007 02 25  0740    54156   27600      0    1.75e+00    0    1.21e+00
2007 02 25  0745    54156   27900      0    1.80e+00    0    1.25e+00
2007 02 25  0750    54156   28200      0    1.77e+00    0    1.24e+00
2007 02 25  0755    54156   28500      0    1.79e+00    0    1.24e+00
2007 02 25  0800    54156   28800      0    1.78e+00    0    1.26e+00
2007 02 25  0805    54156   29100      0    1.81e+00    0    1.27e+00
2007 02 25  0810    54156   29400      0    1.77e+00    0    1.25e+00
2007 02 25  0815    54156   29700      0    1.82e+00    0    1.27e+00
2007 02 25  0820    54156   30000      0    1.77e+00    0    1.23e+00
2007 02 25  0825    54156   30300      0    1.76e+00    0    1.24e+00
2007 02 25  0830    54156   30600      0    1.81e+00    0    1.26e+00
2007 02 25  0835    54156   30900      0    1.75e+00    0    1.21e+00
2007 02 25  0840    54156   31200      0    1.77e+00    0    1.24e+00
2007 02 25  0845    54156   31500      0    1.77e+00    0    1.24e+00
2007 02 25  0850    54156   31800      0    1.77e+00    0    1.24e+00
2007 02 25  0855    54156   32100      0    1.78e+00    0    1.24e+00
2007 02 25  0900    54156   32400      0    1.77e+00    0    1.24e+00
2007 02 25  0905    54156   32700      0    1.77e+00    0    1.23e+00
2007 02 25  0910    54156   33000      0    1.73e+00    0    1.20e+00
2007 02 25  0915    54156   33300      0    1.76e+00    0    1.24e+00
2007 02 25  0920    54156   33600      0    1.81e+00    0    1.27e+00
2007 02 25  0925    54156   33900      0    1.77e+00    0    1.24e+00
2007 02 25  0930    54156   34200      0    1.79e+00    0    1.25e+00
2007 02 25  0935    54156   34500      0    1.80e+00    0    1.26e+00
2007 02 25  0940    54156   34800      0    1.73e+00    0    1.20e+00
2007 02 25  0945    54156   35100      0    1.79e+00    0    1.25e+00
2007 02 25  0950    54156   35400      0    1.76e+00    0    1.24e+00
2007 02 25  0955    54156   35700      0    1.78e+00    0    1.23e+00
2007 02 25  1000    54156   36000      0    1.76e+00    0    1.23e+00
2007 02 25  1005    54156   36300      0    1.79e+00    0    1.26e+00
2007 02 25  1010    54156   36600      0    1.78e+00    0    1.26e+00
2007 02 25  1015    54156   36900      0    1.76e+00    0    1.24e+00
2007 02 25  1020    54156   37200      0    1.75e+00    0    1.23e+00
2007 02 25  1025    54156   37500      0    1.77e+00    0    1.25e+00
2007 02 25  1030    54156   37800      0    1.77e+00    0    1.24e+00
2007 02 25  1035    54156   38100      0    1.75e+00    0    1.24e+00
2007 02 25  1040    54156   38400      0    1.64e+00    0    1.15e+00
2007 02 25  1045    54156   38700      0    1.76e+00    0    1.23e+00
2007 02 25  1050    54156   39000      0    1.79e+00    0    1.26e+00
2007 02 25  1055    54156   39300      0    1.73e+00    0    1.19e+00
2007 02 25  1100    54156   39600      0    1.78e+00    0    1.24e+00
2007 02 25  1105    54156   39900      0    1.78e+00    0    1.25e+00
2007 02 25  1110    54156   40200      0    1.77e+00    0    1.23e+00
2007 02 25  1115    54156   40500      0    1.79e+00    0    1.25e+00
2007 02 25  1120    54156   40800      0    1.77e+00    0    1.25e+00
2007 02 25  1125    54156   41100      0    1.73e+00    0    1.21e+00
2007 02 25  1130    54156   41400      0    1.77e+00    0    1.24e+00
2007 02 25  1135    54156   41700      0    1.76e+00    0    1.24e+00
2007 02 25  1140    54156   42000      0    1.77e+00    0    1.24e+00
2007 02 25  1145    54156   42300      0    1.76e+00    0    1.22e+00
2007 02 25  1150    54156   42600      0    1.76e+00    0    1.23e+00
2007 02 25  1155    54156   42900      0    1.77e+00    0    1.23e+00
2007 02 25  1200    54156   43200      0    1.75e+00    0    1.22e+00
2007 02 25  1205    54156   43500      0    1.78e+00    0    1.25e+00
2007 02 25  1210    54156   43800      0    1.79e+00    0    1.25e+00
2007 02 25  1215    54156   44100      0    1.78e+00    0    1.24e+00
2007 02 25  1220    54156   44400      0    1.77e+00    0    1.24e+00
2007 02 25  1225    54156   44700      0    1.77e+00    0    1.25e+00
2007 02 25  1230    54156   45000      0    1.78e+00    0    1.25e+00
2007 02 25  1235    54156   45300      0    1.80e+00    0    1.27e+00
2007 02 25  1240    54156   45600      0    1.80e+00    0    1.26e+00
2007 02 25  1245    54156   45900      0    1.77e+00    0    1.24e+00
2007 02 25  1250    54156   46200      0    1.79e+00    0    1.27e+00
2007 02 25  1255    54156   46500      0    1.75e+00    0    1.23e+00
2007 02 25  1300    54156   46800      0    1.77e+00    0    1.25e+00
2007 02 25  1305    54156   47100      0    1.77e+00    0    1.24e+00
2007 02 25  1310    54156   47400      0    1.74e+00    0    1.22e+00
2007 02 25  1315    54156   47700      0    1.78e+00    0    1.25e+00
2007 02 25  1320    54156   48000      0    1.77e+00    0    1.24e+00
2007 02 25  1325    54156   48300      0    1.78e+00    0    1.25e+00
2007 02 25  1330    54156   48600      0    1.73e+00    0    1.22e+00
2007 02 25  1335    54156   48900      0    1.80e+00    0    1.27e+00
2007 02 25  1340    54156   49200      0    1.79e+00    0    1.26e+00
2007 02 25  1345    54156   49500      0    1.76e+00    0    1.23e+00
2007 02 25  1350    54156   49800      0    1.77e+00    0    1.24e+00
2007 02 25  1355    54156   50100      0    1.79e+00    0    1.26e+00
2007 02 25  1400    54156   50400      0    1.75e+00    0    1.23e+00
2007 02 25  1405    54156   50700      0    1.79e+00    0    1.26e+00
2007 02 25  1410    54156   51000      0    1.80e+00    0    1.26e+00
2007 02 25  1415    54156   51300      0    1.80e+00    0    1.26e+00
2007 02 25  1420    54156   51600      0    1.77e+00    0    1.25e+00
2007 02 25  1425    54156   51900      0    1.74e+00    0    1.21e+00
2007 02 25  1430    54156   52200      0    1.76e+00    0    1.22e+00
2007 02 25  1435    54156   52500      0    1.79e+00    0    1.25e+00
2007 02 25  1440    54156   52800      0    1.81e+00    0    1.27e+00
2007 02 25  1445    54156   53100      0    1.77e+00    0    1.23e+00
2007 02 25  1450    54156   53400      0    1.82e+00    0    1.28e+00
2007 02 25  1455    54156   53700      0    1.72e+00    0    1.20e+00
2007 02 25  1500    54156   54000      0    1.78e+00    0    1.24e+00
2007 02 25  1505    54156   54300      0    1.80e+00    0    1.26e+00
2007 02 25  1510    54156   54600      0    1.78e+00    0    1.25e+00
2007 02 25  1515    54156   54900      0    1.76e+00    0    1.24e+00
2007 02 25  1520    54156   55200      0    1.77e+00    0    1.24e+00
2007 02 25  1525    54156   55500      0    1.75e+00    0    1.22e+00
2007 02 25  1530    54156   55800      0    1.75e+00    0    1.24e+00
2007 02 25  1535    54156   56100      0    1.77e+00    0    1.25e+00
2007 02 25  1540    54156   56400      0    1.78e+00    0    1.24e+00
2007 02 25  1545    54156   56700      0    1.77e+00    0    1.25e+00
2007 02 25  1550    54156   57000      0    1.75e+00    0    1.23e+00
2007 02 25  1555    54156   57300      0    1.75e+00    0    1.22e+00
2007 02 25  1600    54156   57600      0    1.76e+00    0    1.23e+00
2007 02 25  1605    54156   57900      0    1.80e+00    0    1.26e+00
2007 02 25  1610    54156   58200      0    1.79e+00    0    1.26e+00
2007 02 25  1615    54156   58500      0    1.76e+00    0    1.23e+00
2007 02 25  1620    54156   58800      0    1.76e+00    0    1.25e+00
2007 02 25  1625    54156   59100      0    1.78e+00    0    1.24e+00
2007 02 25  1630    54156   59400      0    1.84e+00    0    1.29e+00
2007 02 25  1635    54156   59700      0    1.80e+00    0    1.25e+00
2007 02 25  1640    54156   60000      0    1.80e+00    0    1.25e+00
2007 02 25  1645    54156   60300      0    1.79e+00    0    1.26e+00
2007 02 25  1650    54156   60600      0    1.78e+00    0    1.25e+00
2007 02 25  1655    54156   60900      0    1.80e+00    0    1.26e+00
2007 02 25  1700    54156   61200      0    1.78e+00    0    1.25e+00
2007 02 25  1705    54156   61500      0    1.80e+00    0    1.26e+00
2007 02 25  1710    54156   61800      0    1.75e+00    0    1.22e+00
2007 02 25  1715    54156   62100      0    1.82e+00    0    1.27e+00
2007 02 25  1720    54156   62400      0    1.81e+00    0    1.26e+00
2007 02 25  1725    54156   62700      0    1.76e+00    0    1.25e+00
2007 02 25  1730    54156   63000      0    1.75e+00    0    1.22e+00
2007 02 25  1735    54156   63300      0    1.78e+00    0    1.25e+00
2007 02 25  1740    54156   63600      0    1.79e+00    0    1.26e+00
2007 02 25  1745    54156   63900      0    1.80e+00    0    1.27e+00
2007 02 25  1750    54156   64200      0    1.73e+00    0    1.21e+00
2007 02 25  1755    54156   64500      0    1.78e+00    0    1.26e+00
2007 02 25  1800    54156   64800      0    1.79e+00    0    1.26e+00
2007 02 25  1805    54156   65100      0    1.75e+00    0    1.23e+00
2007 02 25  1810    54156   65400      0    1.79e+00    0    1.24e+00
2007 02 25  1815    54156   65700      0    1.79e+00    0    1.25e+00
2007 02 25  1820    54156   66000      0    1.74e+00    0    1.21e+00
2007 02 25  1825    54156   66300      0    1.74e+00    0    1.22e+00
2007 02 25  1830    54156   66600      0    1.80e+00    0    1.25e+00
2007 02 25  1835    54156   66900      0    1.81e+00    0    1.26e+00
2007 02 25  1840    54156   67200      0    1.76e+00    0    1.24e+00
2007 02 25  1845    54156   67500      0    1.78e+00    0    1.23e+00
2007 02 25  1850    54156   67800      0    1.78e+00    0    1.24e+00
2007 02 25  1855    54156   68100      0    1.83e+00    0    1.29e+00
2007 02 25  1900    54156   68400      0    1.78e+00    0    1.25e+00
2007 02 25  1905    54156   68700      0    1.79e+00    0    1.26e+00
2007 02 25  1910    54156   69000      0    1.76e+00    0    1.24e+00
2007 02 25  1915    54156   69300      0    1.67e+00    0    1.17e+00
2007 02 25  1920    54156   69600      0    1.75e+00    0    1.23e+00
2007 02 25  1925    54156   69900      0    1.74e+00    0    1.22e+00
2007 02 25  1930    54156   70200      0    1.81e+00    0    1.27e+00
2007 02 25  1935    54156   70500      0    1.78e+00    0    1.26e+00
2007 02 25  1940    54156   70800      0    1.76e+00    0    1.22e+00
2007 02 25  1945    54156   71100      0    1.79e+00    0    1.26e+00
2007 02 25  1950    54156   71400      0    1.79e+00    0    1.26e+00
2007 02 25  1955    54156   71700      0    1.76e+00    0    1.24e+00
2007 02 25  2000    54156   72000      0    1.76e+00    0    1.24e+00
2007 02 25  2005    54156   72300      0    1.77e+00    0    1.23e+00
2007 02 25  2010    54156   72600      0    1.80e+00    0    1.26e+00
2007 02 25  2015    54156   72900      0    1.75e+00    0    1.23e+00
2007 02 25  2020    54156   73200      0    1.74e+00    0    1.21e+00
2007 02 25  2025    54156   73500      0    1.74e+00    0    1.22e+00
2007 02 25  2030    54156   73800      0    1.76e+00    0    1.24e+00
2007 02 25  2035    54156   74100      0    1.77e+00    0    1.25e+00
2007 02 25  2040    54156   74400      0    1.75e+00    0    1.22e+00
2007 02 25  2045    54156   74700      0    1.71e+00    0    1.20e+00
2007 02 25  2050    54156   75000      0    1.78e+00    0    1.24e+00
2007 02 25  2055    54156   75300      0    1.76e+00    0    1.22e+00
2007 02 25  2100    54156   75600      0    1.76e+00    0    1.23e+00
2007 02 25  2105    54156   75900      0    1.75e+00    0    1.22e+00
2007 02 25  2110    54156   76200      0    1.78e+00    0    1.27e+00
2007 02 25  2115    54156   76500      0    1.77e+00    0    1.23e+00
2007 02 25  2120    54156   76800      0    1.76e+00    0    1.22e+00
2007 02 25  2125    54156   77100      0    1.75e+00    0    1.23e+00
2007 02 25  2130    54156   77400      0    1.76e+00    0    1.23e+00
2007 02 25  2135    54156   77700      0    1.75e+00    0    1.23e+00
2007 02 25  2140    54156   78000      0    1.77e+00    0    1.23e+00
2007 02 25  2145    54156   78300      0    1.74e+00    0    1.22e+00
2007 02 25  2150    54156   78600      0    1.74e+00    0    1.22e+00
2007 02 25  2155    54156   78900      0    1.81e+00    0    1.27e+00
2007 02 25  2200    54156   79200      0    1.73e+00    0    1.21e+00
2007 02 25  2205    54156   79500      0    1.76e+00    0    1.22e+00
2007 02 25  2210    54156   79800      0    1.79e+00    0    1.26e+00
2007 02 25  2215    54156   80100      0    1.78e+00    0    1.25e+00
2007 02 25  2220    54156   80400      0    1.78e+00    0    1.25e+00
2007 02 25  2225    54156   80700      0    1.77e+00    0    1.24e+00
2007 02 25  2230    54156   81000      0    1.73e+00    0    1.21e+00
2007 02 25  2235    54156   81300      0    1.79e+00    0    1.25e+00
2007 02 25  2240    54156   81600      0    1.79e+00    0    1.25e+00
2007 02 25  2245    54156   81900      0    1.79e+00    0    1.25e+00
2007 02 25  2250    54156   82200      0    1.77e+00    0    1.24e+00
2007 02 25  2255    54156   82500      0    1.77e+00    0    1.25e+00
2007 02 25  2300    54156   82800      0    1.72e+00    0    1.20e+00
2007 02 25  2305    54156   83100      9   -1.00e+05    9   -1.00e+05
2007 02 25  2310    54156   83400      9   -1.00e+05    9   -1.00e+05
2007 02 25  2315    54156   83700      9   -1.00e+05    9   -1.00e+05
2007 02 25  2320    54156   84000      9   -1.00e+05    9   -1.00e+05
2007 02 25  2325    54156   84300      9   -1.00e+05    9   -1.00e+05
2007 02 25  2330    54156   84600      0    1.83e+00    0    1.28e+00
2007 02 25  2335    54156   84900      0    1.77e+00    0    1.24e+00
2007 02 25  2340    54156   85200      0    1.78e+00    0    1.24e+00
2007 02 25  2345    54156   85500      0    1.77e+00    0    1.24e+00
2007 02 25  2350    54156   85800      0    1.80e+00    0    1.26e+00
2007 02 25  2355    54156   86100      0    1.78e+00    0    1.24e+00
