:Data_list: 20070924_ace_sis_5m.txt
:Created: 2007 Sep 25 0011 UT
# Prepared by the U.S. Dept. of Commerce, NOAA, Space Environment Center.
# Please send comments and suggestions to SEC.Webmaster@noaa.gov 
# 
# Units: proton flux p/cs2-sec-ster
# Status(S): 0 = nominal data, 1 to 8 = bad data record, 9 = no data
# Missing data values: -1.00e+05
# Source: ACE Satellite - Solar Isotope Spectrometer
#
# 5-minute averaged Real-time Integral Flux of High-energy Solar Protons
# 
#                 Modified Seconds
# UT Date   Time   Julian  of the      ---- Integral Proton Flux ----
# YR MO DA  HHMM     Day     Day       S    > 10 MeV    S    > 30 MeV
#--------------------------------------------------------------------
2007 09 24  0000    54367       0      0    1.94e+00    0    1.36e+00
2007 09 24  0005    54367     300      0    1.90e+00    0    1.34e+00
2007 09 24  0010    54367     600      0    1.86e+00    0    1.31e+00
2007 09 24  0015    54367     900      0    1.85e+00    0    1.30e+00
2007 09 24  0020    54367    1200      0    1.86e+00    0    1.31e+00
2007 09 24  0025    54367    1500      0    1.90e+00    0    1.34e+00
2007 09 24  0030    54367    1800      0    1.90e+00    0    1.35e+00
2007 09 24  0035    54367    2100      0    1.86e+00    0    1.30e+00
2007 09 24  0040    54367    2400      0    1.88e+00    0    1.31e+00
2007 09 24  0045    54367    2700      0    1.93e+00    0    1.36e+00
2007 09 24  0050    54367    3000      0    1.88e+00    0    1.32e+00
2007 09 24  0055    54367    3300      0    1.87e+00    0    1.29e+00
2007 09 24  0100    54367    3600      0    1.90e+00    0    1.32e+00
2007 09 24  0105    54367    3900      0    1.87e+00    0    1.30e+00
2007 09 24  0110    54367    4200      0    1.89e+00    0    1.34e+00
2007 09 24  0115    54367    4500      0    1.92e+00    0    1.34e+00
2007 09 24  0120    54367    4800      0    1.90e+00    0    1.33e+00
2007 09 24  0125    54367    5100      0    1.88e+00    0    1.32e+00
2007 09 24  0130    54367    5400      0    1.91e+00    0    1.34e+00
2007 09 24  0135    54367    5700      0    1.90e+00    0    1.34e+00
2007 09 24  0140    54367    6000      0    1.88e+00    0    1.31e+00
2007 09 24  0145    54367    6300      0    1.84e+00    0    1.29e+00
2007 09 24  0150    54367    6600      0    1.89e+00    0    1.33e+00
2007 09 24  0155    54367    6900      0    1.86e+00    0    1.30e+00
2007 09 24  0200    54367    7200      0    1.90e+00    0    1.33e+00
2007 09 24  0205    54367    7500      0    1.90e+00    0    1.33e+00
2007 09 24  0210    54367    7800      0    1.90e+00    0    1.32e+00
2007 09 24  0215    54367    8100      0    1.90e+00    0    1.33e+00
2007 09 24  0220    54367    8400      0    1.88e+00    0    1.32e+00
2007 09 24  0225    54367    8700      0    1.84e+00    0    1.29e+00
2007 09 24  0230    54367    9000      0    1.91e+00    0    1.33e+00
2007 09 24  0235    54367    9300      0    1.87e+00    0    1.31e+00
2007 09 24  0240    54367    9600      0    1.87e+00    0    1.31e+00
2007 09 24  0245    54367    9900      0    1.85e+00    0    1.29e+00
2007 09 24  0250    54367   10200      0    1.91e+00    0    1.33e+00
2007 09 24  0255    54367   10500      0    1.85e+00    0    1.30e+00
2007 09 24  0300    54367   10800      0    1.89e+00    0    1.33e+00
2007 09 24  0305    54367   11100      0    1.89e+00    0    1.33e+00
2007 09 24  0310    54367   11400      0    1.86e+00    0    1.31e+00
2007 09 24  0315    54367   11700      0    1.87e+00    0    1.31e+00
2007 09 24  0320    54367   12000      0    1.89e+00    0    1.33e+00
2007 09 24  0325    54367   12300      0    1.88e+00    0    1.32e+00
2007 09 24  0330    54367   12600      0    1.88e+00    0    1.30e+00
2007 09 24  0335    54367   12900      0    1.88e+00    0    1.32e+00
2007 09 24  0340    54367   13200      0    1.87e+00    0    1.30e+00
2007 09 24  0345    54367   13500      0    1.88e+00    0    1.32e+00
2007 09 24  0350    54367   13800      0    1.92e+00    0    1.35e+00
2007 09 24  0355    54367   14100      0    1.90e+00    0    1.32e+00
2007 09 24  0400    54367   14400      0    1.87e+00    0    1.31e+00
2007 09 24  0405    54367   14700      0    1.88e+00    0    1.32e+00
2007 09 24  0410    54367   15000      0    1.89e+00    0    1.31e+00
2007 09 24  0415    54367   15300      0    1.90e+00    0    1.34e+00
2007 09 24  0420    54367   15600      0    1.90e+00    0    1.33e+00
2007 09 24  0425    54367   15900      0    1.88e+00    0    1.32e+00
2007 09 24  0430    54367   16200      0    1.87e+00    0    1.29e+00
2007 09 24  0435    54367   16500      0    1.89e+00    0    1.32e+00
2007 09 24  0440    54367   16800      0    1.86e+00    0    1.31e+00
2007 09 24  0445    54367   17100      0    1.91e+00    0    1.32e+00
2007 09 24  0450    54367   17400      0    1.85e+00    0    1.30e+00
2007 09 24  0455    54367   17700      0    1.89e+00    0    1.32e+00
2007 09 24  0500    54367   18000      0    1.92e+00    0    1.34e+00
2007 09 24  0505    54367   18300      0    1.89e+00    0    1.32e+00
2007 09 24  0510    54367   18600      0    1.90e+00    0    1.34e+00
2007 09 24  0515    54367   18900      0    1.88e+00    0    1.30e+00
2007 09 24  0520    54367   19200      0    1.90e+00    0    1.34e+00
2007 09 24  0525    54367   19500      0    1.89e+00    0    1.33e+00
2007 09 24  0530    54367   19800      0    1.88e+00    0    1.32e+00
2007 09 24  0535    54367   20100      0    1.94e+00    0    1.35e+00
2007 09 24  0540    54367   20400      0    1.90e+00    0    1.33e+00
2007 09 24  0545    54367   20700      0    1.87e+00    0    1.30e+00
2007 09 24  0550    54367   21000      0    1.93e+00    0    1.36e+00
2007 09 24  0555    54367   21300      0    1.88e+00    0    1.32e+00
2007 09 24  0600    54367   21600      0    1.87e+00    0    1.31e+00
2007 09 24  0605    54367   21900      0    1.89e+00    0    1.33e+00
2007 09 24  0610    54367   22200      0    1.90e+00    0    1.35e+00
2007 09 24  0615    54367   22500      0    1.95e+00    0    1.36e+00
2007 09 24  0620    54367   22800      0    1.92e+00    0    1.33e+00
2007 09 24  0625    54367   23100      0    1.87e+00    0    1.32e+00
2007 09 24  0630    54367   23400      0    1.90e+00    0    1.33e+00
2007 09 24  0635    54367   23700      0    1.93e+00    0    1.35e+00
2007 09 24  0640    54367   24000      0    1.91e+00    0    1.35e+00
2007 09 24  0645    54367   24300      0    1.90e+00    0    1.33e+00
2007 09 24  0650    54367   24600      0    1.91e+00    0    1.35e+00
2007 09 24  0655    54367   24900      0    1.94e+00    0    1.34e+00
2007 09 24  0700    54367   25200      0    1.89e+00    0    1.33e+00
2007 09 24  0705    54367   25500      0    1.88e+00    0    1.32e+00
2007 09 24  0710    54367   25800      0    1.88e+00    0    1.32e+00
2007 09 24  0715    54367   26100      0    1.87e+00    0    1.31e+00
2007 09 24  0720    54367   26400      0    1.92e+00    0    1.34e+00
2007 09 24  0725    54367   26700      0    1.88e+00    0    1.34e+00
2007 09 24  0730    54367   27000      0    1.89e+00    0    1.35e+00
2007 09 24  0735    54367   27300      0    1.90e+00    0    1.34e+00
2007 09 24  0740    54367   27600      0    1.88e+00    0    1.32e+00
2007 09 24  0745    54367   27900      0    1.89e+00    0    1.33e+00
2007 09 24  0750    54367   28200      0    1.90e+00    0    1.33e+00
2007 09 24  0755    54367   28500      0    1.88e+00    0    1.31e+00
2007 09 24  0800    54367   28800      0    1.88e+00    0    1.32e+00
2007 09 24  0805    54367   29100      0    1.90e+00    0    1.34e+00
2007 09 24  0810    54367   29400      0    1.90e+00    0    1.33e+00
2007 09 24  0815    54367   29700      0    1.95e+00    0    1.38e+00
2007 09 24  0820    54367   30000      0    1.87e+00    0    1.30e+00
2007 09 24  0825    54367   30300      0    1.89e+00    0    1.31e+00
2007 09 24  0830    54367   30600      0    1.89e+00    0    1.33e+00
2007 09 24  0835    54367   30900      0    1.87e+00    0    1.32e+00
2007 09 24  0840    54367   31200      0    1.89e+00    0    1.33e+00
2007 09 24  0845    54367   31500      0    1.91e+00    0    1.34e+00
2007 09 24  0850    54367   31800      0    1.84e+00    0    1.29e+00
2007 09 24  0855    54367   32100      0    1.91e+00    0    1.34e+00
2007 09 24  0900    54367   32400      0    1.87e+00    0    1.31e+00
2007 09 24  0905    54367   32700      0    1.90e+00    0    1.34e+00
2007 09 24  0910    54367   33000      0    1.87e+00    0    1.31e+00
2007 09 24  0915    54367   33300      0    1.88e+00    0    1.30e+00
2007 09 24  0920    54367   33600      0    1.89e+00    0    1.33e+00
2007 09 24  0925    54367   33900      0    1.90e+00    0    1.33e+00
2007 09 24  0930    54367   34200      0    1.88e+00    0    1.30e+00
2007 09 24  0935    54367   34500      0    1.89e+00    0    1.33e+00
2007 09 24  0940    54367   34800      0    1.89e+00    0    1.33e+00
2007 09 24  0945    54367   35100      0    1.85e+00    0    1.28e+00
2007 09 24  0950    54367   35400      0    1.86e+00    0    1.30e+00
2007 09 24  0955    54367   35700      0    1.88e+00    0    1.31e+00
2007 09 24  1000    54367   36000      0    1.89e+00    0    1.32e+00
2007 09 24  1005    54367   36300      0    1.86e+00    0    1.30e+00
2007 09 24  1010    54367   36600      0    1.91e+00    0    1.34e+00
2007 09 24  1015    54367   36900      0    1.89e+00    0    1.31e+00
2007 09 24  1020    54367   37200      0    1.86e+00    0    1.30e+00
2007 09 24  1025    54367   37500      0    1.86e+00    0    1.31e+00
2007 09 24  1030    54367   37800      0    1.86e+00    0    1.29e+00
2007 09 24  1035    54367   38100      0    1.85e+00    0    1.29e+00
2007 09 24  1040    54367   38400      0    1.89e+00    0    1.33e+00
2007 09 24  1045    54367   38700      0    1.87e+00    0    1.29e+00
2007 09 24  1050    54367   39000      0    1.85e+00    0    1.30e+00
2007 09 24  1055    54367   39300      0    1.89e+00    0    1.32e+00
2007 09 24  1100    54367   39600      0    1.88e+00    0    1.31e+00
2007 09 24  1105    54367   39900      0    1.82e+00    0    1.28e+00
2007 09 24  1110    54367   40200      0    1.89e+00    0    1.33e+00
2007 09 24  1115    54367   40500      0    1.89e+00    0    1.33e+00
2007 09 24  1120    54367   40800      0    1.92e+00    0    1.35e+00
2007 09 24  1125    54367   41100      0    1.86e+00    0    1.30e+00
2007 09 24  1130    54367   41400      0    1.84e+00    0    1.30e+00
2007 09 24  1135    54367   41700      0    1.90e+00    0    1.33e+00
2007 09 24  1140    54367   42000      0    1.90e+00    0    1.31e+00
2007 09 24  1145    54367   42300      0    1.87e+00    0    1.33e+00
2007 09 24  1150    54367   42600      0    1.87e+00    0    1.29e+00
2007 09 24  1155    54367   42900      0    1.86e+00    0    1.30e+00
2007 09 24  1200    54367   43200      0    1.87e+00    0    1.29e+00
2007 09 24  1205    54367   43500      0    1.87e+00    0    1.30e+00
2007 09 24  1210    54367   43800      0    1.86e+00    0    1.30e+00
2007 09 24  1215    54367   44100      0    1.90e+00    0    1.33e+00
2007 09 24  1220    54367   44400      0    1.91e+00    0    1.34e+00
2007 09 24  1225    54367   44700      0    1.91e+00    0    1.34e+00
2007 09 24  1230    54367   45000      0    1.86e+00    0    1.30e+00
2007 09 24  1235    54367   45300      0    1.87e+00    0    1.32e+00
2007 09 24  1240    54367   45600      0    1.84e+00    0    1.29e+00
2007 09 24  1245    54367   45900      0    1.90e+00    0    1.33e+00
2007 09 24  1250    54367   46200      0    1.84e+00    0    1.29e+00
2007 09 24  1255    54367   46500      0    1.87e+00    0    1.32e+00
2007 09 24  1300    54367   46800      0    1.86e+00    0    1.31e+00
2007 09 24  1305    54367   47100      0    1.85e+00    0    1.29e+00
2007 09 24  1310    54367   47400      0    1.87e+00    0    1.30e+00
2007 09 24  1315    54367   47700      0    1.86e+00    0    1.29e+00
2007 09 24  1320    54367   48000      0    1.92e+00    0    1.35e+00
2007 09 24  1325    54367   48300      0    1.86e+00    0    1.31e+00
2007 09 24  1330    54367   48600      0    1.91e+00    0    1.33e+00
2007 09 24  1335    54367   48900      0    1.89e+00    0    1.33e+00
2007 09 24  1340    54367   49200      0    1.90e+00    0    1.34e+00
2007 09 24  1345    54367   49500      0    1.86e+00    0    1.30e+00
2007 09 24  1350    54367   49800      0    1.93e+00    0    1.33e+00
2007 09 24  1355    54367   50100      0    1.86e+00    0    1.31e+00
2007 09 24  1400    54367   50400      0    1.88e+00    0    1.34e+00
2007 09 24  1405    54367   50700      0    1.86e+00    0    1.31e+00
2007 09 24  1410    54367   51000      0    1.82e+00    0    1.27e+00
2007 09 24  1415    54367   51300      0    1.84e+00    0    1.28e+00
2007 09 24  1420    54367   51600      0    1.90e+00    0    1.34e+00
2007 09 24  1425    54367   51900      0    1.89e+00    0    1.31e+00
2007 09 24  1430    54367   52200      0    1.92e+00    0    1.33e+00
2007 09 24  1435    54367   52500      0    1.92e+00    0    1.34e+00
2007 09 24  1440    54367   52800      0    1.92e+00    0    1.34e+00
2007 09 24  1445    54367   53100      0    1.95e+00    0    1.38e+00
2007 09 24  1450    54367   53400      0    1.85e+00    0    1.29e+00
2007 09 24  1455    54367   53700      0    1.82e+00    0    1.27e+00
2007 09 24  1500    54367   54000      0    1.91e+00    0    1.35e+00
2007 09 24  1505    54367   54300      0    1.89e+00    0    1.33e+00
2007 09 24  1510    54367   54600      0    1.92e+00    0    1.35e+00
2007 09 24  1515    54367   54900      0    1.87e+00    0    1.32e+00
2007 09 24  1520    54367   55200      0    1.89e+00    0    1.31e+00
2007 09 24  1525    54367   55500      0    1.91e+00    0    1.34e+00
2007 09 24  1530    54367   55800      0    1.87e+00    0    1.30e+00
2007 09 24  1535    54367   56100      0    1.89e+00    0    1.33e+00
2007 09 24  1540    54367   56400      0    1.90e+00    0    1.34e+00
2007 09 24  1545    54367   56700      0    1.87e+00    0    1.31e+00
2007 09 24  1550    54367   57000      0    1.94e+00    0    1.36e+00
2007 09 24  1555    54367   57300      0    1.89e+00    0    1.32e+00
2007 09 24  1600    54367   57600      0    1.91e+00    0    1.34e+00
2007 09 24  1605    54367   57900      0    1.81e+00    0    1.27e+00
2007 09 24  1610    54367   58200      0    1.89e+00    0    1.32e+00
2007 09 24  1615    54367   58500      0    1.89e+00    0    1.34e+00
2007 09 24  1620    54367   58800      0    1.88e+00    0    1.32e+00
2007 09 24  1625    54367   59100      0    1.90e+00    0    1.35e+00
2007 09 24  1630    54367   59400      0    1.90e+00    0    1.33e+00
2007 09 24  1635    54367   59700      0    1.87e+00    0    1.30e+00
2007 09 24  1640    54367   60000      0    1.92e+00    0    1.34e+00
2007 09 24  1645    54367   60300      0    1.90e+00    0    1.33e+00
2007 09 24  1650    54367   60600      0    1.89e+00    0    1.33e+00
2007 09 24  1655    54367   60900      9   -1.00e+05    9   -1.00e+05
2007 09 24  1700    54367   61200      9   -1.00e+05    9   -1.00e+05
2007 09 24  1705    54367   61500      0    1.87e+00    0    1.30e+00
2007 09 24  1710    54367   61800      0    1.88e+00    0    1.31e+00
2007 09 24  1715    54367   62100      0    1.86e+00    0    1.29e+00
2007 09 24  1720    54367   62400      0    1.92e+00    0    1.35e+00
2007 09 24  1725    54367   62700      9   -1.00e+05    9   -1.00e+05
2007 09 24  1730    54367   63000      9   -1.00e+05    9   -1.00e+05
2007 09 24  1735    54367   63300      9   -1.00e+05    9   -1.00e+05
2007 09 24  1740    54367   63600      9   -1.00e+05    9   -1.00e+05
2007 09 24  1745    54367   63900      9   -1.00e+05    9   -1.00e+05
2007 09 24  1750    54367   64200      9   -1.00e+05    9   -1.00e+05
2007 09 24  1755    54367   64500      0    1.86e+00    0    1.31e+00
2007 09 24  1800    54367   64800      0    1.91e+00    0    1.34e+00
2007 09 24  1805    54367   65100      0    1.89e+00    0    1.33e+00
2007 09 24  1810    54367   65400      0    1.89e+00    0    1.31e+00
2007 09 24  1815    54367   65700      0    1.89e+00    0    1.33e+00
2007 09 24  1820    54367   66000      0    1.92e+00    0    1.35e+00
2007 09 24  1825    54367   66300      0    1.86e+00    0    1.31e+00
2007 09 24  1830    54367   66600      0    1.90e+00    0    1.32e+00
2007 09 24  1835    54367   66900      0    1.87e+00    0    1.30e+00
2007 09 24  1840    54367   67200      0    1.85e+00    0    1.30e+00
2007 09 24  1845    54367   67500      0    1.93e+00    0    1.34e+00
2007 09 24  1850    54367   67800      0    1.93e+00    0    1.35e+00
2007 09 24  1855    54367   68100      0    1.92e+00    0    1.33e+00
2007 09 24  1900    54367   68400      0    1.91e+00    0    1.34e+00
2007 09 24  1905    54367   68700      0    1.94e+00    0    1.37e+00
2007 09 24  1910    54367   69000      0    1.87e+00    0    1.31e+00
2007 09 24  1915    54367   69300      0    1.89e+00    0    1.33e+00
2007 09 24  1920    54367   69600      0    1.92e+00    0    1.35e+00
2007 09 24  1925    54367   69900      0    1.89e+00    0    1.31e+00
2007 09 24  1930    54367   70200      0    1.86e+00    0    1.31e+00
2007 09 24  1935    54367   70500      0    1.87e+00    0    1.31e+00
2007 09 24  1940    54367   70800      0    1.88e+00    0    1.33e+00
2007 09 24  1945    54367   71100      0    1.89e+00    0    1.31e+00
2007 09 24  1950    54367   71400      0    1.90e+00    0    1.33e+00
2007 09 24  1955    54367   71700      0    1.91e+00    0    1.33e+00
2007 09 24  2000    54367   72000      0    1.90e+00    0    1.31e+00
2007 09 24  2005    54367   72300      0    1.90e+00    0    1.33e+00
2007 09 24  2010    54367   72600      0    1.92e+00    0    1.34e+00
2007 09 24  2015    54367   72900      0    1.89e+00    0    1.33e+00
2007 09 24  2020    54367   73200      0    1.92e+00    0    1.34e+00
2007 09 24  2025    54367   73500      0    1.88e+00    0    1.32e+00
2007 09 24  2030    54367   73800      0    1.91e+00    0    1.34e+00
2007 09 24  2035    54367   74100      0    1.90e+00    0    1.32e+00
2007 09 24  2040    54367   74400      0    1.90e+00    0    1.33e+00
2007 09 24  2045    54367   74700      0    1.90e+00    0    1.33e+00
2007 09 24  2050    54367   75000      0    1.87e+00    0    1.32e+00
2007 09 24  2055    54367   75300      0    1.91e+00    0    1.33e+00
2007 09 24  2100    54367   75600      0    1.89e+00    0    1.32e+00
2007 09 24  2105    54367   75900      0    1.83e+00    0    1.27e+00
2007 09 24  2110    54367   76200      0    1.87e+00    0    1.32e+00
2007 09 24  2115    54367   76500      0    1.87e+00    0    1.31e+00
2007 09 24  2120    54367   76800      0    1.88e+00    0    1.31e+00
2007 09 24  2125    54367   77100      0    1.87e+00    0    1.31e+00
2007 09 24  2130    54367   77400      0    1.86e+00    0    1.30e+00
2007 09 24  2135    54367   77700      0    1.90e+00    0    1.34e+00
2007 09 24  2140    54367   78000      0    1.92e+00    0    1.34e+00
2007 09 24  2145    54367   78300      0    1.84e+00    0    1.29e+00
2007 09 24  2150    54367   78600      0    1.87e+00    0    1.31e+00
2007 09 24  2155    54367   78900      0    1.85e+00    0    1.30e+00
2007 09 24  2200    54367   79200      0    1.87e+00    0    1.31e+00
2007 09 24  2205    54367   79500      0    1.88e+00    0    1.32e+00
2007 09 24  2210    54367   79800      0    1.85e+00    0    1.29e+00
2007 09 24  2215    54367   80100      0    1.88e+00    0    1.31e+00
2007 09 24  2220    54367   80400      0    1.88e+00    0    1.33e+00
2007 09 24  2225    54367   80700      0    1.89e+00    0    1.33e+00
2007 09 24  2230    54367   81000      0    1.90e+00    0    1.32e+00
2007 09 24  2235    54367   81300      0    1.90e+00    0    1.32e+00
2007 09 24  2240    54367   81600      0    1.90e+00    0    1.34e+00
2007 09 24  2245    54367   81900      0    1.89e+00    0    1.33e+00
2007 09 24  2250    54367   82200      0    1.96e+00    0    1.36e+00
2007 09 24  2255    54367   82500      0    1.89e+00    0    1.33e+00
2007 09 24  2300    54367   82800      0    1.90e+00    0    1.34e+00
2007 09 24  2305    54367   83100      0    1.86e+00    0    1.30e+00
2007 09 24  2310    54367   83400      0    1.85e+00    0    1.29e+00
2007 09 24  2315    54367   83700      0    1.90e+00    0    1.34e+00
2007 09 24  2320    54367   84000      0    1.88e+00    0    1.31e+00
2007 09 24  2325    54367   84300      0    1.90e+00    0    1.33e+00
2007 09 24  2330    54367   84600      0    1.88e+00    0    1.32e+00
2007 09 24  2335    54367   84900      0    1.89e+00    0    1.33e+00
2007 09 24  2340    54367   85200      0    1.86e+00    0    1.32e+00
2007 09 24  2345    54367   85500      0    1.91e+00    0    1.34e+00
2007 09 24  2350    54367   85800      0    1.90e+00    0    1.32e+00
2007 09 24  2355    54367   86100      0    1.92e+00    0    1.35e+00
