:Data_list: 20070204_ace_sis_5m.txt
:Created: 2007 Feb 05 0011 UT
# Prepared by the U.S. Dept. of Commerce, NOAA, Space Environment Center.
# Please send comments and suggestions to SEC.Webmaster@noaa.gov 
# 
# Units: proton flux p/cs2-sec-ster
# Status(S): 0 = nominal data, 1 to 8 = bad data record, 9 = no data
# Missing data values: -1.00e+05
# Source: ACE Satellite - Solar Isotope Spectrometer
#
# 5-minute averaged Real-time Integral Flux of High-energy Solar Protons
# 
#                 Modified Seconds
# UT Date   Time   Julian  of the      ---- Integral Proton Flux ----
# YR MO DA  HHMM     Day     Day       S    > 10 MeV    S    > 30 MeV
#--------------------------------------------------------------------
2007 02 04  0000    54135       0      0    1.71e+00    0    1.20e+00
2007 02 04  0005    54135     300      0    1.69e+00    0    1.19e+00
2007 02 04  0010    54135     600      0    1.70e+00    0    1.20e+00
2007 02 04  0015    54135     900      0    1.67e+00    0    1.15e+00
2007 02 04  0020    54135    1200      0    1.72e+00    0    1.22e+00
2007 02 04  0025    54135    1500      0    1.67e+00    0    1.17e+00
2007 02 04  0030    54135    1800      0    1.67e+00    0    1.16e+00
2007 02 04  0035    54135    2100      0    1.65e+00    0    1.15e+00
2007 02 04  0040    54135    2400      0    1.66e+00    0    1.17e+00
2007 02 04  0045    54135    2700      0    1.70e+00    0    1.19e+00
2007 02 04  0050    54135    3000      0    1.73e+00    0    1.21e+00
2007 02 04  0055    54135    3300      0    1.70e+00    0    1.20e+00
2007 02 04  0100    54135    3600      0    1.66e+00    0    1.17e+00
2007 02 04  0105    54135    3900      0    1.70e+00    0    1.19e+00
2007 02 04  0110    54135    4200      0    1.66e+00    0    1.16e+00
2007 02 04  0115    54135    4500      0    1.69e+00    0    1.18e+00
2007 02 04  0120    54135    4800      0    1.65e+00    0    1.15e+00
2007 02 04  0125    54135    5100      0    1.68e+00    0    1.18e+00
2007 02 04  0130    54135    5400      0    1.71e+00    0    1.21e+00
2007 02 04  0135    54135    5700      0    1.71e+00    0    1.19e+00
2007 02 04  0140    54135    6000      0    1.70e+00    0    1.18e+00
2007 02 04  0145    54135    6300      0    1.73e+00    0    1.21e+00
2007 02 04  0150    54135    6600      0    1.67e+00    0    1.17e+00
2007 02 04  0155    54135    6900      0    1.67e+00    0    1.16e+00
2007 02 04  0200    54135    7200      0    1.68e+00    0    1.19e+00
2007 02 04  0205    54135    7500      0    1.68e+00    0    1.17e+00
2007 02 04  0210    54135    7800      0    1.68e+00    0    1.18e+00
2007 02 04  0215    54135    8100      0    1.67e+00    0    1.17e+00
2007 02 04  0220    54135    8400      0    1.70e+00    0    1.19e+00
2007 02 04  0225    54135    8700      0    1.71e+00    0    1.19e+00
2007 02 04  0230    54135    9000      0    1.70e+00    0    1.18e+00
2007 02 04  0235    54135    9300      0    1.63e+00    0    1.14e+00
2007 02 04  0240    54135    9600      0    1.74e+00    0    1.24e+00
2007 02 04  0245    54135    9900      0    1.69e+00    0    1.19e+00
2007 02 04  0250    54135   10200      0    1.68e+00    0    1.18e+00
2007 02 04  0255    54135   10500      0    1.70e+00    0    1.19e+00
2007 02 04  0300    54135   10800      0    1.71e+00    0    1.20e+00
2007 02 04  0305    54135   11100      0    1.65e+00    0    1.17e+00
2007 02 04  0310    54135   11400      0    1.69e+00    0    1.18e+00
2007 02 04  0315    54135   11700      0    1.67e+00    0    1.17e+00
2007 02 04  0320    54135   12000      0    1.69e+00    0    1.20e+00
2007 02 04  0325    54135   12300      0    1.70e+00    0    1.20e+00
2007 02 04  0330    54135   12600      0    1.69e+00    0    1.19e+00
2007 02 04  0335    54135   12900      0    1.78e+00    0    1.28e+00
2007 02 04  0340    54135   13200      0    1.66e+00    0    1.16e+00
2007 02 04  0345    54135   13500      0    1.67e+00    0    1.18e+00
2007 02 04  0350    54135   13800      0    1.73e+00    0    1.21e+00
2007 02 04  0355    54135   14100      0    1.69e+00    0    1.19e+00
2007 02 04  0400    54135   14400      0    1.67e+00    0    1.16e+00
2007 02 04  0405    54135   14700      0    1.74e+00    0    1.24e+00
2007 02 04  0410    54135   15000      0    1.70e+00    0    1.20e+00
2007 02 04  0415    54135   15300      0    1.71e+00    0    1.20e+00
2007 02 04  0420    54135   15600      0    1.72e+00    0    1.19e+00
2007 02 04  0425    54135   15900      0    1.72e+00    0    1.21e+00
2007 02 04  0430    54135   16200      0    1.74e+00    0    1.22e+00
2007 02 04  0435    54135   16500      0    1.76e+00    0    1.24e+00
2007 02 04  0440    54135   16800      0    1.67e+00    0    1.18e+00
2007 02 04  0445    54135   17100      0    1.68e+00    0    1.17e+00
2007 02 04  0450    54135   17400      0    1.69e+00    0    1.19e+00
2007 02 04  0455    54135   17700      0    1.71e+00    0    1.20e+00
2007 02 04  0500    54135   18000      0    1.69e+00    0    1.17e+00
2007 02 04  0505    54135   18300      0    1.70e+00    0    1.19e+00
2007 02 04  0510    54135   18600      0    1.73e+00    0    1.20e+00
2007 02 04  0515    54135   18900      0    1.70e+00    0    1.20e+00
2007 02 04  0520    54135   19200      0    1.70e+00    0    1.20e+00
2007 02 04  0525    54135   19500      0    1.66e+00    0    1.15e+00
2007 02 04  0530    54135   19800      0    1.73e+00    0    1.21e+00
2007 02 04  0535    54135   20100      0    1.61e+00    0    1.13e+00
2007 02 04  0540    54135   20400      0    1.66e+00    0    1.17e+00
2007 02 04  0545    54135   20700      0    1.66e+00    0    1.16e+00
2007 02 04  0550    54135   21000      0    1.68e+00    0    1.17e+00
2007 02 04  0555    54135   21300      0    1.71e+00    0    1.19e+00
2007 02 04  0600    54135   21600      0    1.73e+00    0    1.20e+00
2007 02 04  0605    54135   21900      0    1.74e+00    0    1.23e+00
2007 02 04  0610    54135   22200      0    1.73e+00    0    1.22e+00
2007 02 04  0615    54135   22500      0    1.71e+00    0    1.20e+00
2007 02 04  0620    54135   22800      0    1.73e+00    0    1.21e+00
2007 02 04  0625    54135   23100      0    1.71e+00    0    1.20e+00
2007 02 04  0630    54135   23400      0    1.72e+00    0    1.20e+00
2007 02 04  0635    54135   23700      0    1.73e+00    0    1.22e+00
2007 02 04  0640    54135   24000      0    1.69e+00    0    1.18e+00
2007 02 04  0645    54135   24300      0    1.69e+00    0    1.18e+00
2007 02 04  0650    54135   24600      0    1.70e+00    0    1.19e+00
2007 02 04  0655    54135   24900      0    1.71e+00    0    1.20e+00
2007 02 04  0700    54135   25200      0    1.74e+00    0    1.21e+00
2007 02 04  0705    54135   25500      0    1.75e+00    0    1.23e+00
2007 02 04  0710    54135   25800      0    1.73e+00    0    1.22e+00
2007 02 04  0715    54135   26100      0    1.74e+00    0    1.23e+00
2007 02 04  0720    54135   26400      0    1.71e+00    0    1.20e+00
2007 02 04  0725    54135   26700      0    1.74e+00    0    1.22e+00
2007 02 04  0730    54135   27000      0    1.68e+00    0    1.18e+00
2007 02 04  0735    54135   27300      0    1.73e+00    0    1.21e+00
2007 02 04  0740    54135   27600      0    1.70e+00    0    1.18e+00
2007 02 04  0745    54135   27900      0    1.68e+00    0    1.17e+00
2007 02 04  0750    54135   28200      0    1.71e+00    0    1.21e+00
2007 02 04  0755    54135   28500      0    1.72e+00    0    1.22e+00
2007 02 04  0800    54135   28800      0    1.73e+00    0    1.23e+00
2007 02 04  0805    54135   29100      0    1.71e+00    0    1.20e+00
2007 02 04  0810    54135   29400      0    1.68e+00    0    1.18e+00
2007 02 04  0815    54135   29700      0    1.69e+00    0    1.18e+00
2007 02 04  0820    54135   30000      0    1.68e+00    0    1.19e+00
2007 02 04  0825    54135   30300      0    1.71e+00    0    1.18e+00
2007 02 04  0830    54135   30600      0    1.67e+00    0    1.17e+00
2007 02 04  0835    54135   30900      0    1.75e+00    0    1.23e+00
2007 02 04  0840    54135   31200      0    1.70e+00    0    1.19e+00
2007 02 04  0845    54135   31500      0    1.69e+00    0    1.19e+00
2007 02 04  0850    54135   31800      0    1.69e+00    0    1.19e+00
2007 02 04  0855    54135   32100      0    1.66e+00    0    1.15e+00
2007 02 04  0900    54135   32400      0    1.72e+00    0    1.21e+00
2007 02 04  0905    54135   32700      0    1.69e+00    0    1.20e+00
2007 02 04  0910    54135   33000      0    1.75e+00    0    1.23e+00
2007 02 04  0915    54135   33300      0    1.69e+00    0    1.20e+00
2007 02 04  0920    54135   33600      0    1.72e+00    0    1.21e+00
2007 02 04  0925    54135   33900      0    1.73e+00    0    1.20e+00
2007 02 04  0930    54135   34200      0    1.69e+00    0    1.18e+00
2007 02 04  0935    54135   34500      0    1.70e+00    0    1.18e+00
2007 02 04  0940    54135   34800      0    1.72e+00    0    1.21e+00
2007 02 04  0945    54135   35100      0    1.72e+00    0    1.20e+00
2007 02 04  0950    54135   35400      0    1.72e+00    0    1.22e+00
2007 02 04  0955    54135   35700      0    1.70e+00    0    1.21e+00
2007 02 04  1000    54135   36000      0    1.73e+00    0    1.22e+00
2007 02 04  1005    54135   36300      0    1.71e+00    0    1.20e+00
2007 02 04  1010    54135   36600      0    1.70e+00    0    1.18e+00
2007 02 04  1015    54135   36900      0    1.71e+00    0    1.21e+00
2007 02 04  1020    54135   37200      0    1.68e+00    0    1.18e+00
2007 02 04  1025    54135   37500      0    1.70e+00    0    1.21e+00
2007 02 04  1030    54135   37800      0    1.70e+00    0    1.19e+00
2007 02 04  1035    54135   38100      0    1.72e+00    0    1.20e+00
2007 02 04  1040    54135   38400      0    1.73e+00    0    1.21e+00
2007 02 04  1045    54135   38700      0    1.72e+00    0    1.22e+00
2007 02 04  1050    54135   39000      0    1.71e+00    0    1.20e+00
2007 02 04  1055    54135   39300      0    1.73e+00    0    1.20e+00
2007 02 04  1100    54135   39600      0    1.71e+00    0    1.20e+00
2007 02 04  1105    54135   39900      0    1.69e+00    0    1.19e+00
2007 02 04  1110    54135   40200      0    1.73e+00    0    1.22e+00
2007 02 04  1115    54135   40500      0    1.69e+00    0    1.17e+00
2007 02 04  1120    54135   40800      0    1.69e+00    0    1.19e+00
2007 02 04  1125    54135   41100      0    1.70e+00    0    1.20e+00
2007 02 04  1130    54135   41400      0    1.71e+00    0    1.20e+00
2007 02 04  1135    54135   41700      0    1.70e+00    0    1.21e+00
2007 02 04  1140    54135   42000      0    1.72e+00    0    1.19e+00
2007 02 04  1145    54135   42300      0    1.69e+00    0    1.18e+00
2007 02 04  1150    54135   42600      0    1.72e+00    0    1.20e+00
2007 02 04  1155    54135   42900      0    1.73e+00    0    1.22e+00
2007 02 04  1200    54135   43200      0    1.71e+00    0    1.19e+00
2007 02 04  1205    54135   43500      0    1.69e+00    0    1.19e+00
2007 02 04  1210    54135   43800      0    1.70e+00    0    1.21e+00
2007 02 04  1215    54135   44100      0    1.75e+00    0    1.25e+00
2007 02 04  1220    54135   44400      0    1.71e+00    0    1.19e+00
2007 02 04  1225    54135   44700      0    1.71e+00    0    1.20e+00
2007 02 04  1230    54135   45000      0    1.67e+00    0    1.18e+00
2007 02 04  1235    54135   45300      0    1.73e+00    0    1.21e+00
2007 02 04  1240    54135   45600      0    1.72e+00    0    1.20e+00
2007 02 04  1245    54135   45900      0    1.72e+00    0    1.19e+00
2007 02 04  1250    54135   46200      0    1.71e+00    0    1.19e+00
2007 02 04  1255    54135   46500      0    1.71e+00    0    1.20e+00
2007 02 04  1300    54135   46800      0    1.74e+00    0    1.23e+00
2007 02 04  1305    54135   47100      0    1.70e+00    0    1.19e+00
2007 02 04  1310    54135   47400      0    1.71e+00    0    1.19e+00
2007 02 04  1315    54135   47700      0    1.74e+00    0    1.21e+00
2007 02 04  1320    54135   48000      0    1.70e+00    0    1.19e+00
2007 02 04  1325    54135   48300      0    1.71e+00    0    1.21e+00
2007 02 04  1330    54135   48600      0    1.71e+00    0    1.20e+00
2007 02 04  1335    54135   48900      0    1.72e+00    0    1.20e+00
2007 02 04  1340    54135   49200      0    1.68e+00    0    1.18e+00
2007 02 04  1345    54135   49500      0    1.70e+00    0    1.19e+00
2007 02 04  1350    54135   49800      0    1.68e+00    0    1.19e+00
2007 02 04  1355    54135   50100      0    1.69e+00    0    1.18e+00
2007 02 04  1400    54135   50400      0    1.76e+00    0    1.24e+00
2007 02 04  1405    54135   50700      0    1.68e+00    0    1.17e+00
2007 02 04  1410    54135   51000      0    1.77e+00    0    1.23e+00
2007 02 04  1415    54135   51300      0    1.73e+00    0    1.21e+00
2007 02 04  1420    54135   51600      0    1.72e+00    0    1.21e+00
2007 02 04  1425    54135   51900      0    1.67e+00    0    1.16e+00
2007 02 04  1430    54135   52200      0    1.69e+00    0    1.18e+00
2007 02 04  1435    54135   52500      0    1.69e+00    0    1.17e+00
2007 02 04  1440    54135   52800      0    1.72e+00    0    1.20e+00
2007 02 04  1445    54135   53100      0    1.73e+00    0    1.22e+00
2007 02 04  1450    54135   53400      0    1.77e+00    0    1.23e+00
2007 02 04  1455    54135   53700      0    1.74e+00    0    1.21e+00
2007 02 04  1500    54135   54000      0    1.69e+00    0    1.18e+00
2007 02 04  1505    54135   54300      0    1.71e+00    0    1.21e+00
2007 02 04  1510    54135   54600      0    1.70e+00    0    1.19e+00
2007 02 04  1515    54135   54900      0    1.72e+00    0    1.20e+00
2007 02 04  1520    54135   55200      0    1.74e+00    0    1.22e+00
2007 02 04  1525    54135   55500      0    1.72e+00    0    1.21e+00
2007 02 04  1530    54135   55800      0    1.69e+00    0    1.18e+00
2007 02 04  1535    54135   56100      0    1.70e+00    0    1.19e+00
2007 02 04  1540    54135   56400      0    1.72e+00    0    1.20e+00
2007 02 04  1545    54135   56700      0    1.71e+00    0    1.19e+00
2007 02 04  1550    54135   57000      0    1.73e+00    0    1.21e+00
2007 02 04  1555    54135   57300      0    1.69e+00    0    1.18e+00
2007 02 04  1600    54135   57600      0    1.68e+00    0    1.18e+00
2007 02 04  1605    54135   57900      0    1.73e+00    0    1.21e+00
2007 02 04  1610    54135   58200      0    1.67e+00    0    1.18e+00
2007 02 04  1615    54135   58500      0    1.74e+00    0    1.22e+00
2007 02 04  1620    54135   58800      0    1.70e+00    0    1.19e+00
2007 02 04  1625    54135   59100      0    1.70e+00    0    1.18e+00
2007 02 04  1630    54135   59400      0    1.69e+00    0    1.19e+00
2007 02 04  1635    54135   59700      0    1.72e+00    0    1.20e+00
2007 02 04  1640    54135   60000      0    1.73e+00    0    1.21e+00
2007 02 04  1645    54135   60300      0    1.69e+00    0    1.21e+00
2007 02 04  1650    54135   60600      0    1.72e+00    0    1.22e+00
2007 02 04  1655    54135   60900      0    1.71e+00    0    1.19e+00
2007 02 04  1700    54135   61200      0    1.75e+00    0    1.23e+00
2007 02 04  1705    54135   61500      0    1.71e+00    0    1.20e+00
2007 02 04  1710    54135   61800      0    1.74e+00    0    1.22e+00
2007 02 04  1715    54135   62100      0    1.74e+00    0    1.23e+00
2007 02 04  1720    54135   62400      0    1.73e+00    0    1.21e+00
2007 02 04  1725    54135   62700      0    1.71e+00    0    1.19e+00
2007 02 04  1730    54135   63000      0    1.70e+00    0    1.19e+00
2007 02 04  1735    54135   63300      0    1.72e+00    0    1.21e+00
2007 02 04  1740    54135   63600      0    1.63e+00    0    1.14e+00
2007 02 04  1745    54135   63900      0    1.68e+00    0    1.18e+00
2007 02 04  1750    54135   64200      0    1.68e+00    0    1.19e+00
2007 02 04  1755    54135   64500      0    1.70e+00    0    1.18e+00
2007 02 04  1800    54135   64800      0    1.70e+00    0    1.19e+00
2007 02 04  1805    54135   65100      0    1.72e+00    0    1.20e+00
2007 02 04  1810    54135   65400      0    1.68e+00    0    1.18e+00
2007 02 04  1815    54135   65700      0    1.74e+00    0    1.23e+00
2007 02 04  1820    54135   66000      0    1.67e+00    0    1.16e+00
2007 02 04  1825    54135   66300      0    1.74e+00    0    1.24e+00
2007 02 04  1830    54135   66600      0    1.74e+00    0    1.23e+00
2007 02 04  1835    54135   66900      0    1.72e+00    0    1.21e+00
2007 02 04  1840    54135   67200      0    1.74e+00    0    1.21e+00
2007 02 04  1845    54135   67500      0    1.75e+00    0    1.23e+00
2007 02 04  1850    54135   67800      0    1.75e+00    0    1.24e+00
2007 02 04  1855    54135   68100      0    1.69e+00    0    1.18e+00
2007 02 04  1900    54135   68400      0    1.70e+00    0    1.19e+00
2007 02 04  1905    54135   68700      0    1.73e+00    0    1.21e+00
2007 02 04  1910    54135   69000      0    1.69e+00    0    1.20e+00
2007 02 04  1915    54135   69300      0    1.74e+00    0    1.22e+00
2007 02 04  1920    54135   69600      0    1.72e+00    0    1.22e+00
2007 02 04  1925    54135   69900      0    1.71e+00    0    1.20e+00
2007 02 04  1930    54135   70200      0    1.72e+00    0    1.19e+00
2007 02 04  1935    54135   70500      0    1.69e+00    0    1.20e+00
2007 02 04  1940    54135   70800      0    1.72e+00    0    1.21e+00
2007 02 04  1945    54135   71100      0    1.70e+00    0    1.19e+00
2007 02 04  1950    54135   71400      0    1.70e+00    0    1.19e+00
2007 02 04  1955    54135   71700      0    1.67e+00    0    1.18e+00
2007 02 04  2000    54135   72000      0    1.69e+00    0    1.18e+00
2007 02 04  2005    54135   72300      0    1.71e+00    0    1.20e+00
2007 02 04  2010    54135   72600      0    1.74e+00    0    1.22e+00
2007 02 04  2015    54135   72900      0    1.73e+00    0    1.20e+00
2007 02 04  2020    54135   73200      0    1.72e+00    0    1.21e+00
2007 02 04  2025    54135   73500      0    1.72e+00    0    1.21e+00
2007 02 04  2030    54135   73800      0    1.70e+00    0    1.19e+00
2007 02 04  2035    54135   74100      0    1.67e+00    0    1.17e+00
2007 02 04  2040    54135   74400      0    1.71e+00    0    1.19e+00
2007 02 04  2045    54135   74700      0    1.68e+00    0    1.18e+00
2007 02 04  2050    54135   75000      0    1.68e+00    0    1.18e+00
2007 02 04  2055    54135   75300      0    1.66e+00    0    1.17e+00
2007 02 04  2100    54135   75600      0    1.70e+00    0    1.19e+00
2007 02 04  2105    54135   75900      0    1.67e+00    0    1.16e+00
2007 02 04  2110    54135   76200      0    1.75e+00    0    1.22e+00
2007 02 04  2115    54135   76500      0    1.68e+00    0    1.18e+00
2007 02 04  2120    54135   76800      0    1.71e+00    0    1.21e+00
2007 02 04  2125    54135   77100      0    1.66e+00    0    1.16e+00
2007 02 04  2130    54135   77400      0    1.70e+00    0    1.19e+00
2007 02 04  2135    54135   77700      0    1.72e+00    0    1.20e+00
2007 02 04  2140    54135   78000      0    1.73e+00    0    1.21e+00
2007 02 04  2145    54135   78300      0    1.68e+00    0    1.19e+00
2007 02 04  2150    54135   78600      0    1.73e+00    0    1.21e+00
2007 02 04  2155    54135   78900      0    1.73e+00    0    1.21e+00
2007 02 04  2200    54135   79200      0    1.71e+00    0    1.19e+00
2007 02 04  2205    54135   79500      0    1.71e+00    0    1.19e+00
2007 02 04  2210    54135   79800      0    1.72e+00    0    1.21e+00
2007 02 04  2215    54135   80100      0    1.66e+00    0    1.17e+00
2007 02 04  2220    54135   80400      0    1.68e+00    0    1.18e+00
2007 02 04  2225    54135   80700      0    1.73e+00    0    1.22e+00
2007 02 04  2230    54135   81000      0    1.69e+00    0    1.18e+00
2007 02 04  2235    54135   81300      0    1.70e+00    0    1.19e+00
2007 02 04  2240    54135   81600      0    1.73e+00    0    1.21e+00
2007 02 04  2245    54135   81900      0    1.70e+00    0    1.18e+00
2007 02 04  2250    54135   82200      9   -1.00e+05    9   -1.00e+05
2007 02 04  2255    54135   82500      0    1.69e+00    0    1.18e+00
2007 02 04  2300    54135   82800      0    1.71e+00    0    1.20e+00
2007 02 04  2305    54135   83100      0    1.71e+00    0    1.19e+00
2007 02 04  2310    54135   83400      0    1.72e+00    0    1.20e+00
2007 02 04  2315    54135   83700      0    1.69e+00    0    1.19e+00
2007 02 04  2320    54135   84000      0    1.73e+00    0    1.22e+00
2007 02 04  2325    54135   84300      0    1.73e+00    0    1.22e+00
2007 02 04  2330    54135   84600      0    1.71e+00    0    1.21e+00
2007 02 04  2335    54135   84900      9   -1.00e+05    9   -1.00e+05
2007 02 04  2340    54135   85200      9   -1.00e+05    9   -1.00e+05
2007 02 04  2345    54135   85500      9   -1.00e+05    9   -1.00e+05
2007 02 04  2350    54135   85800      9   -1.00e+05    9   -1.00e+05
2007 02 04  2355    54135   86100      9   -1.00e+05    9   -1.00e+05
