:Data_list: 20070904_ace_sis_5m.txt
:Created: 2007 Sep 05 0011 UT
# Prepared by the U.S. Dept. of Commerce, NOAA, Space Environment Center.
# Please send comments and suggestions to SEC.Webmaster@noaa.gov 
# 
# Units: proton flux p/cs2-sec-ster
# Status(S): 0 = nominal data, 1 to 8 = bad data record, 9 = no data
# Missing data values: -1.00e+05
# Source: ACE Satellite - Solar Isotope Spectrometer
#
# 5-minute averaged Real-time Integral Flux of High-energy Solar Protons
# 
#                 Modified Seconds
# UT Date   Time   Julian  of the      ---- Integral Proton Flux ----
# YR MO DA  HHMM     Day     Day       S    > 10 MeV    S    > 30 MeV
#--------------------------------------------------------------------
2007 09 04  0000    54347       0      0    1.83e+00    0    1.28e+00
2007 09 04  0005    54347     300      0    1.85e+00    0    1.30e+00
2007 09 04  0010    54347     600      0    1.84e+00    0    1.29e+00
2007 09 04  0015    54347     900      0    1.84e+00    0    1.29e+00
2007 09 04  0020    54347    1200      0    1.86e+00    0    1.30e+00
2007 09 04  0025    54347    1500      0    1.92e+00    0    1.34e+00
2007 09 04  0030    54347    1800      0    1.87e+00    0    1.30e+00
2007 09 04  0035    54347    2100      0    1.87e+00    0    1.31e+00
2007 09 04  0040    54347    2400      0    1.87e+00    0    1.31e+00
2007 09 04  0045    54347    2700      0    1.89e+00    0    1.31e+00
2007 09 04  0050    54347    3000      0    1.90e+00    0    1.33e+00
2007 09 04  0055    54347    3300      0    1.88e+00    0    1.33e+00
2007 09 04  0100    54347    3600      0    1.92e+00    0    1.34e+00
2007 09 04  0105    54347    3900      0    1.92e+00    0    1.35e+00
2007 09 04  0110    54347    4200      0    1.88e+00    0    1.32e+00
2007 09 04  0115    54347    4500      0    1.85e+00    0    1.29e+00
2007 09 04  0120    54347    4800      0    1.86e+00    0    1.30e+00
2007 09 04  0125    54347    5100      0    1.90e+00    0    1.33e+00
2007 09 04  0130    54347    5400      0    1.82e+00    0    1.28e+00
2007 09 04  0135    54347    5700      0    1.85e+00    0    1.29e+00
2007 09 04  0140    54347    6000      0    1.86e+00    0    1.30e+00
2007 09 04  0145    54347    6300      0    1.89e+00    0    1.32e+00
2007 09 04  0150    54347    6600      0    1.87e+00    0    1.32e+00
2007 09 04  0155    54347    6900      0    1.89e+00    0    1.31e+00
2007 09 04  0200    54347    7200      0    1.85e+00    0    1.29e+00
2007 09 04  0205    54347    7500      0    1.89e+00    0    1.33e+00
2007 09 04  0210    54347    7800      0    1.87e+00    0    1.32e+00
2007 09 04  0215    54347    8100      0    1.89e+00    0    1.33e+00
2007 09 04  0220    54347    8400      0    1.86e+00    0    1.31e+00
2007 09 04  0225    54347    8700      0    1.91e+00    0    1.34e+00
2007 09 04  0230    54347    9000      0    1.88e+00    0    1.32e+00
2007 09 04  0235    54347    9300      0    1.86e+00    0    1.30e+00
2007 09 04  0240    54347    9600      0    1.91e+00    0    1.34e+00
2007 09 04  0245    54347    9900      0    1.86e+00    0    1.30e+00
2007 09 04  0250    54347   10200      0    1.86e+00    0    1.29e+00
2007 09 04  0255    54347   10500      0    1.89e+00    0    1.33e+00
2007 09 04  0300    54347   10800      0    1.88e+00    0    1.32e+00
2007 09 04  0305    54347   11100      0    1.87e+00    0    1.31e+00
2007 09 04  0310    54347   11400      0    1.91e+00    0    1.33e+00
2007 09 04  0315    54347   11700      0    1.88e+00    0    1.33e+00
2007 09 04  0320    54347   12000      0    1.88e+00    0    1.32e+00
2007 09 04  0325    54347   12300      0    1.88e+00    0    1.31e+00
2007 09 04  0330    54347   12600      0    1.87e+00    0    1.30e+00
2007 09 04  0335    54347   12900      0    1.88e+00    0    1.31e+00
2007 09 04  0340    54347   13200      0    1.87e+00    0    1.32e+00
2007 09 04  0345    54347   13500      0    1.88e+00    0    1.32e+00
2007 09 04  0350    54347   13800      0    1.82e+00    0    1.26e+00
2007 09 04  0355    54347   14100      0    1.92e+00    0    1.35e+00
2007 09 04  0400    54347   14400      0    1.86e+00    0    1.28e+00
2007 09 04  0405    54347   14700      0    1.89e+00    0    1.32e+00
2007 09 04  0410    54347   15000      0    1.87e+00    0    1.30e+00
2007 09 04  0415    54347   15300      0    1.88e+00    0    1.32e+00
2007 09 04  0420    54347   15600      0    1.87e+00    0    1.29e+00
2007 09 04  0425    54347   15900      0    1.93e+00    0    1.35e+00
2007 09 04  0430    54347   16200      0    1.87e+00    0    1.31e+00
2007 09 04  0435    54347   16500      0    1.87e+00    0    1.31e+00
2007 09 04  0440    54347   16800      0    1.86e+00    0    1.30e+00
2007 09 04  0445    54347   17100      0    1.87e+00    0    1.30e+00
2007 09 04  0450    54347   17400      0    1.87e+00    0    1.31e+00
2007 09 04  0455    54347   17700      0    1.88e+00    0    1.32e+00
2007 09 04  0500    54347   18000      0    1.88e+00    0    1.31e+00
2007 09 04  0505    54347   18300      0    1.85e+00    0    1.29e+00
2007 09 04  0510    54347   18600      0    1.85e+00    0    1.31e+00
2007 09 04  0515    54347   18900      0    1.87e+00    0    1.31e+00
2007 09 04  0520    54347   19200      0    1.84e+00    0    1.29e+00
2007 09 04  0525    54347   19500      0    1.88e+00    0    1.31e+00
2007 09 04  0530    54347   19800      0    1.88e+00    0    1.31e+00
2007 09 04  0535    54347   20100      0    1.89e+00    0    1.32e+00
2007 09 04  0540    54347   20400      0    1.92e+00    0    1.35e+00
2007 09 04  0545    54347   20700      0    1.85e+00    0    1.29e+00
2007 09 04  0550    54347   21000      0    1.88e+00    0    1.31e+00
2007 09 04  0555    54347   21300      0    1.85e+00    0    1.28e+00
2007 09 04  0600    54347   21600      0    1.85e+00    0    1.28e+00
2007 09 04  0605    54347   21900      0    1.89e+00    0    1.33e+00
2007 09 04  0610    54347   22200      0    1.93e+00    0    1.36e+00
2007 09 04  0615    54347   22500      0    1.88e+00    0    1.31e+00
2007 09 04  0620    54347   22800      0    1.88e+00    0    1.31e+00
2007 09 04  0625    54347   23100      0    1.88e+00    0    1.31e+00
2007 09 04  0630    54347   23400      0    1.87e+00    0    1.33e+00
2007 09 04  0635    54347   23700      0    1.84e+00    0    1.28e+00
2007 09 04  0640    54347   24000      0    1.91e+00    0    1.34e+00
2007 09 04  0645    54347   24300      0    1.93e+00    0    1.35e+00
2007 09 04  0650    54347   24600      0    1.92e+00    0    1.34e+00
2007 09 04  0655    54347   24900      0    1.93e+00    0    1.36e+00
2007 09 04  0700    54347   25200      0    1.89e+00    0    1.33e+00
2007 09 04  0705    54347   25500      0    1.87e+00    0    1.29e+00
2007 09 04  0710    54347   25800      0    1.88e+00    0    1.33e+00
2007 09 04  0715    54347   26100      0    1.89e+00    0    1.32e+00
2007 09 04  0720    54347   26400      0    1.88e+00    0    1.32e+00
2007 09 04  0725    54347   26700      0    1.90e+00    0    1.32e+00
2007 09 04  0730    54347   27000      0    1.88e+00    0    1.33e+00
2007 09 04  0735    54347   27300      0    1.89e+00    0    1.31e+00
2007 09 04  0740    54347   27600      0    1.88e+00    0    1.31e+00
2007 09 04  0745    54347   27900      0    1.88e+00    0    1.30e+00
2007 09 04  0750    54347   28200      0    1.87e+00    0    1.30e+00
2007 09 04  0755    54347   28500      0    1.86e+00    0    1.30e+00
2007 09 04  0800    54347   28800      0    1.90e+00    0    1.34e+00
2007 09 04  0805    54347   29100      0    1.88e+00    0    1.32e+00
2007 09 04  0810    54347   29400      0    1.89e+00    0    1.33e+00
2007 09 04  0815    54347   29700      0    1.88e+00    0    1.32e+00
2007 09 04  0820    54347   30000      0    1.88e+00    0    1.32e+00
2007 09 04  0825    54347   30300      0    1.87e+00    0    1.31e+00
2007 09 04  0830    54347   30600      0    1.89e+00    0    1.32e+00
2007 09 04  0835    54347   30900      0    1.90e+00    0    1.33e+00
2007 09 04  0840    54347   31200      0    1.91e+00    0    1.34e+00
2007 09 04  0845    54347   31500      0    1.92e+00    0    1.35e+00
2007 09 04  0850    54347   31800      0    1.88e+00    0    1.32e+00
2007 09 04  0855    54347   32100      0    1.88e+00    0    1.34e+00
2007 09 04  0900    54347   32400      0    1.83e+00    0    1.28e+00
2007 09 04  0905    54347   32700      0    1.77e+00    0    1.23e+00
2007 09 04  0910    54347   33000      0    1.88e+00    0    1.32e+00
2007 09 04  0915    54347   33300      0    1.89e+00    0    1.34e+00
2007 09 04  0920    54347   33600      0    1.78e+00    0    1.24e+00
2007 09 04  0925    54347   33900      0    1.87e+00    0    1.30e+00
2007 09 04  0930    54347   34200      0    1.88e+00    0    1.30e+00
2007 09 04  0935    54347   34500      0    1.89e+00    0    1.32e+00
2007 09 04  0940    54347   34800      0    1.92e+00    0    1.35e+00
2007 09 04  0945    54347   35100      0    1.93e+00    0    1.36e+00
2007 09 04  0950    54347   35400      0    1.87e+00    0    1.30e+00
2007 09 04  0955    54347   35700      0    1.89e+00    0    1.33e+00
2007 09 04  1000    54347   36000      0    1.91e+00    0    1.33e+00
2007 09 04  1005    54347   36300      0    1.89e+00    0    1.33e+00
2007 09 04  1010    54347   36600      0    1.89e+00    0    1.32e+00
2007 09 04  1015    54347   36900      0    1.88e+00    0    1.32e+00
2007 09 04  1020    54347   37200      0    1.87e+00    0    1.30e+00
2007 09 04  1025    54347   37500      0    1.88e+00    0    1.32e+00
2007 09 04  1030    54347   37800      0    1.91e+00    0    1.34e+00
2007 09 04  1035    54347   38100      0    1.89e+00    0    1.32e+00
2007 09 04  1040    54347   38400      0    1.89e+00    0    1.32e+00
2007 09 04  1045    54347   38700      0    1.89e+00    0    1.32e+00
2007 09 04  1050    54347   39000      0    1.89e+00    0    1.32e+00
2007 09 04  1055    54347   39300      0    1.84e+00    0    1.30e+00
2007 09 04  1100    54347   39600      0    1.91e+00    0    1.33e+00
2007 09 04  1105    54347   39900      0    1.91e+00    0    1.34e+00
2007 09 04  1110    54347   40200      0    1.92e+00    0    1.35e+00
2007 09 04  1115    54347   40500      0    1.87e+00    0    1.32e+00
2007 09 04  1120    54347   40800      0    1.89e+00    0    1.33e+00
2007 09 04  1125    54347   41100      0    1.92e+00    0    1.36e+00
2007 09 04  1130    54347   41400      0    1.86e+00    0    1.29e+00
2007 09 04  1135    54347   41700      0    1.87e+00    0    1.32e+00
2007 09 04  1140    54347   42000      0    1.89e+00    0    1.33e+00
2007 09 04  1145    54347   42300      0    1.85e+00    0    1.28e+00
2007 09 04  1150    54347   42600      0    1.88e+00    0    1.30e+00
2007 09 04  1155    54347   42900      0    1.85e+00    0    1.28e+00
2007 09 04  1200    54347   43200      0    2.01e+00    0    1.29e+00
2007 09 04  1205    54347   43500      0    1.88e+00    0    1.32e+00
2007 09 04  1210    54347   43800      0    1.84e+00    0    1.28e+00
2007 09 04  1215    54347   44100      0    1.87e+00    0    1.32e+00
2007 09 04  1220    54347   44400      0    1.90e+00    0    1.33e+00
2007 09 04  1225    54347   44700      0    1.89e+00    0    1.30e+00
2007 09 04  1230    54347   45000      0    1.86e+00    0    1.31e+00
2007 09 04  1235    54347   45300      0    1.91e+00    0    1.33e+00
2007 09 04  1240    54347   45600      0    1.90e+00    0    1.33e+00
2007 09 04  1245    54347   45900      0    1.87e+00    0    1.30e+00
2007 09 04  1250    54347   46200      0    1.88e+00    0    1.32e+00
2007 09 04  1255    54347   46500      0    1.88e+00    0    1.31e+00
2007 09 04  1300    54347   46800      0    1.86e+00    0    1.29e+00
2007 09 04  1305    54347   47100      0    1.90e+00    0    1.34e+00
2007 09 04  1310    54347   47400      0    1.83e+00    0    1.29e+00
2007 09 04  1315    54347   47700      0    1.86e+00    0    1.29e+00
2007 09 04  1320    54347   48000      0    1.87e+00    0    1.31e+00
2007 09 04  1325    54347   48300      0    1.88e+00    0    1.33e+00
2007 09 04  1330    54347   48600      0    1.86e+00    0    1.31e+00
2007 09 04  1335    54347   48900      0    1.91e+00    0    1.33e+00
2007 09 04  1340    54347   49200      0    1.91e+00    0    1.34e+00
2007 09 04  1345    54347   49500      0    1.89e+00    0    1.31e+00
2007 09 04  1350    54347   49800      0    1.89e+00    0    1.32e+00
2007 09 04  1355    54347   50100      0    1.86e+00    0    1.31e+00
2007 09 04  1400    54347   50400      0    1.92e+00    0    1.36e+00
2007 09 04  1405    54347   50700      0    1.90e+00    0    1.33e+00
2007 09 04  1410    54347   51000      0    1.90e+00    0    1.33e+00
2007 09 04  1415    54347   51300      0    1.88e+00    0    1.31e+00
2007 09 04  1420    54347   51600      0    1.88e+00    0    1.29e+00
2007 09 04  1425    54347   51900      0    1.89e+00    0    1.32e+00
2007 09 04  1430    54347   52200      0    1.85e+00    0    1.29e+00
2007 09 04  1435    54347   52500      0    1.89e+00    0    1.31e+00
2007 09 04  1440    54347   52800      0    1.87e+00    0    1.30e+00
2007 09 04  1445    54347   53100      0    1.91e+00    0    1.33e+00
2007 09 04  1450    54347   53400      0    1.93e+00    0    1.35e+00
2007 09 04  1455    54347   53700      0    1.87e+00    0    1.31e+00
2007 09 04  1500    54347   54000      0    1.87e+00    0    1.30e+00
2007 09 04  1505    54347   54300      0    1.86e+00    0    1.30e+00
2007 09 04  1510    54347   54600      0    1.87e+00    0    1.31e+00
2007 09 04  1515    54347   54900      0    1.86e+00    0    1.30e+00
2007 09 04  1520    54347   55200      0    1.90e+00    0    1.33e+00
2007 09 04  1525    54347   55500      0    1.87e+00    0    1.31e+00
2007 09 04  1530    54347   55800      0    1.89e+00    0    1.33e+00
2007 09 04  1535    54347   56100      0    1.90e+00    0    1.32e+00
2007 09 04  1540    54347   56400      0    1.90e+00    0    1.33e+00
2007 09 04  1545    54347   56700      0    1.90e+00    0    1.33e+00
2007 09 04  1550    54347   57000      0    1.87e+00    0    1.31e+00
2007 09 04  1555    54347   57300      0    1.90e+00    0    1.33e+00
2007 09 04  1600    54347   57600      0    1.91e+00    0    1.35e+00
2007 09 04  1605    54347   57900      0    1.91e+00    0    1.33e+00
2007 09 04  1610    54347   58200      9   -1.00e+05    9   -1.00e+05
2007 09 04  1615    54347   58500      9   -1.00e+05    9   -1.00e+05
2007 09 04  1620    54347   58800      0    1.86e+00    0    1.30e+00
2007 09 04  1625    54347   59100      0    1.90e+00    0    1.33e+00
2007 09 04  1630    54347   59400      0    1.87e+00    0    1.30e+00
2007 09 04  1635    54347   59700      0    1.91e+00    0    1.34e+00
2007 09 04  1640    54347   60000      0    1.86e+00    0    1.30e+00
2007 09 04  1645    54347   60300      0    1.90e+00    0    1.33e+00
2007 09 04  1650    54347   60600      0    1.89e+00    0    1.31e+00
2007 09 04  1655    54347   60900      0    1.88e+00    0    1.32e+00
2007 09 04  1700    54347   61200      0    1.87e+00    0    1.31e+00
2007 09 04  1705    54347   61500      0    1.76e+00    0    1.22e+00
2007 09 04  1710    54347   61800      0    1.89e+00    0    1.33e+00
2007 09 04  1715    54347   62100      0    1.89e+00    0    1.32e+00
2007 09 04  1720    54347   62400      0    1.90e+00    0    1.33e+00
2007 09 04  1725    54347   62700      0    1.92e+00    0    1.34e+00
2007 09 04  1730    54347   63000      0    1.89e+00    0    1.33e+00
2007 09 04  1735    54347   63300      0    1.92e+00    0    1.33e+00
2007 09 04  1740    54347   63600      0    1.93e+00    0    1.35e+00
2007 09 04  1745    54347   63900      0    1.91e+00    0    1.34e+00
2007 09 04  1750    54347   64200      0    1.93e+00    0    1.35e+00
2007 09 04  1755    54347   64500      0    1.86e+00    0    1.30e+00
2007 09 04  1800    54347   64800      0    1.90e+00    0    1.34e+00
2007 09 04  1805    54347   65100      0    1.94e+00    0    1.35e+00
2007 09 04  1810    54347   65400      0    1.90e+00    0    1.33e+00
2007 09 04  1815    54347   65700      0    1.91e+00    0    1.34e+00
2007 09 04  1820    54347   66000      0    1.87e+00    0    1.30e+00
2007 09 04  1825    54347   66300      0    1.88e+00    0    1.31e+00
2007 09 04  1830    54347   66600      0    1.85e+00    0    1.29e+00
2007 09 04  1835    54347   66900      0    1.90e+00    0    1.32e+00
2007 09 04  1840    54347   67200      0    1.89e+00    0    1.32e+00
2007 09 04  1845    54347   67500      0    1.88e+00    0    1.33e+00
2007 09 04  1850    54347   67800      0    1.88e+00    0    1.32e+00
2007 09 04  1855    54347   68100      0    1.91e+00    0    1.32e+00
2007 09 04  1900    54347   68400      0    1.88e+00    0    1.31e+00
2007 09 04  1905    54347   68700      0    1.93e+00    0    1.33e+00
2007 09 04  1910    54347   69000      0    1.85e+00    0    1.30e+00
2007 09 04  1915    54347   69300      0    1.89e+00    0    1.32e+00
2007 09 04  1920    54347   69600      0    1.91e+00    0    1.36e+00
2007 09 04  1925    54347   69900      0    1.86e+00    0    1.29e+00
2007 09 04  1930    54347   70200      0    1.86e+00    0    1.30e+00
2007 09 04  1935    54347   70500      0    1.88e+00    0    1.33e+00
2007 09 04  1940    54347   70800      0    1.87e+00    0    1.32e+00
2007 09 04  1945    54347   71100      0    1.90e+00    0    1.34e+00
2007 09 04  1950    54347   71400      0    1.92e+00    0    1.34e+00
2007 09 04  1955    54347   71700      0    1.90e+00    0    1.32e+00
2007 09 04  2000    54347   72000      0    1.92e+00    0    1.34e+00
2007 09 04  2005    54347   72300      0    1.90e+00    0    1.32e+00
2007 09 04  2010    54347   72600      0    1.92e+00    0    1.34e+00
2007 09 04  2015    54347   72900      0    1.88e+00    0    1.32e+00
2007 09 04  2020    54347   73200      0    1.93e+00    0    1.34e+00
2007 09 04  2025    54347   73500      0    1.91e+00    0    1.35e+00
2007 09 04  2030    54347   73800      0    1.93e+00    0    1.36e+00
2007 09 04  2035    54347   74100      0    1.90e+00    0    1.31e+00
2007 09 04  2040    54347   74400      0    1.91e+00    0    1.35e+00
2007 09 04  2045    54347   74700      0    1.94e+00    0    1.37e+00
2007 09 04  2050    54347   75000      0    1.92e+00    0    1.33e+00
2007 09 04  2055    54347   75300      0    1.93e+00    0    1.35e+00
2007 09 04  2100    54347   75600      0    1.93e+00    0    1.36e+00
2007 09 04  2105    54347   75900      0    1.88e+00    0    1.32e+00
2007 09 04  2110    54347   76200      0    1.87e+00    0    1.31e+00
2007 09 04  2115    54347   76500      0    1.90e+00    0    1.33e+00
2007 09 04  2120    54347   76800      0    1.90e+00    0    1.33e+00
2007 09 04  2125    54347   77100      0    1.92e+00    0    1.34e+00
2007 09 04  2130    54347   77400      0    1.89e+00    0    1.33e+00
2007 09 04  2135    54347   77700      0    1.92e+00    0    1.35e+00
2007 09 04  2140    54347   78000      0    1.93e+00    0    1.35e+00
2007 09 04  2145    54347   78300      0    1.91e+00    0    1.35e+00
2007 09 04  2150    54347   78600      0    1.91e+00    0    1.35e+00
2007 09 04  2155    54347   78900      0    1.93e+00    0    1.34e+00
2007 09 04  2200    54347   79200      0    1.93e+00    0    1.35e+00
2007 09 04  2205    54347   79500      0    1.88e+00    0    1.31e+00
2007 09 04  2210    54347   79800      0    1.93e+00    0    1.35e+00
2007 09 04  2215    54347   80100      0    1.91e+00    0    1.33e+00
2007 09 04  2220    54347   80400      0    1.94e+00    0    1.35e+00
2007 09 04  2225    54347   80700      0    1.93e+00    0    1.34e+00
2007 09 04  2230    54347   81000      0    1.91e+00    0    1.34e+00
2007 09 04  2235    54347   81300      0    1.87e+00    0    1.31e+00
2007 09 04  2240    54347   81600      0    1.94e+00    0    1.35e+00
2007 09 04  2245    54347   81900      0    1.96e+00    0    1.37e+00
2007 09 04  2250    54347   82200      0    1.92e+00    0    1.35e+00
2007 09 04  2255    54347   82500      0    1.94e+00    0    1.36e+00
2007 09 04  2300    54347   82800      0    1.89e+00    0    1.33e+00
2007 09 04  2305    54347   83100      0    1.90e+00    0    1.34e+00
2007 09 04  2310    54347   83400      0    1.86e+00    0    1.29e+00
2007 09 04  2315    54347   83700      0    1.87e+00    0    1.31e+00
2007 09 04  2320    54347   84000      0    1.91e+00    0    1.34e+00
2007 09 04  2325    54347   84300      0    1.89e+00    0    1.33e+00
2007 09 04  2330    54347   84600      0    1.90e+00    0    1.33e+00
2007 09 04  2335    54347   84900      0    1.98e+00    0    1.40e+00
2007 09 04  2340    54347   85200      0    1.90e+00    0    1.34e+00
2007 09 04  2345    54347   85500      0    1.92e+00    0    1.36e+00
2007 09 04  2350    54347   85800      0    1.92e+00    0    1.34e+00
2007 09 04  2355    54347   86100      0    1.92e+00    0    1.35e+00
