:Data_list: 20070420_ace_sis_5m.txt
:Created: 2007 Apr 21 0011 UT
# Prepared by the U.S. Dept. of Commerce, NOAA, Space Environment Center.
# Please send comments and suggestions to SEC.Webmaster@noaa.gov 
# 
# Units: proton flux p/cs2-sec-ster
# Status(S): 0 = nominal data, 1 to 8 = bad data record, 9 = no data
# Missing data values: -1.00e+05
# Source: ACE Satellite - Solar Isotope Spectrometer
#
# 5-minute averaged Real-time Integral Flux of High-energy Solar Protons
# 
#                 Modified Seconds
# UT Date   Time   Julian  of the      ---- Integral Proton Flux ----
# YR MO DA  HHMM     Day     Day       S    > 10 MeV    S    > 30 MeV
#--------------------------------------------------------------------
2007 04 20  0000    54210       0      0    1.86e+00    0    1.29e+00
2007 04 20  0005    54210     300      0    1.84e+00    0    1.29e+00
2007 04 20  0010    54210     600      0    1.85e+00    0    1.29e+00
2007 04 20  0015    54210     900      0    1.85e+00    0    1.29e+00
2007 04 20  0020    54210    1200      0    1.91e+00    0    1.32e+00
2007 04 20  0025    54210    1500      0    1.88e+00    0    1.31e+00
2007 04 20  0030    54210    1800      0    1.82e+00    0    1.27e+00
2007 04 20  0035    54210    2100      0    1.85e+00    0    1.29e+00
2007 04 20  0040    54210    2400      0    1.86e+00    0    1.30e+00
2007 04 20  0045    54210    2700      0    1.87e+00    0    1.32e+00
2007 04 20  0050    54210    3000      0    1.87e+00    0    1.31e+00
2007 04 20  0055    54210    3300      0    1.86e+00    0    1.30e+00
2007 04 20  0100    54210    3600      0    1.89e+00    0    1.34e+00
2007 04 20  0105    54210    3900      0    1.85e+00    0    1.30e+00
2007 04 20  0110    54210    4200      0    1.86e+00    0    1.30e+00
2007 04 20  0115    54210    4500      0    1.88e+00    0    1.30e+00
2007 04 20  0120    54210    4800      0    1.90e+00    0    1.34e+00
2007 04 20  0125    54210    5100      0    1.88e+00    0    1.31e+00
2007 04 20  0130    54210    5400      0    1.85e+00    0    1.29e+00
2007 04 20  0135    54210    5700      0    1.84e+00    0    1.27e+00
2007 04 20  0140    54210    6000      0    1.84e+00    0    1.29e+00
2007 04 20  0145    54210    6300      0    1.90e+00    0    1.34e+00
2007 04 20  0150    54210    6600      0    1.88e+00    0    1.33e+00
2007 04 20  0155    54210    6900      0    1.84e+00    0    1.28e+00
2007 04 20  0200    54210    7200      0    1.88e+00    0    1.32e+00
2007 04 20  0205    54210    7500      0    1.90e+00    0    1.33e+00
2007 04 20  0210    54210    7800      0    1.83e+00    0    1.28e+00
2007 04 20  0215    54210    8100      0    1.86e+00    0    1.29e+00
2007 04 20  0220    54210    8400      0    1.85e+00    0    1.31e+00
2007 04 20  0225    54210    8700      0    1.81e+00    0    1.26e+00
2007 04 20  0230    54210    9000      0    1.90e+00    0    1.32e+00
2007 04 20  0235    54210    9300      0    1.90e+00    0    1.33e+00
2007 04 20  0240    54210    9600      0    1.86e+00    0    1.31e+00
2007 04 20  0245    54210    9900      0    1.82e+00    0    1.28e+00
2007 04 20  0250    54210   10200      0    1.88e+00    0    1.31e+00
2007 04 20  0255    54210   10500      0    1.86e+00    0    1.29e+00
2007 04 20  0300    54210   10800      0    1.83e+00    0    1.29e+00
2007 04 20  0305    54210   11100      0    1.86e+00    0    1.31e+00
2007 04 20  0310    54210   11400      0    1.89e+00    0    1.32e+00
2007 04 20  0315    54210   11700      0    1.88e+00    0    1.32e+00
2007 04 20  0320    54210   12000      0    1.88e+00    0    1.33e+00
2007 04 20  0325    54210   12300      0    1.86e+00    0    1.29e+00
2007 04 20  0330    54210   12600      0    1.87e+00    0    1.31e+00
2007 04 20  0335    54210   12900      0    1.84e+00    0    1.28e+00
2007 04 20  0340    54210   13200      0    1.84e+00    0    1.28e+00
2007 04 20  0345    54210   13500      0    1.85e+00    0    1.28e+00
2007 04 20  0350    54210   13800      0    1.84e+00    0    1.29e+00
2007 04 20  0355    54210   14100      0    1.82e+00    0    1.27e+00
2007 04 20  0400    54210   14400      0    1.87e+00    0    1.31e+00
2007 04 20  0405    54210   14700      0    1.88e+00    0    1.30e+00
2007 04 20  0410    54210   15000      0    1.88e+00    0    1.31e+00
2007 04 20  0415    54210   15300      0    1.84e+00    0    1.29e+00
2007 04 20  0420    54210   15600      0    1.84e+00    0    1.29e+00
2007 04 20  0425    54210   15900      0    1.86e+00    0    1.30e+00
2007 04 20  0430    54210   16200      0    1.84e+00    0    1.29e+00
2007 04 20  0435    54210   16500      0    1.87e+00    0    1.30e+00
2007 04 20  0440    54210   16800      0    1.85e+00    0    1.28e+00
2007 04 20  0445    54210   17100      0    1.83e+00    0    1.28e+00
2007 04 20  0450    54210   17400      0    1.89e+00    0    1.33e+00
2007 04 20  0455    54210   17700      0    1.92e+00    0    1.34e+00
2007 04 20  0500    54210   18000      0    1.89e+00    0    1.30e+00
2007 04 20  0505    54210   18300      0    1.84e+00    0    1.28e+00
2007 04 20  0510    54210   18600      0    1.86e+00    0    1.30e+00
2007 04 20  0515    54210   18900      0    1.86e+00    0    1.30e+00
2007 04 20  0520    54210   19200      0    1.89e+00    0    1.31e+00
2007 04 20  0525    54210   19500      0    1.91e+00    0    1.35e+00
2007 04 20  0530    54210   19800      0    1.87e+00    0    1.31e+00
2007 04 20  0535    54210   20100      0    1.90e+00    0    1.34e+00
2007 04 20  0540    54210   20400      0    1.86e+00    0    1.30e+00
2007 04 20  0545    54210   20700      0    1.87e+00    0    1.32e+00
2007 04 20  0550    54210   21000      0    1.90e+00    0    1.33e+00
2007 04 20  0555    54210   21300      0    1.95e+00    0    1.36e+00
2007 04 20  0600    54210   21600      0    1.88e+00    0    1.32e+00
2007 04 20  0605    54210   21900      0    1.87e+00    0    1.31e+00
2007 04 20  0610    54210   22200      0    1.85e+00    0    1.31e+00
2007 04 20  0615    54210   22500      0    1.88e+00    0    1.32e+00
2007 04 20  0620    54210   22800      0    1.92e+00    0    1.36e+00
2007 04 20  0625    54210   23100      0    1.90e+00    0    1.32e+00
2007 04 20  0630    54210   23400      0    1.90e+00    0    1.34e+00
2007 04 20  0635    54210   23700      0    1.93e+00    0    1.35e+00
2007 04 20  0640    54210   24000      0    1.88e+00    0    1.33e+00
2007 04 20  0645    54210   24300      0    1.89e+00    0    1.33e+00
2007 04 20  0650    54210   24600      0    1.94e+00    0    1.36e+00
2007 04 20  0655    54210   24900      0    1.80e+00    0    1.26e+00
2007 04 20  0700    54210   25200      0    1.88e+00    0    1.31e+00
2007 04 20  0705    54210   25500      0    1.86e+00    0    1.30e+00
2007 04 20  0710    54210   25800      0    1.90e+00    0    1.34e+00
2007 04 20  0715    54210   26100      0    1.89e+00    0    1.33e+00
2007 04 20  0720    54210   26400      0    1.89e+00    0    1.33e+00
2007 04 20  0725    54210   26700      0    1.88e+00    0    1.32e+00
2007 04 20  0730    54210   27000      0    1.88e+00    0    1.32e+00
2007 04 20  0735    54210   27300      0    1.92e+00    0    1.34e+00
2007 04 20  0740    54210   27600      0    1.91e+00    0    1.33e+00
2007 04 20  0745    54210   27900      0    1.84e+00    0    1.28e+00
2007 04 20  0750    54210   28200      0    1.89e+00    0    1.32e+00
2007 04 20  0755    54210   28500      0    1.90e+00    0    1.33e+00
2007 04 20  0800    54210   28800      0    1.92e+00    0    1.34e+00
2007 04 20  0805    54210   29100      0    1.86e+00    0    1.29e+00
2007 04 20  0810    54210   29400      0    1.87e+00    0    1.31e+00
2007 04 20  0815    54210   29700      0    1.90e+00    0    1.33e+00
2007 04 20  0820    54210   30000      0    1.85e+00    0    1.30e+00
2007 04 20  0825    54210   30300      0    1.90e+00    0    1.34e+00
2007 04 20  0830    54210   30600      0    1.92e+00    0    1.34e+00
2007 04 20  0835    54210   30900      0    1.87e+00    0    1.30e+00
2007 04 20  0840    54210   31200      0    1.91e+00    0    1.33e+00
2007 04 20  0845    54210   31500      0    1.94e+00    0    1.35e+00
2007 04 20  0850    54210   31800      0    1.86e+00    0    1.30e+00
2007 04 20  0855    54210   32100      0    1.87e+00    0    1.30e+00
2007 04 20  0900    54210   32400      0    1.89e+00    0    1.33e+00
2007 04 20  0905    54210   32700      0    1.89e+00    0    1.32e+00
2007 04 20  0910    54210   33000      0    1.89e+00    0    1.31e+00
2007 04 20  0915    54210   33300      0    1.88e+00    0    1.31e+00
2007 04 20  0920    54210   33600      0    1.89e+00    0    1.33e+00
2007 04 20  0925    54210   33900      0    1.88e+00    0    1.32e+00
2007 04 20  0930    54210   34200      0    1.88e+00    0    1.32e+00
2007 04 20  0935    54210   34500      0    1.90e+00    0    1.34e+00
2007 04 20  0940    54210   34800      0    1.85e+00    0    1.30e+00
2007 04 20  0945    54210   35100      0    1.84e+00    0    1.29e+00
2007 04 20  0950    54210   35400      0    1.89e+00    0    1.31e+00
2007 04 20  0955    54210   35700      0    1.86e+00    0    1.30e+00
2007 04 20  1000    54210   36000      0    1.87e+00    0    1.32e+00
2007 04 20  1005    54210   36300      0    1.86e+00    0    1.30e+00
2007 04 20  1010    54210   36600      0    1.85e+00    0    1.29e+00
2007 04 20  1015    54210   36900      0    1.90e+00    0    1.31e+00
2007 04 20  1020    54210   37200      0    1.86e+00    0    1.32e+00
2007 04 20  1025    54210   37500      0    1.85e+00    0    1.29e+00
2007 04 20  1030    54210   37800      0    1.87e+00    0    1.30e+00
2007 04 20  1035    54210   38100      0    1.88e+00    0    1.32e+00
2007 04 20  1040    54210   38400      0    1.90e+00    0    1.33e+00
2007 04 20  1045    54210   38700      0    1.85e+00    0    1.30e+00
2007 04 20  1050    54210   39000      0    1.86e+00    0    1.30e+00
2007 04 20  1055    54210   39300      0    1.88e+00    0    1.30e+00
2007 04 20  1100    54210   39600      0    1.89e+00    0    1.34e+00
2007 04 20  1105    54210   39900      0    1.86e+00    0    1.32e+00
2007 04 20  1110    54210   40200      0    1.83e+00    0    1.27e+00
2007 04 20  1115    54210   40500      0    1.88e+00    0    1.31e+00
2007 04 20  1120    54210   40800      0    1.84e+00    0    1.28e+00
2007 04 20  1125    54210   41100      0    1.88e+00    0    1.30e+00
2007 04 20  1130    54210   41400      0    1.83e+00    0    1.29e+00
2007 04 20  1135    54210   41700      0    1.87e+00    0    1.31e+00
2007 04 20  1140    54210   42000      0    1.92e+00    0    1.35e+00
2007 04 20  1145    54210   42300      0    1.88e+00    0    1.32e+00
2007 04 20  1150    54210   42600      0    1.85e+00    0    1.29e+00
2007 04 20  1155    54210   42900      0    1.89e+00    0    1.33e+00
2007 04 20  1200    54210   43200      0    1.86e+00    0    1.30e+00
2007 04 20  1205    54210   43500      0    1.87e+00    0    1.31e+00
2007 04 20  1210    54210   43800      0    1.87e+00    0    1.32e+00
2007 04 20  1215    54210   44100      0    1.89e+00    0    1.32e+00
2007 04 20  1220    54210   44400      0    1.83e+00    0    1.28e+00
2007 04 20  1225    54210   44700      0    1.83e+00    0    1.28e+00
2007 04 20  1230    54210   45000      0    1.87e+00    0    1.31e+00
2007 04 20  1235    54210   45300      0    1.89e+00    0    1.31e+00
2007 04 20  1240    54210   45600      0    1.86e+00    0    1.30e+00
2007 04 20  1245    54210   45900      0    1.88e+00    0    1.31e+00
2007 04 20  1250    54210   46200      0    1.84e+00    0    1.29e+00
2007 04 20  1255    54210   46500      0    1.89e+00    0    1.32e+00
2007 04 20  1300    54210   46800      0    1.90e+00    0    1.33e+00
2007 04 20  1305    54210   47100      0    1.89e+00    0    1.33e+00
2007 04 20  1310    54210   47400      0    1.88e+00    0    1.31e+00
2007 04 20  1315    54210   47700      0    1.88e+00    0    1.32e+00
2007 04 20  1320    54210   48000      0    1.79e+00    0    1.26e+00
2007 04 20  1325    54210   48300      0    1.86e+00    0    1.31e+00
2007 04 20  1330    54210   48600      0    1.90e+00    0    1.33e+00
2007 04 20  1335    54210   48900      0    1.85e+00    0    1.28e+00
2007 04 20  1340    54210   49200      0    1.87e+00    0    1.30e+00
2007 04 20  1345    54210   49500      0    1.89e+00    0    1.32e+00
2007 04 20  1350    54210   49800      0    1.89e+00    0    1.32e+00
2007 04 20  1355    54210   50100      0    1.89e+00    0    1.32e+00
2007 04 20  1400    54210   50400      0    1.86e+00    0    1.31e+00
2007 04 20  1405    54210   50700      0    1.88e+00    0    1.31e+00
2007 04 20  1410    54210   51000      0    1.90e+00    0    1.32e+00
2007 04 20  1415    54210   51300      0    1.84e+00    0    1.28e+00
2007 04 20  1420    54210   51600      0    1.88e+00    0    1.32e+00
2007 04 20  1425    54210   51900      0    1.85e+00    0    1.29e+00
2007 04 20  1430    54210   52200      0    1.89e+00    0    1.31e+00
2007 04 20  1435    54210   52500      0    1.87e+00    0    1.32e+00
2007 04 20  1440    54210   52800      0    1.86e+00    0    1.29e+00
2007 04 20  1445    54210   53100      0    1.83e+00    0    1.27e+00
2007 04 20  1450    54210   53400      0    1.90e+00    0    1.34e+00
2007 04 20  1455    54210   53700      0    1.89e+00    0    1.32e+00
2007 04 20  1500    54210   54000      0    1.86e+00    0    1.30e+00
2007 04 20  1505    54210   54300      0    1.89e+00    0    1.33e+00
2007 04 20  1510    54210   54600      0    1.87e+00    0    1.31e+00
2007 04 20  1515    54210   54900      0    1.89e+00    0    1.32e+00
2007 04 20  1520    54210   55200      0    1.92e+00    0    1.35e+00
2007 04 20  1525    54210   55500      0    1.89e+00    0    1.32e+00
2007 04 20  1530    54210   55800      0    1.87e+00    0    1.30e+00
2007 04 20  1535    54210   56100      0    1.88e+00    0    1.31e+00
2007 04 20  1540    54210   56400      0    1.86e+00    0    1.30e+00
2007 04 20  1545    54210   56700      0    1.89e+00    0    1.33e+00
2007 04 20  1550    54210   57000      0    1.87e+00    0    1.31e+00
2007 04 20  1555    54210   57300      0    1.88e+00    0    1.32e+00
2007 04 20  1600    54210   57600      0    1.89e+00    0    1.31e+00
2007 04 20  1605    54210   57900      0    1.87e+00    0    1.31e+00
2007 04 20  1610    54210   58200      0    1.89e+00    0    1.33e+00
2007 04 20  1615    54210   58500      0    1.88e+00    0    1.32e+00
2007 04 20  1620    54210   58800      0    1.90e+00    0    1.33e+00
2007 04 20  1625    54210   59100      0    1.88e+00    0    1.32e+00
2007 04 20  1630    54210   59400      0    1.89e+00    0    1.32e+00
2007 04 20  1635    54210   59700      0    1.86e+00    0    1.29e+00
2007 04 20  1640    54210   60000      0    1.87e+00    0    1.31e+00
2007 04 20  1645    54210   60300      0    1.84e+00    0    1.29e+00
2007 04 20  1650    54210   60600      0    1.88e+00    0    1.31e+00
2007 04 20  1655    54210   60900      0    1.85e+00    0    1.28e+00
2007 04 20  1700    54210   61200      0    1.84e+00    0    1.29e+00
2007 04 20  1705    54210   61500      0    1.84e+00    0    1.29e+00
2007 04 20  1710    54210   61800      0    1.86e+00    0    1.31e+00
2007 04 20  1715    54210   62100      0    1.87e+00    0    1.30e+00
2007 04 20  1720    54210   62400      0    1.89e+00    0    1.32e+00
2007 04 20  1725    54210   62700      0    1.88e+00    0    1.32e+00
2007 04 20  1730    54210   63000      0    1.87e+00    0    1.29e+00
2007 04 20  1735    54210   63300      0    1.87e+00    0    1.30e+00
2007 04 20  1740    54210   63600      0    1.83e+00    0    1.27e+00
2007 04 20  1745    54210   63900      0    1.87e+00    0    1.32e+00
2007 04 20  1750    54210   64200      0    1.84e+00    0    1.28e+00
2007 04 20  1755    54210   64500      0    1.87e+00    0    1.31e+00
2007 04 20  1800    54210   64800      0    1.90e+00    0    1.33e+00
2007 04 20  1805    54210   65100      0    1.90e+00    0    1.33e+00
2007 04 20  1810    54210   65400      0    1.89e+00    0    1.31e+00
2007 04 20  1815    54210   65700      0    1.86e+00    0    1.31e+00
2007 04 20  1820    54210   66000      0    1.88e+00    0    1.31e+00
2007 04 20  1825    54210   66300      0    1.86e+00    0    1.29e+00
2007 04 20  1830    54210   66600      0    1.85e+00    0    1.29e+00
2007 04 20  1835    54210   66900      0    1.87e+00    0    1.30e+00
2007 04 20  1840    54210   67200      0    1.92e+00    0    1.35e+00
2007 04 20  1845    54210   67500      0    1.84e+00    0    1.29e+00
2007 04 20  1850    54210   67800      0    1.86e+00    0    1.29e+00
2007 04 20  1855    54210   68100      0    1.87e+00    0    1.31e+00
2007 04 20  1900    54210   68400      0    1.84e+00    0    1.29e+00
2007 04 20  1905    54210   68700      0    1.90e+00    0    1.33e+00
2007 04 20  1910    54210   69000      0    1.88e+00    0    1.32e+00
2007 04 20  1915    54210   69300      0    1.86e+00    0    1.30e+00
2007 04 20  1920    54210   69600      0    1.89e+00    0    1.32e+00
2007 04 20  1925    54210   69900      0    1.89e+00    0    1.33e+00
2007 04 20  1930    54210   70200      0    1.89e+00    0    1.31e+00
2007 04 20  1935    54210   70500      0    1.90e+00    0    1.33e+00
2007 04 20  1940    54210   70800      0    1.89e+00    0    1.32e+00
2007 04 20  1945    54210   71100      0    1.87e+00    0    1.30e+00
2007 04 20  1950    54210   71400      0    1.93e+00    0    1.36e+00
2007 04 20  1955    54210   71700      0    1.83e+00    0    1.28e+00
2007 04 20  2000    54210   72000      0    1.86e+00    0    1.29e+00
2007 04 20  2005    54210   72300      0    1.85e+00    0    1.30e+00
2007 04 20  2010    54210   72600      0    1.87e+00    0    1.31e+00
2007 04 20  2015    54210   72900      0    1.85e+00    0    1.30e+00
2007 04 20  2020    54210   73200      0    1.86e+00    0    1.31e+00
2007 04 20  2025    54210   73500      0    1.89e+00    0    1.32e+00
2007 04 20  2030    54210   73800      0    1.85e+00    0    1.29e+00
2007 04 20  2035    54210   74100      0    1.86e+00    0    1.30e+00
2007 04 20  2040    54210   74400      0    1.85e+00    0    1.29e+00
2007 04 20  2045    54210   74700      0    1.86e+00    0    1.29e+00
2007 04 20  2050    54210   75000      0    1.88e+00    0    1.32e+00
2007 04 20  2055    54210   75300      0    1.85e+00    0    1.31e+00
2007 04 20  2100    54210   75600      0    1.87e+00    0    1.31e+00
2007 04 20  2105    54210   75900      0    1.84e+00    0    1.28e+00
2007 04 20  2110    54210   76200      0    1.91e+00    0    1.33e+00
2007 04 20  2115    54210   76500      0    1.89e+00    0    1.31e+00
2007 04 20  2120    54210   76800      0    1.88e+00    0    1.31e+00
2007 04 20  2125    54210   77100      0    1.87e+00    0    1.29e+00
2007 04 20  2130    54210   77400      0    1.88e+00    0    1.31e+00
2007 04 20  2135    54210   77700      0    1.83e+00    0    1.28e+00
2007 04 20  2140    54210   78000      0    1.90e+00    0    1.35e+00
2007 04 20  2145    54210   78300      0    1.87e+00    0    1.32e+00
2007 04 20  2150    54210   78600      0    1.81e+00    0    1.27e+00
2007 04 20  2155    54210   78900      0    1.85e+00    0    1.31e+00
2007 04 20  2200    54210   79200      0    1.84e+00    0    1.29e+00
2007 04 20  2205    54210   79500      0    1.85e+00    0    1.30e+00
2007 04 20  2210    54210   79800      0    1.85e+00    0    1.30e+00
2007 04 20  2215    54210   80100      0    1.87e+00    0    1.30e+00
2007 04 20  2220    54210   80400      0    1.91e+00    0    1.33e+00
2007 04 20  2225    54210   80700      0    1.83e+00    0    1.28e+00
2007 04 20  2230    54210   81000      0    1.87e+00    0    1.31e+00
2007 04 20  2235    54210   81300      0    1.92e+00    0    1.35e+00
2007 04 20  2240    54210   81600      0    1.86e+00    0    1.31e+00
2007 04 20  2245    54210   81900      0    1.90e+00    0    1.33e+00
2007 04 20  2250    54210   82200      0    1.87e+00    0    1.30e+00
2007 04 20  2255    54210   82500      0    1.89e+00    0    1.32e+00
2007 04 20  2300    54210   82800      0    1.87e+00    0    1.31e+00
2007 04 20  2305    54210   83100      0    1.91e+00    0    1.34e+00
2007 04 20  2310    54210   83400      0    1.90e+00    0    1.33e+00
2007 04 20  2315    54210   83700      0    1.87e+00    0    1.30e+00
2007 04 20  2320    54210   84000      0    1.90e+00    0    1.33e+00
2007 04 20  2325    54210   84300      0    1.87e+00    0    1.30e+00
2007 04 20  2330    54210   84600      0    1.88e+00    0    1.32e+00
2007 04 20  2335    54210   84900      0    1.89e+00    0    1.33e+00
2007 04 20  2340    54210   85200      0    1.87e+00    0    1.32e+00
2007 04 20  2345    54210   85500      0    1.86e+00    0    1.31e+00
2007 04 20  2350    54210   85800      0    1.88e+00    0    1.31e+00
2007 04 20  2355    54210   86100      0    1.86e+00    0    1.29e+00
