:Data_list: 20070916_ace_sis_5m.txt
:Created: 2007 Sep 17 0011 UT
# Prepared by the U.S. Dept. of Commerce, NOAA, Space Environment Center.
# Please send comments and suggestions to SEC.Webmaster@noaa.gov 
# 
# Units: proton flux p/cs2-sec-ster
# Status(S): 0 = nominal data, 1 to 8 = bad data record, 9 = no data
# Missing data values: -1.00e+05
# Source: ACE Satellite - Solar Isotope Spectrometer
#
# 5-minute averaged Real-time Integral Flux of High-energy Solar Protons
# 
#                 Modified Seconds
# UT Date   Time   Julian  of the      ---- Integral Proton Flux ----
# YR MO DA  HHMM     Day     Day       S    > 10 MeV    S    > 30 MeV
#--------------------------------------------------------------------
2007 09 16  0000    54359       0      0    2.00e+00    0    1.40e+00
2007 09 16  0005    54359     300      0    1.89e+00    0    1.33e+00
2007 09 16  0010    54359     600      0    1.96e+00    0    1.37e+00
2007 09 16  0015    54359     900      0    1.97e+00    0    1.38e+00
2007 09 16  0020    54359    1200      0    1.87e+00    0    1.31e+00
2007 09 16  0025    54359    1500      0    1.92e+00    0    1.35e+00
2007 09 16  0030    54359    1800      0    1.90e+00    0    1.32e+00
2007 09 16  0035    54359    2100      0    1.94e+00    0    1.36e+00
2007 09 16  0040    54359    2400      0    1.96e+00    0    1.36e+00
2007 09 16  0045    54359    2700      0    1.93e+00    0    1.36e+00
2007 09 16  0050    54359    3000      0    1.88e+00    0    1.31e+00
2007 09 16  0055    54359    3300      0    1.97e+00    0    1.39e+00
2007 09 16  0100    54359    3600      0    1.95e+00    0    1.37e+00
2007 09 16  0105    54359    3900      0    1.97e+00    0    1.39e+00
2007 09 16  0110    54359    4200      0    1.95e+00    0    1.36e+00
2007 09 16  0115    54359    4500      0    1.86e+00    0    1.30e+00
2007 09 16  0120    54359    4800      0    1.92e+00    0    1.34e+00
2007 09 16  0125    54359    5100      0    1.95e+00    0    1.36e+00
2007 09 16  0130    54359    5400      0    1.89e+00    0    1.33e+00
2007 09 16  0135    54359    5700      0    1.89e+00    0    1.33e+00
2007 09 16  0140    54359    6000      0    1.90e+00    0    1.33e+00
2007 09 16  0145    54359    6300      0    1.93e+00    0    1.36e+00
2007 09 16  0150    54359    6600      0    1.94e+00    0    1.36e+00
2007 09 16  0155    54359    6900      0    1.92e+00    0    1.34e+00
2007 09 16  0200    54359    7200      0    1.91e+00    0    1.33e+00
2007 09 16  0205    54359    7500      0    1.91e+00    0    1.32e+00
2007 09 16  0210    54359    7800      0    1.89e+00    0    1.32e+00
2007 09 16  0215    54359    8100      0    1.97e+00    0    1.38e+00
2007 09 16  0220    54359    8400      0    1.91e+00    0    1.34e+00
2007 09 16  0225    54359    8700      0    1.93e+00    0    1.36e+00
2007 09 16  0230    54359    9000      0    1.90e+00    0    1.34e+00
2007 09 16  0235    54359    9300      0    1.94e+00    0    1.36e+00
2007 09 16  0240    54359    9600      0    1.98e+00    0    1.38e+00
2007 09 16  0245    54359    9900      0    1.88e+00    0    1.32e+00
2007 09 16  0250    54359   10200      0    1.94e+00    0    1.37e+00
2007 09 16  0255    54359   10500      0    1.94e+00    0    1.34e+00
2007 09 16  0300    54359   10800      0    1.92e+00    0    1.35e+00
2007 09 16  0305    54359   11100      0    1.99e+00    0    1.39e+00
2007 09 16  0310    54359   11400      0    1.93e+00    0    1.36e+00
2007 09 16  0315    54359   11700      0    1.94e+00    0    1.36e+00
2007 09 16  0320    54359   12000      0    1.96e+00    0    1.36e+00
2007 09 16  0325    54359   12300      0    1.96e+00    0    1.36e+00
2007 09 16  0330    54359   12600      0    1.94e+00    0    1.35e+00
2007 09 16  0335    54359   12900      0    1.93e+00    0    1.34e+00
2007 09 16  0340    54359   13200      0    1.93e+00    0    1.34e+00
2007 09 16  0345    54359   13500      0    1.90e+00    0    1.32e+00
2007 09 16  0350    54359   13800      0    1.92e+00    0    1.32e+00
2007 09 16  0355    54359   14100      0    1.93e+00    0    1.35e+00
2007 09 16  0400    54359   14400      0    1.95e+00    0    1.36e+00
2007 09 16  0405    54359   14700      0    1.95e+00    0    1.35e+00
2007 09 16  0410    54359   15000      0    1.89e+00    0    1.32e+00
2007 09 16  0415    54359   15300      0    1.94e+00    0    1.35e+00
2007 09 16  0420    54359   15600      0    1.90e+00    0    1.34e+00
2007 09 16  0425    54359   15900      0    1.95e+00    0    1.37e+00
2007 09 16  0430    54359   16200      0    1.92e+00    0    1.34e+00
2007 09 16  0435    54359   16500      0    1.88e+00    0    1.31e+00
2007 09 16  0440    54359   16800      0    1.92e+00    0    1.33e+00
2007 09 16  0445    54359   17100      0    1.93e+00    0    1.35e+00
2007 09 16  0450    54359   17400      0    1.94e+00    0    1.35e+00
2007 09 16  0455    54359   17700      0    1.92e+00    0    1.33e+00
2007 09 16  0500    54359   18000      0    1.93e+00    0    1.36e+00
2007 09 16  0505    54359   18300      0    1.95e+00    0    1.36e+00
2007 09 16  0510    54359   18600      0    1.94e+00    0    1.36e+00
2007 09 16  0515    54359   18900      0    1.94e+00    0    1.36e+00
2007 09 16  0520    54359   19200      0    1.93e+00    0    1.34e+00
2007 09 16  0525    54359   19500      0    1.94e+00    0    1.36e+00
2007 09 16  0530    54359   19800      0    1.94e+00    0    1.35e+00
2007 09 16  0535    54359   20100      0    1.95e+00    0    1.36e+00
2007 09 16  0540    54359   20400      0    1.97e+00    0    1.38e+00
2007 09 16  0545    54359   20700      0    1.96e+00    0    1.37e+00
2007 09 16  0550    54359   21000      0    1.96e+00    0    1.36e+00
2007 09 16  0555    54359   21300      0    1.91e+00    0    1.34e+00
2007 09 16  0600    54359   21600      0    1.99e+00    0    1.40e+00
2007 09 16  0605    54359   21900      0    1.98e+00    0    1.38e+00
2007 09 16  0610    54359   22200      0    1.93e+00    0    1.35e+00
2007 09 16  0615    54359   22500      0    1.99e+00    0    1.39e+00
2007 09 16  0620    54359   22800      0    1.91e+00    0    1.35e+00
2007 09 16  0625    54359   23100      0    1.97e+00    0    1.38e+00
2007 09 16  0630    54359   23400      0    2.01e+00    0    1.39e+00
2007 09 16  0635    54359   23700      0    1.86e+00    0    1.30e+00
2007 09 16  0640    54359   24000      0    1.96e+00    0    1.37e+00
2007 09 16  0645    54359   24300      0    1.97e+00    0    1.39e+00
2007 09 16  0650    54359   24600      0    1.93e+00    0    1.34e+00
2007 09 16  0655    54359   24900      0    1.99e+00    0    1.39e+00
2007 09 16  0700    54359   25200      0    1.97e+00    0    1.39e+00
2007 09 16  0705    54359   25500      0    1.94e+00    0    1.37e+00
2007 09 16  0710    54359   25800      0    1.96e+00    0    1.36e+00
2007 09 16  0715    54359   26100      0    1.96e+00    0    1.37e+00
2007 09 16  0720    54359   26400      0    1.99e+00    0    1.38e+00
2007 09 16  0725    54359   26700      0    1.97e+00    0    1.37e+00
2007 09 16  0730    54359   27000      0    1.96e+00    0    1.37e+00
2007 09 16  0735    54359   27300      0    1.98e+00    0    1.39e+00
2007 09 16  0740    54359   27600      0    1.91e+00    0    1.33e+00
2007 09 16  0745    54359   27900      0    1.99e+00    0    1.39e+00
2007 09 16  0750    54359   28200      0    1.97e+00    0    1.38e+00
2007 09 16  0755    54359   28500      0    1.92e+00    0    1.34e+00
2007 09 16  0800    54359   28800      0    1.96e+00    0    1.37e+00
2007 09 16  0805    54359   29100      0    1.96e+00    0    1.37e+00
2007 09 16  0810    54359   29400      0    1.89e+00    0    1.31e+00
2007 09 16  0815    54359   29700      0    1.89e+00    0    1.33e+00
2007 09 16  0820    54359   30000      0    1.88e+00    0    1.31e+00
2007 09 16  0825    54359   30300      0    1.86e+00    0    1.30e+00
2007 09 16  0830    54359   30600      0    1.90e+00    0    1.34e+00
2007 09 16  0835    54359   30900      0    1.92e+00    0    1.35e+00
2007 09 16  0840    54359   31200      0    1.93e+00    0    1.35e+00
2007 09 16  0845    54359   31500      0    1.92e+00    0    1.34e+00
2007 09 16  0850    54359   31800      0    1.91e+00    0    1.34e+00
2007 09 16  0855    54359   32100      0    1.91e+00    0    1.34e+00
2007 09 16  0900    54359   32400      0    1.92e+00    0    1.33e+00
2007 09 16  0905    54359   32700      0    1.94e+00    0    1.35e+00
2007 09 16  0910    54359   33000      0    1.96e+00    0    1.38e+00
2007 09 16  0915    54359   33300      0    1.90e+00    0    1.33e+00
2007 09 16  0920    54359   33600      0    1.91e+00    0    1.35e+00
2007 09 16  0925    54359   33900      0    1.92e+00    0    1.35e+00
2007 09 16  0930    54359   34200      0    1.97e+00    0    1.38e+00
2007 09 16  0935    54359   34500      0    1.94e+00    0    1.36e+00
2007 09 16  0940    54359   34800      0    1.91e+00    0    1.38e+00
2007 09 16  0945    54359   35100      0    1.94e+00    0    1.36e+00
2007 09 16  0950    54359   35400      0    1.90e+00    0    1.33e+00
2007 09 16  0955    54359   35700      0    1.95e+00    0    1.37e+00
2007 09 16  1000    54359   36000      0    1.95e+00    0    1.36e+00
2007 09 16  1005    54359   36300      0    1.95e+00    0    1.35e+00
2007 09 16  1010    54359   36600      0    1.96e+00    0    1.36e+00
2007 09 16  1015    54359   36900      0    1.97e+00    0    1.38e+00
2007 09 16  1020    54359   37200      0    1.99e+00    0    1.40e+00
2007 09 16  1025    54359   37500      0    1.88e+00    0    1.32e+00
2007 09 16  1030    54359   37800      0    1.93e+00    0    1.34e+00
2007 09 16  1035    54359   38100      0    1.88e+00    0    1.32e+00
2007 09 16  1040    54359   38400      0    1.90e+00    0    1.32e+00
2007 09 16  1045    54359   38700      0    1.93e+00    0    1.35e+00
2007 09 16  1050    54359   39000      0    1.92e+00    0    1.36e+00
2007 09 16  1055    54359   39300      0    1.90e+00    0    1.33e+00
2007 09 16  1100    54359   39600      0    1.94e+00    0    1.36e+00
2007 09 16  1105    54359   39900      0    1.92e+00    0    1.34e+00
2007 09 16  1110    54359   40200      0    1.94e+00    0    1.35e+00
2007 09 16  1115    54359   40500      0    1.92e+00    0    1.34e+00
2007 09 16  1120    54359   40800      0    1.93e+00    0    1.34e+00
2007 09 16  1125    54359   41100      0    1.88e+00    0    1.32e+00
2007 09 16  1130    54359   41400      0    1.87e+00    0    1.30e+00
2007 09 16  1135    54359   41700      0    1.91e+00    0    1.34e+00
2007 09 16  1140    54359   42000      0    1.94e+00    0    1.36e+00
2007 09 16  1145    54359   42300      0    1.90e+00    0    1.33e+00
2007 09 16  1150    54359   42600      0    1.93e+00    0    1.35e+00
2007 09 16  1155    54359   42900      0    1.93e+00    0    1.35e+00
2007 09 16  1200    54359   43200      0    1.94e+00    0    1.37e+00
2007 09 16  1205    54359   43500      0    1.96e+00    0    1.37e+00
2007 09 16  1210    54359   43800      0    2.01e+00    0    1.41e+00
2007 09 16  1215    54359   44100      0    1.91e+00    0    1.34e+00
2007 09 16  1220    54359   44400      0    1.95e+00    0    1.37e+00
2007 09 16  1225    54359   44700      0    1.98e+00    0    1.41e+00
2007 09 16  1230    54359   45000      0    1.96e+00    0    1.37e+00
2007 09 16  1235    54359   45300      0    1.95e+00    0    1.36e+00
2007 09 16  1240    54359   45600      0    1.93e+00    0    1.36e+00
2007 09 16  1245    54359   45900      0    1.89e+00    0    1.32e+00
2007 09 16  1250    54359   46200      0    1.89e+00    0    1.32e+00
2007 09 16  1255    54359   46500      0    1.91e+00    0    1.36e+00
2007 09 16  1300    54359   46800      0    1.96e+00    0    1.37e+00
2007 09 16  1305    54359   47100      0    1.94e+00    0    1.36e+00
2007 09 16  1310    54359   47400      0    1.92e+00    0    1.34e+00
2007 09 16  1315    54359   47700      0    1.93e+00    0    1.34e+00
2007 09 16  1320    54359   48000      0    1.95e+00    0    1.37e+00
2007 09 16  1325    54359   48300      0    1.93e+00    0    1.35e+00
2007 09 16  1330    54359   48600      0    1.88e+00    0    1.32e+00
2007 09 16  1335    54359   48900      0    1.93e+00    0    1.35e+00
2007 09 16  1340    54359   49200      0    1.92e+00    0    1.35e+00
2007 09 16  1345    54359   49500      0    1.91e+00    0    1.33e+00
2007 09 16  1350    54359   49800      0    1.93e+00    0    1.34e+00
2007 09 16  1355    54359   50100      0    1.93e+00    0    1.34e+00
2007 09 16  1400    54359   50400      0    1.91e+00    0    1.34e+00
2007 09 16  1405    54359   50700      0    1.90e+00    0    1.31e+00
2007 09 16  1410    54359   51000      0    1.93e+00    0    1.34e+00
2007 09 16  1415    54359   51300      0    1.96e+00    0    1.37e+00
2007 09 16  1420    54359   51600      0    1.90e+00    0    1.32e+00
2007 09 16  1425    54359   51900      0    1.95e+00    0    1.37e+00
2007 09 16  1430    54359   52200      0    1.88e+00    0    1.34e+00
2007 09 16  1435    54359   52500      0    1.92e+00    0    1.34e+00
2007 09 16  1440    54359   52800      0    1.92e+00    0    1.35e+00
2007 09 16  1445    54359   53100      0    1.94e+00    0    1.36e+00
2007 09 16  1450    54359   53400      0    1.95e+00    0    1.36e+00
2007 09 16  1455    54359   53700      0    1.90e+00    0    1.33e+00
2007 09 16  1500    54359   54000      0    1.95e+00    0    1.35e+00
2007 09 16  1505    54359   54300      0    1.97e+00    0    1.38e+00
2007 09 16  1510    54359   54600      0    1.92e+00    0    1.35e+00
2007 09 16  1515    54359   54900      0    1.91e+00    0    1.34e+00
2007 09 16  1520    54359   55200      0    1.89e+00    0    1.31e+00
2007 09 16  1525    54359   55500      0    1.97e+00    0    1.38e+00
2007 09 16  1530    54359   55800      0    1.94e+00    0    1.34e+00
2007 09 16  1535    54359   56100      0    1.93e+00    0    1.35e+00
2007 09 16  1540    54359   56400      0    1.92e+00    0    1.34e+00
2007 09 16  1545    54359   56700      0    1.89e+00    0    1.33e+00
2007 09 16  1550    54359   57000      0    1.90e+00    0    1.31e+00
2007 09 16  1555    54359   57300      0    1.93e+00    0    1.35e+00
2007 09 16  1600    54359   57600      0    1.89e+00    0    1.31e+00
2007 09 16  1605    54359   57900      0    1.89e+00    0    1.32e+00
2007 09 16  1610    54359   58200      0    1.88e+00    0    1.32e+00
2007 09 16  1615    54359   58500      0    1.93e+00    0    1.36e+00
2007 09 16  1620    54359   58800      0    1.93e+00    0    1.34e+00
2007 09 16  1625    54359   59100      0    1.92e+00    0    1.34e+00
2007 09 16  1630    54359   59400      0    1.88e+00    0    1.32e+00
2007 09 16  1635    54359   59700      0    1.93e+00    0    1.36e+00
2007 09 16  1640    54359   60000      0    1.86e+00    0    1.30e+00
2007 09 16  1645    54359   60300      0    1.96e+00    0    1.35e+00
2007 09 16  1650    54359   60600      0    1.95e+00    0    1.36e+00
2007 09 16  1655    54359   60900      0    1.93e+00    0    1.35e+00
2007 09 16  1700    54359   61200      0    1.93e+00    0    1.36e+00
2007 09 16  1705    54359   61500      0    1.92e+00    0    1.34e+00
2007 09 16  1710    54359   61800      0    1.93e+00    0    1.35e+00
2007 09 16  1715    54359   62100      0    1.94e+00    0    1.36e+00
2007 09 16  1720    54359   62400      0    1.87e+00    0    1.31e+00
2007 09 16  1725    54359   62700      0    1.92e+00    0    1.34e+00
2007 09 16  1730    54359   63000      0    1.93e+00    0    1.34e+00
2007 09 16  1735    54359   63300      0    1.97e+00    0    1.38e+00
2007 09 16  1740    54359   63600      0    1.96e+00    0    1.38e+00
2007 09 16  1745    54359   63900      0    1.93e+00    0    1.34e+00
2007 09 16  1750    54359   64200      0    1.90e+00    0    1.34e+00
2007 09 16  1755    54359   64500      0    1.93e+00    0    1.35e+00
2007 09 16  1800    54359   64800      0    1.95e+00    0    1.37e+00
2007 09 16  1805    54359   65100      0    1.93e+00    0    1.35e+00
2007 09 16  1810    54359   65400      0    1.90e+00    0    1.33e+00
2007 09 16  1815    54359   65700      0    1.90e+00    0    1.32e+00
2007 09 16  1820    54359   66000      0    1.91e+00    0    1.32e+00
2007 09 16  1825    54359   66300      0    1.97e+00    0    1.39e+00
2007 09 16  1830    54359   66600      0    1.96e+00    0    1.38e+00
2007 09 16  1835    54359   66900      0    1.92e+00    0    1.34e+00
2007 09 16  1840    54359   67200      0    1.90e+00    0    1.32e+00
2007 09 16  1845    54359   67500      0    1.91e+00    0    1.33e+00
2007 09 16  1850    54359   67800      0    1.93e+00    0    1.36e+00
2007 09 16  1855    54359   68100      0    1.93e+00    0    1.35e+00
2007 09 16  1900    54359   68400      0    1.89e+00    0    1.32e+00
2007 09 16  1905    54359   68700      0    1.92e+00    0    1.34e+00
2007 09 16  1910    54359   69000      0    1.88e+00    0    1.33e+00
2007 09 16  1915    54359   69300      0    1.93e+00    0    1.36e+00
2007 09 16  1920    54359   69600      0    1.96e+00    0    1.37e+00
2007 09 16  1925    54359   69900      0    1.93e+00    0    1.35e+00
2007 09 16  1930    54359   70200      0    1.90e+00    0    1.34e+00
2007 09 16  1935    54359   70500      0    1.88e+00    0    1.32e+00
2007 09 16  1940    54359   70800      0    1.91e+00    0    1.33e+00
2007 09 16  1945    54359   71100      0    1.95e+00    0    1.36e+00
2007 09 16  1950    54359   71400      0    1.94e+00    0    1.36e+00
2007 09 16  1955    54359   71700      0    1.88e+00    0    1.32e+00
2007 09 16  2000    54359   72000      0    1.88e+00    0    1.32e+00
2007 09 16  2005    54359   72300      0    1.93e+00    0    1.35e+00
2007 09 16  2010    54359   72600      0    1.99e+00    0    1.40e+00
2007 09 16  2015    54359   72900      0    1.94e+00    0    1.37e+00
2007 09 16  2020    54359   73200      0    1.94e+00    0    1.36e+00
2007 09 16  2025    54359   73500      0    1.91e+00    0    1.34e+00
2007 09 16  2030    54359   73800      0    1.90e+00    0    1.32e+00
2007 09 16  2035    54359   74100      0    1.96e+00    0    1.38e+00
2007 09 16  2040    54359   74400      0    1.94e+00    0    1.36e+00
2007 09 16  2045    54359   74700      0    1.91e+00    0    1.33e+00
2007 09 16  2050    54359   75000      0    1.89e+00    0    1.32e+00
2007 09 16  2055    54359   75300      0    1.87e+00    0    1.31e+00
2007 09 16  2100    54359   75600      0    1.93e+00    0    1.35e+00
2007 09 16  2105    54359   75900      0    1.95e+00    0    1.36e+00
2007 09 16  2110    54359   76200      0    1.92e+00    0    1.35e+00
2007 09 16  2115    54359   76500      0    1.93e+00    0    1.34e+00
2007 09 16  2120    54359   76800      0    1.91e+00    0    1.33e+00
2007 09 16  2125    54359   77100      0    1.95e+00    0    1.35e+00
2007 09 16  2130    54359   77400      0    1.96e+00    0    1.37e+00
2007 09 16  2135    54359   77700      0    1.91e+00    0    1.34e+00
2007 09 16  2140    54359   78000      0    1.89e+00    0    1.30e+00
2007 09 16  2145    54359   78300      0    1.90e+00    0    1.32e+00
2007 09 16  2150    54359   78600      0    1.90e+00    0    1.32e+00
2007 09 16  2155    54359   78900      0    1.93e+00    0    1.37e+00
2007 09 16  2200    54359   79200      0    1.87e+00    0    1.30e+00
2007 09 16  2205    54359   79500      0    1.91e+00    0    1.34e+00
2007 09 16  2210    54359   79800      0    1.90e+00    0    1.35e+00
2007 09 16  2215    54359   80100      0    1.90e+00    0    1.32e+00
2007 09 16  2220    54359   80400      0    1.97e+00    0    1.37e+00
2007 09 16  2225    54359   80700      0    1.94e+00    0    1.35e+00
2007 09 16  2230    54359   81000      0    1.90e+00    0    1.32e+00
2007 09 16  2235    54359   81300      0    1.88e+00    0    1.31e+00
2007 09 16  2240    54359   81600      0    1.91e+00    0    1.33e+00
2007 09 16  2245    54359   81900      0    1.89e+00    0    1.32e+00
2007 09 16  2250    54359   82200      0    1.93e+00    0    1.34e+00
2007 09 16  2255    54359   82500      0    1.93e+00    0    1.34e+00
2007 09 16  2300    54359   82800      0    1.95e+00    0    1.38e+00
2007 09 16  2305    54359   83100      0    1.94e+00    0    1.35e+00
2007 09 16  2310    54359   83400      0    1.93e+00    0    1.35e+00
2007 09 16  2315    54359   83700      0    1.91e+00    0    1.34e+00
2007 09 16  2320    54359   84000      0    1.90e+00    0    1.33e+00
2007 09 16  2325    54359   84300      0    1.91e+00    0    1.35e+00
2007 09 16  2330    54359   84600      0    1.91e+00    0    1.36e+00
2007 09 16  2335    54359   84900      0    1.99e+00    0    1.40e+00
2007 09 16  2340    54359   85200      0    1.94e+00    0    1.36e+00
2007 09 16  2345    54359   85500      0    1.95e+00    0    1.37e+00
2007 09 16  2350    54359   85800      0    1.98e+00    0    1.36e+00
2007 09 16  2355    54359   86100      0    1.93e+00    0    1.35e+00
