:Data_list: 20070428_ace_sis_5m.txt
:Created: 2007 Apr 29 0011 UT
# Prepared by the U.S. Dept. of Commerce, NOAA, Space Environment Center.
# Please send comments and suggestions to SEC.Webmaster@noaa.gov 
# 
# Units: proton flux p/cs2-sec-ster
# Status(S): 0 = nominal data, 1 to 8 = bad data record, 9 = no data
# Missing data values: -1.00e+05
# Source: ACE Satellite - Solar Isotope Spectrometer
#
# 5-minute averaged Real-time Integral Flux of High-energy Solar Protons
# 
#                 Modified Seconds
# UT Date   Time   Julian  of the      ---- Integral Proton Flux ----
# YR MO DA  HHMM     Day     Day       S    > 10 MeV    S    > 30 MeV
#--------------------------------------------------------------------
2007 04 28  0000    54218       0      0    1.78e+00    0    1.25e+00
2007 04 28  0005    54218     300      0    1.84e+00    0    1.29e+00
2007 04 28  0010    54218     600      0    1.86e+00    0    1.31e+00
2007 04 28  0015    54218     900      0    1.83e+00    0    1.28e+00
2007 04 28  0020    54218    1200      0    1.80e+00    0    1.26e+00
2007 04 28  0025    54218    1500      0    1.77e+00    0    1.24e+00
2007 04 28  0030    54218    1800      0    1.82e+00    0    1.28e+00
2007 04 28  0035    54218    2100      0    1.84e+00    0    1.28e+00
2007 04 28  0040    54218    2400      0    1.85e+00    0    1.29e+00
2007 04 28  0045    54218    2700      0    1.76e+00    0    1.21e+00
2007 04 28  0050    54218    3000      0    1.81e+00    0    1.26e+00
2007 04 28  0055    54218    3300      0    1.83e+00    0    1.29e+00
2007 04 28  0100    54218    3600      0    1.77e+00    0    1.23e+00
2007 04 28  0105    54218    3900      0    1.80e+00    0    1.26e+00
2007 04 28  0110    54218    4200      0    1.79e+00    0    1.26e+00
2007 04 28  0115    54218    4500      0    1.81e+00    0    1.26e+00
2007 04 28  0120    54218    4800      0    1.79e+00    0    1.24e+00
2007 04 28  0125    54218    5100      0    1.84e+00    0    1.29e+00
2007 04 28  0130    54218    5400      0    1.79e+00    0    1.26e+00
2007 04 28  0135    54218    5700      0    1.80e+00    0    1.26e+00
2007 04 28  0140    54218    6000      0    1.83e+00    0    1.28e+00
2007 04 28  0145    54218    6300      0    1.80e+00    0    1.27e+00
2007 04 28  0150    54218    6600      0    1.81e+00    0    1.26e+00
2007 04 28  0155    54218    6900      0    1.79e+00    0    1.25e+00
2007 04 28  0200    54218    7200      0    1.80e+00    0    1.26e+00
2007 04 28  0205    54218    7500      0    1.81e+00    0    1.27e+00
2007 04 28  0210    54218    7800      0    1.80e+00    0    1.26e+00
2007 04 28  0215    54218    8100      0    1.80e+00    0    1.26e+00
2007 04 28  0220    54218    8400      0    1.85e+00    0    1.29e+00
2007 04 28  0225    54218    8700      0    1.78e+00    0    1.24e+00
2007 04 28  0230    54218    9000      0    1.80e+00    0    1.26e+00
2007 04 28  0235    54218    9300      0    1.81e+00    0    1.26e+00
2007 04 28  0240    54218    9600      0    1.81e+00    0    1.26e+00
2007 04 28  0245    54218    9900      0    1.78e+00    0    1.25e+00
2007 04 28  0250    54218   10200      0    1.81e+00    0    1.27e+00
2007 04 28  0255    54218   10500      0    1.84e+00    0    1.28e+00
2007 04 28  0300    54218   10800      0    1.80e+00    0    1.27e+00
2007 04 28  0305    54218   11100      0    1.79e+00    0    1.24e+00
2007 04 28  0310    54218   11400      0    1.78e+00    0    1.24e+00
2007 04 28  0315    54218   11700      0    1.80e+00    0    1.25e+00
2007 04 28  0320    54218   12000      0    1.78e+00    0    1.25e+00
2007 04 28  0325    54218   12300      0    1.80e+00    0    1.26e+00
2007 04 28  0330    54218   12600      0    1.79e+00    0    1.25e+00
2007 04 28  0335    54218   12900      0    1.82e+00    0    1.28e+00
2007 04 28  0340    54218   13200      0    1.82e+00    0    1.26e+00
2007 04 28  0345    54218   13500      0    1.78e+00    0    1.25e+00
2007 04 28  0350    54218   13800      0    1.81e+00    0    1.27e+00
2007 04 28  0355    54218   14100      0    1.80e+00    0    1.24e+00
2007 04 28  0400    54218   14400      0    1.78e+00    0    1.25e+00
2007 04 28  0405    54218   14700      0    1.81e+00    0    1.27e+00
2007 04 28  0410    54218   15000      0    1.83e+00    0    1.28e+00
2007 04 28  0415    54218   15300      0    1.82e+00    0    1.28e+00
2007 04 28  0420    54218   15600      0    1.83e+00    0    1.28e+00
2007 04 28  0425    54218   15900      0    1.79e+00    0    1.25e+00
2007 04 28  0430    54218   16200      0    1.81e+00    0    1.28e+00
2007 04 28  0435    54218   16500      0    1.79e+00    0    1.26e+00
2007 04 28  0440    54218   16800      0    1.80e+00    0    1.26e+00
2007 04 28  0445    54218   17100      0    1.80e+00    0    1.26e+00
2007 04 28  0450    54218   17400      0    1.85e+00    0    1.30e+00
2007 04 28  0455    54218   17700      0    1.80e+00    0    1.27e+00
2007 04 28  0500    54218   18000      0    1.83e+00    0    1.29e+00
2007 04 28  0505    54218   18300      0    1.81e+00    0    1.27e+00
2007 04 28  0510    54218   18600      0    1.79e+00    0    1.25e+00
2007 04 28  0515    54218   18900      0    1.76e+00    0    1.23e+00
2007 04 28  0520    54218   19200      0    1.79e+00    0    1.26e+00
2007 04 28  0525    54218   19500      0    1.80e+00    0    1.26e+00
2007 04 28  0530    54218   19800      0    1.81e+00    0    1.28e+00
2007 04 28  0535    54218   20100      0    1.80e+00    0    1.24e+00
2007 04 28  0540    54218   20400      0    1.79e+00    0    1.23e+00
2007 04 28  0545    54218   20700      0    1.82e+00    0    1.27e+00
2007 04 28  0550    54218   21000      0    1.80e+00    0    1.25e+00
2007 04 28  0555    54218   21300      0    1.79e+00    0    1.27e+00
2007 04 28  0600    54218   21600      0    1.83e+00    0    1.28e+00
2007 04 28  0605    54218   21900      0    1.80e+00    0    1.27e+00
2007 04 28  0610    54218   22200      0    1.77e+00    0    1.24e+00
2007 04 28  0615    54218   22500      0    1.79e+00    0    1.25e+00
2007 04 28  0620    54218   22800      0    1.80e+00    0    1.27e+00
2007 04 28  0625    54218   23100      0    1.77e+00    0    1.23e+00
2007 04 28  0630    54218   23400      0    1.85e+00    0    1.30e+00
2007 04 28  0635    54218   23700      0    1.79e+00    0    1.25e+00
2007 04 28  0640    54218   24000      0    1.76e+00    0    1.24e+00
2007 04 28  0645    54218   24300      0    1.81e+00    0    1.28e+00
2007 04 28  0650    54218   24600      0    1.79e+00    0    1.24e+00
2007 04 28  0655    54218   24900      0    1.81e+00    0    1.26e+00
2007 04 28  0700    54218   25200      0    1.79e+00    0    1.26e+00
2007 04 28  0705    54218   25500      0    1.78e+00    0    1.25e+00
2007 04 28  0710    54218   25800      0    1.85e+00    0    1.30e+00
2007 04 28  0715    54218   26100      0    1.79e+00    0    1.24e+00
2007 04 28  0720    54218   26400      0    1.79e+00    0    1.26e+00
2007 04 28  0725    54218   26700      0    1.79e+00    0    1.27e+00
2007 04 28  0730    54218   27000      0    1.77e+00    0    1.23e+00
2007 04 28  0735    54218   27300      0    1.73e+00    0    1.21e+00
2007 04 28  0740    54218   27600      0    1.78e+00    0    1.25e+00
2007 04 28  0745    54218   27900      0    1.74e+00    0    1.22e+00
2007 04 28  0750    54218   28200      0    1.82e+00    0    1.28e+00
2007 04 28  0755    54218   28500      0    1.81e+00    0    1.27e+00
2007 04 28  0800    54218   28800      0    1.76e+00    0    1.23e+00
2007 04 28  0805    54218   29100      0    1.77e+00    0    1.25e+00
2007 04 28  0810    54218   29400      0    1.78e+00    0    1.25e+00
2007 04 28  0815    54218   29700      0    1.78e+00    0    1.25e+00
2007 04 28  0820    54218   30000      0    1.79e+00    0    1.27e+00
2007 04 28  0825    54218   30300      0    1.80e+00    0    1.27e+00
2007 04 28  0830    54218   30600      0    1.81e+00    0    1.27e+00
2007 04 28  0835    54218   30900      0    1.82e+00    0    1.27e+00
2007 04 28  0840    54218   31200      0    1.79e+00    0    1.25e+00
2007 04 28  0845    54218   31500      0    1.82e+00    0    1.27e+00
2007 04 28  0850    54218   31800      0    1.80e+00    0    1.24e+00
2007 04 28  0855    54218   32100      0    1.79e+00    0    1.26e+00
2007 04 28  0900    54218   32400      0    1.82e+00    0    1.28e+00
2007 04 28  0905    54218   32700      0    1.81e+00    0    1.27e+00
2007 04 28  0910    54218   33000      0    1.74e+00    0    1.23e+00
2007 04 28  0915    54218   33300      0    1.75e+00    0    1.23e+00
2007 04 28  0920    54218   33600      0    1.77e+00    0    1.24e+00
2007 04 28  0925    54218   33900      0    1.78e+00    0    1.24e+00
2007 04 28  0930    54218   34200      0    1.84e+00    0    1.29e+00
2007 04 28  0935    54218   34500      0    1.82e+00    0    1.27e+00
2007 04 28  0940    54218   34800      0    1.84e+00    0    1.29e+00
2007 04 28  0945    54218   35100      0    1.81e+00    0    1.26e+00
2007 04 28  0950    54218   35400      0    1.75e+00    0    1.22e+00
2007 04 28  0955    54218   35700      0    1.82e+00    0    1.26e+00
2007 04 28  1000    54218   36000      0    1.79e+00    0    1.25e+00
2007 04 28  1005    54218   36300      0    1.79e+00    0    1.26e+00
2007 04 28  1010    54218   36600      0    1.80e+00    0    1.27e+00
2007 04 28  1015    54218   36900      0    1.78e+00    0    1.24e+00
2007 04 28  1020    54218   37200      0    1.78e+00    0    1.24e+00
2007 04 28  1025    54218   37500      0    1.80e+00    0    1.25e+00
2007 04 28  1030    54218   37800      0    1.82e+00    0    1.27e+00
2007 04 28  1035    54218   38100      0    1.78e+00    0    1.25e+00
2007 04 28  1040    54218   38400      0    1.76e+00    0    1.23e+00
2007 04 28  1045    54218   38700      0    1.79e+00    0    1.25e+00
2007 04 28  1050    54218   39000      0    1.80e+00    0    1.27e+00
2007 04 28  1055    54218   39300      0    1.81e+00    0    1.26e+00
2007 04 28  1100    54218   39600      0    1.81e+00    0    1.26e+00
2007 04 28  1105    54218   39900      0    1.82e+00    0    1.28e+00
2007 04 28  1110    54218   40200      0    1.78e+00    0    1.25e+00
2007 04 28  1115    54218   40500      0    1.80e+00    0    1.27e+00
2007 04 28  1120    54218   40800      0    1.83e+00    0    1.29e+00
2007 04 28  1125    54218   41100      0    1.79e+00    0    1.26e+00
2007 04 28  1130    54218   41400      0    1.82e+00    0    1.28e+00
2007 04 28  1135    54218   41700      0    1.81e+00    0    1.25e+00
2007 04 28  1140    54218   42000      0    1.76e+00    0    1.23e+00
2007 04 28  1145    54218   42300      0    1.83e+00    0    1.29e+00
2007 04 28  1150    54218   42600      0    1.84e+00    0    1.29e+00
2007 04 28  1155    54218   42900      0    1.77e+00    0    1.24e+00
2007 04 28  1200    54218   43200      0    1.82e+00    0    1.28e+00
2007 04 28  1205    54218   43500      0    1.82e+00    0    1.28e+00
2007 04 28  1210    54218   43800      0    1.81e+00    0    1.26e+00
2007 04 28  1215    54218   44100      0    1.81e+00    0    1.27e+00
2007 04 28  1220    54218   44400      0    1.80e+00    0    1.26e+00
2007 04 28  1225    54218   44700      0    1.80e+00    0    1.26e+00
2007 04 28  1230    54218   45000      0    1.79e+00    0    1.26e+00
2007 04 28  1235    54218   45300      0    1.76e+00    0    1.23e+00
2007 04 28  1240    54218   45600      0    1.79e+00    0    1.25e+00
2007 04 28  1245    54218   45900      0    1.77e+00    0    1.24e+00
2007 04 28  1250    54218   46200      0    1.78e+00    0    1.25e+00
2007 04 28  1255    54218   46500      0    1.78e+00    0    1.25e+00
2007 04 28  1300    54218   46800      0    1.82e+00    0    1.27e+00
2007 04 28  1305    54218   47100      0    1.77e+00    0    1.24e+00
2007 04 28  1310    54218   47400      0    1.79e+00    0    1.26e+00
2007 04 28  1315    54218   47700      0    1.80e+00    0    1.27e+00
2007 04 28  1320    54218   48000      0    1.80e+00    0    1.26e+00
2007 04 28  1325    54218   48300      0    1.79e+00    0    1.26e+00
2007 04 28  1330    54218   48600      0    1.79e+00    0    1.25e+00
2007 04 28  1335    54218   48900      0    1.82e+00    0    1.27e+00
2007 04 28  1340    54218   49200      0    1.81e+00    0    1.28e+00
2007 04 28  1345    54218   49500      0    1.79e+00    0    1.26e+00
2007 04 28  1350    54218   49800      0    1.75e+00    0    1.24e+00
2007 04 28  1355    54218   50100      0    1.78e+00    0    1.26e+00
2007 04 28  1400    54218   50400      0    1.79e+00    0    1.24e+00
2007 04 28  1405    54218   50700      0    1.82e+00    0    1.28e+00
2007 04 28  1410    54218   51000      0    1.75e+00    0    1.22e+00
2007 04 28  1415    54218   51300      0    1.82e+00    0    1.27e+00
2007 04 28  1420    54218   51600      0    1.81e+00    0    1.27e+00
2007 04 28  1425    54218   51900      0    1.80e+00    0    1.25e+00
2007 04 28  1430    54218   52200      0    1.79e+00    0    1.24e+00
2007 04 28  1435    54218   52500      0    1.81e+00    0    1.27e+00
2007 04 28  1440    54218   52800      0    1.82e+00    0    1.29e+00
2007 04 28  1445    54218   53100      0    1.79e+00    0    1.25e+00
2007 04 28  1450    54218   53400      0    1.79e+00    0    1.25e+00
2007 04 28  1455    54218   53700      0    1.83e+00    0    1.27e+00
2007 04 28  1500    54218   54000      0    1.82e+00    0    1.27e+00
2007 04 28  1505    54218   54300      0    1.82e+00    0    1.28e+00
2007 04 28  1510    54218   54600      0    1.83e+00    0    1.27e+00
2007 04 28  1515    54218   54900      0    1.80e+00    0    1.25e+00
2007 04 28  1520    54218   55200      0    1.82e+00    0    1.27e+00
2007 04 28  1525    54218   55500      0    1.84e+00    0    1.28e+00
2007 04 28  1530    54218   55800      0    1.79e+00    0    1.25e+00
2007 04 28  1535    54218   56100      0    1.79e+00    0    1.25e+00
2007 04 28  1540    54218   56400      0    1.80e+00    0    1.26e+00
2007 04 28  1545    54218   56700      0    1.80e+00    0    1.27e+00
2007 04 28  1550    54218   57000      0    1.81e+00    0    1.26e+00
2007 04 28  1555    54218   57300      0    1.81e+00    0    1.27e+00
2007 04 28  1600    54218   57600      0    1.79e+00    0    1.24e+00
2007 04 28  1605    54218   57900      0    1.77e+00    0    1.22e+00
2007 04 28  1610    54218   58200      0    1.81e+00    0    1.26e+00
2007 04 28  1615    54218   58500      0    1.80e+00    0    1.26e+00
2007 04 28  1620    54218   58800      0    1.79e+00    0    1.25e+00
2007 04 28  1625    54218   59100      0    1.81e+00    0    1.25e+00
2007 04 28  1630    54218   59400      0    1.80e+00    0    1.25e+00
2007 04 28  1635    54218   59700      0    1.79e+00    0    1.24e+00
2007 04 28  1640    54218   60000      0    1.81e+00    0    1.27e+00
2007 04 28  1645    54218   60300      0    1.76e+00    0    1.23e+00
2007 04 28  1650    54218   60600      0    1.82e+00    0    1.27e+00
2007 04 28  1655    54218   60900      0    1.84e+00    0    1.28e+00
2007 04 28  1700    54218   61200      0    1.81e+00    0    1.27e+00
2007 04 28  1705    54218   61500      0    1.81e+00    0    1.29e+00
2007 04 28  1710    54218   61800      0    1.80e+00    0    1.25e+00
2007 04 28  1715    54218   62100      0    1.75e+00    0    1.22e+00
2007 04 28  1720    54218   62400      0    1.80e+00    0    1.27e+00
2007 04 28  1725    54218   62700      0    1.77e+00    0    1.24e+00
2007 04 28  1730    54218   63000      0    1.79e+00    0    1.25e+00
2007 04 28  1735    54218   63300      0    1.77e+00    0    1.24e+00
2007 04 28  1740    54218   63600      0    1.81e+00    0    1.26e+00
2007 04 28  1745    54218   63900      0    1.79e+00    0    1.26e+00
2007 04 28  1750    54218   64200      0    1.80e+00    0    1.28e+00
2007 04 28  1755    54218   64500      0    1.79e+00    0    1.25e+00
2007 04 28  1800    54218   64800      0    1.80e+00    0    1.26e+00
2007 04 28  1805    54218   65100      0    1.80e+00    0    1.25e+00
2007 04 28  1810    54218   65400      0    1.82e+00    0    1.27e+00
2007 04 28  1815    54218   65700      0    1.78e+00    0    1.25e+00
2007 04 28  1820    54218   66000      0    1.77e+00    0    1.23e+00
2007 04 28  1825    54218   66300      0    1.80e+00    0    1.27e+00
2007 04 28  1830    54218   66600      0    1.79e+00    0    1.26e+00
2007 04 28  1835    54218   66900      0    1.80e+00    0    1.26e+00
2007 04 28  1840    54218   67200      0    1.80e+00    0    1.25e+00
2007 04 28  1845    54218   67500      0    1.78e+00    0    1.24e+00
2007 04 28  1850    54218   67800      0    1.77e+00    0    1.25e+00
2007 04 28  1855    54218   68100      0    1.78e+00    0    1.24e+00
2007 04 28  1900    54218   68400      0    1.81e+00    0    1.26e+00
2007 04 28  1905    54218   68700      0    1.77e+00    0    1.24e+00
2007 04 28  1910    54218   69000      0    1.80e+00    0    1.26e+00
2007 04 28  1915    54218   69300      0    1.74e+00    0    1.21e+00
2007 04 28  1920    54218   69600      0    1.79e+00    0    1.24e+00
2007 04 28  1925    54218   69900      0    1.80e+00    0    1.26e+00
2007 04 28  1930    54218   70200      0    1.75e+00    0    1.23e+00
2007 04 28  1935    54218   70500      0    1.78e+00    0    1.25e+00
2007 04 28  1940    54218   70800      0    1.83e+00    0    1.28e+00
2007 04 28  1945    54218   71100      0    1.77e+00    0    1.24e+00
2007 04 28  1950    54218   71400      0    1.78e+00    0    1.23e+00
2007 04 28  1955    54218   71700      0    1.81e+00    0    1.26e+00
2007 04 28  2000    54218   72000      0    1.79e+00    0    1.25e+00
2007 04 28  2005    54218   72300      0    1.83e+00    0    1.28e+00
2007 04 28  2010    54218   72600      0    1.83e+00    0    1.28e+00
2007 04 28  2015    54218   72900      0    1.78e+00    0    1.27e+00
2007 04 28  2020    54218   73200      0    1.77e+00    0    1.23e+00
2007 04 28  2025    54218   73500      0    1.78e+00    0    1.24e+00
2007 04 28  2030    54218   73800      0    1.84e+00    0    1.30e+00
2007 04 28  2035    54218   74100      0    1.80e+00    0    1.26e+00
2007 04 28  2040    54218   74400      0    1.80e+00    0    1.26e+00
2007 04 28  2045    54218   74700      0    1.80e+00    0    1.27e+00
2007 04 28  2050    54218   75000      0    1.79e+00    0    1.25e+00
2007 04 28  2055    54218   75300      0    1.77e+00    0    1.23e+00
2007 04 28  2100    54218   75600      0    1.80e+00    0    1.26e+00
2007 04 28  2105    54218   75900      0    1.80e+00    0    1.25e+00
2007 04 28  2110    54218   76200      0    1.79e+00    0    1.25e+00
2007 04 28  2115    54218   76500      0    1.78e+00    0    1.24e+00
2007 04 28  2120    54218   76800      0    1.80e+00    0    1.26e+00
2007 04 28  2125    54218   77100      0    1.79e+00    0    1.25e+00
2007 04 28  2130    54218   77400      0    1.76e+00    0    1.23e+00
2007 04 28  2135    54218   77700      0    1.80e+00    0    1.26e+00
2007 04 28  2140    54218   78000      0    1.79e+00    0    1.26e+00
2007 04 28  2145    54218   78300      0    1.78e+00    0    1.25e+00
2007 04 28  2150    54218   78600      0    1.80e+00    0    1.26e+00
2007 04 28  2155    54218   78900      0    1.84e+00    0    1.29e+00
2007 04 28  2200    54218   79200      0    1.77e+00    0    1.24e+00
2007 04 28  2205    54218   79500      0    1.80e+00    0    1.26e+00
2007 04 28  2210    54218   79800      0    1.78e+00    0    1.25e+00
2007 04 28  2215    54218   80100      0    1.77e+00    0    1.25e+00
2007 04 28  2220    54218   80400      0    1.81e+00    0    1.27e+00
2007 04 28  2225    54218   80700      0    1.82e+00    0    1.26e+00
2007 04 28  2230    54218   81000      0    1.77e+00    0    1.24e+00
2007 04 28  2235    54218   81300      0    1.80e+00    0    1.26e+00
2007 04 28  2240    54218   81600      0    1.77e+00    0    1.24e+00
2007 04 28  2245    54218   81900      0    1.77e+00    0    1.22e+00
2007 04 28  2250    54218   82200      0    1.78e+00    0    1.24e+00
2007 04 28  2255    54218   82500      0    1.81e+00    0    1.27e+00
2007 04 28  2300    54218   82800      0    1.80e+00    0    1.25e+00
2007 04 28  2305    54218   83100      0    1.77e+00    0    1.24e+00
2007 04 28  2310    54218   83400      0    1.74e+00    0    1.21e+00
2007 04 28  2315    54218   83700      0    1.78e+00    0    1.23e+00
2007 04 28  2320    54218   84000      0    1.79e+00    0    1.25e+00
2007 04 28  2325    54218   84300      0    1.81e+00    0    1.27e+00
2007 04 28  2330    54218   84600      0    1.76e+00    0    1.23e+00
2007 04 28  2335    54218   84900      0    1.79e+00    0    1.26e+00
2007 04 28  2340    54218   85200      0    1.78e+00    0    1.23e+00
2007 04 28  2345    54218   85500      0    1.78e+00    0    1.25e+00
2007 04 28  2350    54218   85800      0    1.78e+00    0    1.25e+00
2007 04 28  2355    54218   86100      0    1.79e+00    0    1.26e+00
