:Data_list: 20070328_ace_sis_5m.txt
:Created: 2007 Mar 29 0011 UT
# Prepared by the U.S. Dept. of Commerce, NOAA, Space Environment Center.
# Please send comments and suggestions to SEC.Webmaster@noaa.gov 
# 
# Units: proton flux p/cs2-sec-ster
# Status(S): 0 = nominal data, 1 to 8 = bad data record, 9 = no data
# Missing data values: -1.00e+05
# Source: ACE Satellite - Solar Isotope Spectrometer
#
# 5-minute averaged Real-time Integral Flux of High-energy Solar Protons
# 
#                 Modified Seconds
# UT Date   Time   Julian  of the      ---- Integral Proton Flux ----
# YR MO DA  HHMM     Day     Day       S    > 10 MeV    S    > 30 MeV
#--------------------------------------------------------------------
2007 03 28  0000    54187       0      0    1.75e+00    0    1.22e+00
2007 03 28  0005    54187     300      0    1.77e+00    0    1.23e+00
2007 03 28  0010    54187     600      0    1.75e+00    0    1.22e+00
2007 03 28  0015    54187     900      0    1.78e+00    0    1.25e+00
2007 03 28  0020    54187    1200      0    1.76e+00    0    1.22e+00
2007 03 28  0025    54187    1500      0    1.78e+00    0    1.24e+00
2007 03 28  0030    54187    1800      0    1.78e+00    0    1.24e+00
2007 03 28  0035    54187    2100      0    1.78e+00    0    1.26e+00
2007 03 28  0040    54187    2400      0    1.76e+00    0    1.24e+00
2007 03 28  0045    54187    2700      0    1.77e+00    0    1.23e+00
2007 03 28  0050    54187    3000      0    1.72e+00    0    1.21e+00
2007 03 28  0055    54187    3300      0    1.77e+00    0    1.24e+00
2007 03 28  0100    54187    3600      0    1.73e+00    0    1.21e+00
2007 03 28  0105    54187    3900      0    1.78e+00    0    1.25e+00
2007 03 28  0110    54187    4200      0    1.80e+00    0    1.25e+00
2007 03 28  0115    54187    4500      0    1.76e+00    0    1.23e+00
2007 03 28  0120    54187    4800      0    1.78e+00    0    1.25e+00
2007 03 28  0125    54187    5100      0    1.78e+00    0    1.26e+00
2007 03 28  0130    54187    5400      0    1.76e+00    0    1.24e+00
2007 03 28  0135    54187    5700      0    1.80e+00    0    1.27e+00
2007 03 28  0140    54187    6000      0    1.73e+00    0    1.21e+00
2007 03 28  0145    54187    6300      0    1.77e+00    0    1.24e+00
2007 03 28  0150    54187    6600      0    1.79e+00    0    1.25e+00
2007 03 28  0155    54187    6900      0    1.78e+00    0    1.24e+00
2007 03 28  0200    54187    7200      0    1.74e+00    0    1.22e+00
2007 03 28  0205    54187    7500      0    1.78e+00    0    1.24e+00
2007 03 28  0210    54187    7800      0    1.78e+00    0    1.25e+00
2007 03 28  0215    54187    8100      0    1.77e+00    0    1.26e+00
2007 03 28  0220    54187    8400      0    1.78e+00    0    1.25e+00
2007 03 28  0225    54187    8700      0    1.77e+00    0    1.24e+00
2007 03 28  0230    54187    9000      0    1.79e+00    0    1.26e+00
2007 03 28  0235    54187    9300      0    1.77e+00    0    1.23e+00
2007 03 28  0240    54187    9600      0    1.76e+00    0    1.24e+00
2007 03 28  0245    54187    9900      0    1.77e+00    0    1.24e+00
2007 03 28  0250    54187   10200      0    1.78e+00    0    1.24e+00
2007 03 28  0255    54187   10500      0    1.76e+00    0    1.24e+00
2007 03 28  0300    54187   10800      0    1.73e+00    0    1.20e+00
2007 03 28  0305    54187   11100      0    1.78e+00    0    1.25e+00
2007 03 28  0310    54187   11400      0    1.76e+00    0    1.23e+00
2007 03 28  0315    54187   11700      0    1.75e+00    0    1.23e+00
2007 03 28  0320    54187   12000      0    1.76e+00    0    1.21e+00
2007 03 28  0325    54187   12300      0    1.80e+00    0    1.26e+00
2007 03 28  0330    54187   12600      0    1.78e+00    0    1.24e+00
2007 03 28  0335    54187   12900      0    1.80e+00    0    1.27e+00
2007 03 28  0340    54187   13200      0    1.73e+00    0    1.21e+00
2007 03 28  0345    54187   13500      0    1.80e+00    0    1.25e+00
2007 03 28  0350    54187   13800      0    1.79e+00    0    1.26e+00
2007 03 28  0355    54187   14100      0    1.78e+00    0    1.25e+00
2007 03 28  0400    54187   14400      0    1.82e+00    0    1.27e+00
2007 03 28  0405    54187   14700      0    1.78e+00    0    1.25e+00
2007 03 28  0410    54187   15000      0    1.78e+00    0    1.25e+00
2007 03 28  0415    54187   15300      0    1.76e+00    0    1.23e+00
2007 03 28  0420    54187   15600      0    1.78e+00    0    1.25e+00
2007 03 28  0425    54187   15900      0    1.78e+00    0    1.25e+00
2007 03 28  0430    54187   16200      0    1.78e+00    0    1.25e+00
2007 03 28  0435    54187   16500      0    1.78e+00    0    1.25e+00
2007 03 28  0440    54187   16800      0    1.76e+00    0    1.23e+00
2007 03 28  0445    54187   17100      0    1.75e+00    0    1.22e+00
2007 03 28  0450    54187   17400      0    1.79e+00    0    1.26e+00
2007 03 28  0455    54187   17700      0    1.77e+00    0    1.24e+00
2007 03 28  0500    54187   18000      0    1.78e+00    0    1.25e+00
2007 03 28  0505    54187   18300      0    1.80e+00    0    1.26e+00
2007 03 28  0510    54187   18600      0    1.75e+00    0    1.23e+00
2007 03 28  0515    54187   18900      0    1.75e+00    0    1.22e+00
2007 03 28  0520    54187   19200      0    1.80e+00    0    1.27e+00
2007 03 28  0525    54187   19500      0    1.78e+00    0    1.26e+00
2007 03 28  0530    54187   19800      0    1.76e+00    0    1.23e+00
2007 03 28  0535    54187   20100      0    1.77e+00    0    1.24e+00
2007 03 28  0540    54187   20400      0    1.79e+00    0    1.25e+00
2007 03 28  0545    54187   20700      0    1.77e+00    0    1.24e+00
2007 03 28  0550    54187   21000      0    1.79e+00    0    1.25e+00
2007 03 28  0555    54187   21300      0    1.79e+00    0    1.26e+00
2007 03 28  0600    54187   21600      0    1.76e+00    0    1.23e+00
2007 03 28  0605    54187   21900      0    1.78e+00    0    1.23e+00
2007 03 28  0610    54187   22200      0    1.76e+00    0    1.23e+00
2007 03 28  0615    54187   22500      0    1.79e+00    0    1.26e+00
2007 03 28  0620    54187   22800      0    1.79e+00    0    1.27e+00
2007 03 28  0625    54187   23100      0    1.76e+00    0    1.23e+00
2007 03 28  0630    54187   23400      0    1.71e+00    0    1.19e+00
2007 03 28  0635    54187   23700      0    1.73e+00    0    1.22e+00
2007 03 28  0640    54187   24000      0    1.75e+00    0    1.22e+00
2007 03 28  0645    54187   24300      0    1.78e+00    0    1.25e+00
2007 03 28  0650    54187   24600      0    1.76e+00    0    1.24e+00
2007 03 28  0655    54187   24900      0    1.77e+00    0    1.24e+00
2007 03 28  0700    54187   25200      0    1.78e+00    0    1.25e+00
2007 03 28  0705    54187   25500      0    1.77e+00    0    1.24e+00
2007 03 28  0710    54187   25800      0    1.78e+00    0    1.25e+00
2007 03 28  0715    54187   26100      0    1.78e+00    0    1.25e+00
2007 03 28  0720    54187   26400      0    1.76e+00    0    1.22e+00
2007 03 28  0725    54187   26700      0    1.74e+00    0    1.23e+00
2007 03 28  0730    54187   27000      0    1.78e+00    0    1.24e+00
2007 03 28  0735    54187   27300      0    1.75e+00    0    1.23e+00
2007 03 28  0740    54187   27600      0    1.80e+00    0    1.25e+00
2007 03 28  0745    54187   27900      0    1.72e+00    0    1.20e+00
2007 03 28  0750    54187   28200      0    1.75e+00    0    1.23e+00
2007 03 28  0755    54187   28500      0    1.78e+00    0    1.25e+00
2007 03 28  0800    54187   28800      0    1.76e+00    0    1.24e+00
2007 03 28  0805    54187   29100      0    1.73e+00    0    1.22e+00
2007 03 28  0810    54187   29400      0    1.79e+00    0    1.26e+00
2007 03 28  0815    54187   29700      0    1.79e+00    0    1.26e+00
2007 03 28  0820    54187   30000      0    1.74e+00    0    1.21e+00
2007 03 28  0825    54187   30300      0    1.74e+00    0    1.21e+00
2007 03 28  0830    54187   30600      0    1.78e+00    0    1.25e+00
2007 03 28  0835    54187   30900      0    1.78e+00    0    1.24e+00
2007 03 28  0840    54187   31200      0    1.76e+00    0    1.22e+00
2007 03 28  0845    54187   31500      0    1.77e+00    0    1.24e+00
2007 03 28  0850    54187   31800      0    1.74e+00    0    1.21e+00
2007 03 28  0855    54187   32100      0    1.77e+00    0    1.25e+00
2007 03 28  0900    54187   32400      0    1.78e+00    0    1.25e+00
2007 03 28  0905    54187   32700      0    1.78e+00    0    1.25e+00
2007 03 28  0910    54187   33000      0    1.74e+00    0    1.22e+00
2007 03 28  0915    54187   33300      0    1.81e+00    0    1.26e+00
2007 03 28  0920    54187   33600      0    1.76e+00    0    1.23e+00
2007 03 28  0925    54187   33900      0    1.79e+00    0    1.26e+00
2007 03 28  0930    54187   34200      0    1.75e+00    0    1.21e+00
2007 03 28  0935    54187   34500      0    1.76e+00    0    1.23e+00
2007 03 28  0940    54187   34800      0    1.82e+00    0    1.29e+00
2007 03 28  0945    54187   35100      0    1.73e+00    0    1.22e+00
2007 03 28  0950    54187   35400      0    1.75e+00    0    1.23e+00
2007 03 28  0955    54187   35700      0    1.80e+00    0    1.25e+00
2007 03 28  1000    54187   36000      0    1.79e+00    0    1.25e+00
2007 03 28  1005    54187   36300      0    1.73e+00    0    1.22e+00
2007 03 28  1010    54187   36600      0    1.79e+00    0    1.26e+00
2007 03 28  1015    54187   36900      0    1.76e+00    0    1.22e+00
2007 03 28  1020    54187   37200      0    1.80e+00    0    1.25e+00
2007 03 28  1025    54187   37500      0    1.77e+00    0    1.26e+00
2007 03 28  1030    54187   37800      0    1.75e+00    0    1.22e+00
2007 03 28  1035    54187   38100      0    1.75e+00    0    1.21e+00
2007 03 28  1040    54187   38400      0    1.74e+00    0    1.21e+00
2007 03 28  1045    54187   38700      0    1.66e+00    0    1.16e+00
2007 03 28  1050    54187   39000      0    1.76e+00    0    1.23e+00
2007 03 28  1055    54187   39300      0    1.76e+00    0    1.25e+00
2007 03 28  1100    54187   39600      0    1.79e+00    0    1.25e+00
2007 03 28  1105    54187   39900      0    1.78e+00    0    1.25e+00
2007 03 28  1110    54187   40200      0    1.75e+00    0    1.23e+00
2007 03 28  1115    54187   40500      0    1.78e+00    0    1.26e+00
2007 03 28  1120    54187   40800      0    1.78e+00    0    1.25e+00
2007 03 28  1125    54187   41100      0    1.75e+00    0    1.21e+00
2007 03 28  1130    54187   41400      0    1.73e+00    0    1.22e+00
2007 03 28  1135    54187   41700      0    1.76e+00    0    1.23e+00
2007 03 28  1140    54187   42000      0    1.77e+00    0    1.25e+00
2007 03 28  1145    54187   42300      0    1.75e+00    0    1.22e+00
2007 03 28  1150    54187   42600      0    1.81e+00    0    1.28e+00
2007 03 28  1155    54187   42900      0    1.74e+00    0    1.21e+00
2007 03 28  1200    54187   43200      0    1.75e+00    0    1.23e+00
2007 03 28  1205    54187   43500      0    1.77e+00    0    1.24e+00
2007 03 28  1210    54187   43800      0    1.76e+00    0    1.23e+00
2007 03 28  1215    54187   44100      0    1.84e+00    0    1.29e+00
2007 03 28  1220    54187   44400      0    1.82e+00    0    1.28e+00
2007 03 28  1225    54187   44700      0    1.77e+00    0    1.24e+00
2007 03 28  1230    54187   45000      0    1.78e+00    0    1.25e+00
2007 03 28  1235    54187   45300      0    1.78e+00    0    1.26e+00
2007 03 28  1240    54187   45600      0    1.77e+00    0    1.24e+00
2007 03 28  1245    54187   45900      0    1.76e+00    0    1.24e+00
2007 03 28  1250    54187   46200      0    1.79e+00    0    1.26e+00
2007 03 28  1255    54187   46500      0    1.77e+00    0    1.25e+00
2007 03 28  1300    54187   46800      0    1.69e+00    0    1.18e+00
2007 03 28  1305    54187   47100      0    1.73e+00    0    1.22e+00
2007 03 28  1310    54187   47400      0    1.78e+00    0    1.24e+00
2007 03 28  1315    54187   47700      0    1.78e+00    0    1.24e+00
2007 03 28  1320    54187   48000      0    1.77e+00    0    1.24e+00
2007 03 28  1325    54187   48300      0    1.74e+00    0    1.22e+00
2007 03 28  1330    54187   48600      0    1.76e+00    0    1.22e+00
2007 03 28  1335    54187   48900      0    1.77e+00    0    1.24e+00
2007 03 28  1340    54187   49200      0    1.76e+00    0    1.24e+00
2007 03 28  1345    54187   49500      0    1.80e+00    0    1.27e+00
2007 03 28  1350    54187   49800      0    1.93e+00    0    1.23e+00
2007 03 28  1355    54187   50100      0    1.77e+00    0    1.24e+00
2007 03 28  1400    54187   50400      0    1.83e+00    0    1.27e+00
2007 03 28  1405    54187   50700      0    1.82e+00    0    1.27e+00
2007 03 28  1410    54187   51000      0    1.79e+00    0    1.25e+00
2007 03 28  1415    54187   51300      0    1.75e+00    0    1.24e+00
2007 03 28  1420    54187   51600      0    1.75e+00    0    1.23e+00
2007 03 28  1425    54187   51900      0    1.79e+00    0    1.25e+00
2007 03 28  1430    54187   52200      0    1.77e+00    0    1.25e+00
2007 03 28  1435    54187   52500      0    1.77e+00    0    1.23e+00
2007 03 28  1440    54187   52800      0    1.79e+00    0    1.24e+00
2007 03 28  1445    54187   53100      0    1.80e+00    0    1.26e+00
2007 03 28  1450    54187   53400      0    1.80e+00    0    1.27e+00
2007 03 28  1455    54187   53700      0    1.81e+00    0    1.27e+00
2007 03 28  1500    54187   54000      0    1.78e+00    0    1.25e+00
2007 03 28  1505    54187   54300      0    1.77e+00    0    1.23e+00
2007 03 28  1510    54187   54600      0    1.79e+00    0    1.25e+00
2007 03 28  1515    54187   54900      0    1.78e+00    0    1.25e+00
2007 03 28  1520    54187   55200      0    1.85e+00    0    1.30e+00
2007 03 28  1525    54187   55500      0    1.78e+00    0    1.24e+00
2007 03 28  1530    54187   55800      0    1.79e+00    0    1.26e+00
2007 03 28  1535    54187   56100      0    1.81e+00    0    1.27e+00
2007 03 28  1540    54187   56400      0    1.81e+00    0    1.27e+00
2007 03 28  1545    54187   56700      0    1.77e+00    0    1.23e+00
2007 03 28  1550    54187   57000      0    1.75e+00    0    1.23e+00
2007 03 28  1555    54187   57300      0    1.79e+00    0    1.25e+00
2007 03 28  1600    54187   57600      0    1.79e+00    0    1.25e+00
2007 03 28  1605    54187   57900      0    1.77e+00    0    1.24e+00
2007 03 28  1610    54187   58200      0    1.76e+00    0    1.24e+00
2007 03 28  1615    54187   58500      0    1.78e+00    0    1.25e+00
2007 03 28  1620    54187   58800      0    1.79e+00    0    1.24e+00
2007 03 28  1625    54187   59100      0    1.83e+00    0    1.28e+00
2007 03 28  1630    54187   59400      0    1.81e+00    0    1.25e+00
2007 03 28  1635    54187   59700      0    1.79e+00    0    1.24e+00
2007 03 28  1640    54187   60000      0    1.80e+00    0    1.26e+00
2007 03 28  1645    54187   60300      0    1.76e+00    0    1.23e+00
2007 03 28  1650    54187   60600      0    1.81e+00    0    1.26e+00
2007 03 28  1655    54187   60900      0    1.77e+00    0    1.24e+00
2007 03 28  1700    54187   61200      0    1.75e+00    0    1.22e+00
2007 03 28  1705    54187   61500      0    1.78e+00    0    1.25e+00
2007 03 28  1710    54187   61800      0    1.79e+00    0    1.23e+00
2007 03 28  1715    54187   62100      0    1.81e+00    0    1.27e+00
2007 03 28  1720    54187   62400      0    1.82e+00    0    1.28e+00
2007 03 28  1725    54187   62700      0    1.79e+00    0    1.26e+00
2007 03 28  1730    54187   63000      0    1.80e+00    0    1.26e+00
2007 03 28  1735    54187   63300      0    1.76e+00    0    1.24e+00
2007 03 28  1740    54187   63600      0    1.78e+00    0    1.25e+00
2007 03 28  1745    54187   63900      0    1.76e+00    0    1.22e+00
2007 03 28  1750    54187   64200      0    1.82e+00    0    1.28e+00
2007 03 28  1755    54187   64500      0    1.77e+00    0    1.25e+00
2007 03 28  1800    54187   64800      0    1.80e+00    0    1.25e+00
2007 03 28  1805    54187   65100      0    1.81e+00    0    1.27e+00
2007 03 28  1810    54187   65400      0    1.78e+00    0    1.24e+00
2007 03 28  1815    54187   65700      0    1.83e+00    0    1.28e+00
2007 03 28  1820    54187   66000      0    1.77e+00    0    1.24e+00
2007 03 28  1825    54187   66300      0    1.80e+00    0    1.26e+00
2007 03 28  1830    54187   66600      0    1.77e+00    0    1.24e+00
2007 03 28  1835    54187   66900      0    1.80e+00    0    1.25e+00
2007 03 28  1840    54187   67200      0    1.79e+00    0    1.26e+00
2007 03 28  1845    54187   67500      0    1.76e+00    0    1.23e+00
2007 03 28  1850    54187   67800      0    1.80e+00    0    1.27e+00
2007 03 28  1855    54187   68100      0    1.77e+00    0    1.23e+00
2007 03 28  1900    54187   68400      0    1.80e+00    0    1.26e+00
2007 03 28  1905    54187   68700      0    1.80e+00    0    1.27e+00
2007 03 28  1910    54187   69000      0    1.79e+00    0    1.24e+00
2007 03 28  1915    54187   69300      0    1.83e+00    0    1.28e+00
2007 03 28  1920    54187   69600      0    1.81e+00    0    1.27e+00
2007 03 28  1925    54187   69900      0    1.77e+00    0    1.24e+00
2007 03 28  1930    54187   70200      0    1.79e+00    0    1.26e+00
2007 03 28  1935    54187   70500      0    1.84e+00    0    1.28e+00
2007 03 28  1940    54187   70800      0    1.76e+00    0    1.23e+00
2007 03 28  1945    54187   71100      0    1.81e+00    0    1.25e+00
2007 03 28  1950    54187   71400      0    1.77e+00    0    1.24e+00
2007 03 28  1955    54187   71700      0    1.80e+00    0    1.25e+00
2007 03 28  2000    54187   72000      0    1.80e+00    0    1.26e+00
2007 03 28  2005    54187   72300      0    1.78e+00    0    1.25e+00
2007 03 28  2010    54187   72600      0    1.81e+00    0    1.27e+00
2007 03 28  2015    54187   72900      0    1.82e+00    0    1.27e+00
2007 03 28  2020    54187   73200      0    1.80e+00    0    1.26e+00
2007 03 28  2025    54187   73500      0    1.77e+00    0    1.25e+00
2007 03 28  2030    54187   73800      0    1.79e+00    0    1.25e+00
2007 03 28  2035    54187   74100      0    1.79e+00    0    1.26e+00
2007 03 28  2040    54187   74400      0    1.79e+00    0    1.24e+00
2007 03 28  2045    54187   74700      0    1.75e+00    0    1.22e+00
2007 03 28  2050    54187   75000      0    1.74e+00    0    1.22e+00
2007 03 28  2055    54187   75300      0    1.80e+00    0    1.26e+00
2007 03 28  2100    54187   75600      0    1.79e+00    0    1.25e+00
2007 03 28  2105    54187   75900      0    1.81e+00    0    1.27e+00
2007 03 28  2110    54187   76200      0    1.78e+00    0    1.25e+00
2007 03 28  2115    54187   76500      0    1.79e+00    0    1.26e+00
2007 03 28  2120    54187   76800      0    1.77e+00    0    1.25e+00
2007 03 28  2125    54187   77100      0    1.82e+00    0    1.28e+00
2007 03 28  2130    54187   77400      0    1.81e+00    0    1.27e+00
2007 03 28  2135    54187   77700      0    1.73e+00    0    1.22e+00
2007 03 28  2140    54187   78000      0    1.76e+00    0    1.23e+00
2007 03 28  2145    54187   78300      0    1.75e+00    0    1.23e+00
2007 03 28  2150    54187   78600      0    1.73e+00    0    1.20e+00
2007 03 28  2155    54187   78900      0    1.78e+00    0    1.26e+00
2007 03 28  2200    54187   79200      0    1.86e+00    0    1.31e+00
2007 03 28  2205    54187   79500      0    1.79e+00    0    1.25e+00
2007 03 28  2210    54187   79800      0    1.75e+00    0    1.22e+00
2007 03 28  2215    54187   80100      0    1.78e+00    0    1.25e+00
2007 03 28  2220    54187   80400      0    1.74e+00    0    1.22e+00
2007 03 28  2225    54187   80700      0    1.74e+00    0    1.21e+00
2007 03 28  2230    54187   81000      0    1.78e+00    0    1.27e+00
2007 03 28  2235    54187   81300      0    1.81e+00    0    1.27e+00
2007 03 28  2240    54187   81600      0    1.78e+00    0    1.25e+00
2007 03 28  2245    54187   81900      0    1.78e+00    0    1.23e+00
2007 03 28  2250    54187   82200      0    1.81e+00    0    1.26e+00
2007 03 28  2255    54187   82500      0    1.78e+00    0    1.24e+00
2007 03 28  2300    54187   82800      0    1.75e+00    0    1.23e+00
2007 03 28  2305    54187   83100      0    1.77e+00    0    1.24e+00
2007 03 28  2310    54187   83400      0    1.75e+00    0    1.22e+00
2007 03 28  2315    54187   83700      0    1.77e+00    0    1.23e+00
2007 03 28  2320    54187   84000      0    1.77e+00    0    1.24e+00
2007 03 28  2325    54187   84300      0    1.77e+00    0    1.25e+00
2007 03 28  2330    54187   84600      0    1.76e+00    0    1.23e+00
2007 03 28  2335    54187   84900      0    1.80e+00    0    1.25e+00
2007 03 28  2340    54187   85200      0    1.77e+00    0    1.24e+00
2007 03 28  2345    54187   85500      0    1.77e+00    0    1.24e+00
2007 03 28  2350    54187   85800      0    1.78e+00    0    1.26e+00
2007 03 28  2355    54187   86100      0    1.76e+00    0    1.24e+00
