:Data_list: 20070224_ace_sis_5m.txt
:Created: 2007 Feb 25 0011 UT
# Prepared by the U.S. Dept. of Commerce, NOAA, Space Environment Center.
# Please send comments and suggestions to SEC.Webmaster@noaa.gov 
# 
# Units: proton flux p/cs2-sec-ster
# Status(S): 0 = nominal data, 1 to 8 = bad data record, 9 = no data
# Missing data values: -1.00e+05
# Source: ACE Satellite - Solar Isotope Spectrometer
#
# 5-minute averaged Real-time Integral Flux of High-energy Solar Protons
# 
#                 Modified Seconds
# UT Date   Time   Julian  of the      ---- Integral Proton Flux ----
# YR MO DA  HHMM     Day     Day       S    > 10 MeV    S    > 30 MeV
#--------------------------------------------------------------------
2007 02 24  0000    54155       0      0    1.77e+00    0    1.24e+00
2007 02 24  0005    54155     300      0    1.77e+00    0    1.24e+00
2007 02 24  0010    54155     600      0    1.76e+00    0    1.24e+00
2007 02 24  0015    54155     900      0    1.79e+00    0    1.25e+00
2007 02 24  0020    54155    1200      0    1.79e+00    0    1.27e+00
2007 02 24  0025    54155    1500      0    1.84e+00    0    1.29e+00
2007 02 24  0030    54155    1800      0    1.79e+00    0    1.25e+00
2007 02 24  0035    54155    2100      0    1.74e+00    0    1.22e+00
2007 02 24  0040    54155    2400      0    1.79e+00    0    1.25e+00
2007 02 24  0045    54155    2700      0    1.78e+00    0    1.24e+00
2007 02 24  0050    54155    3000      0    1.74e+00    0    1.22e+00
2007 02 24  0055    54155    3300      0    1.79e+00    0    1.25e+00
2007 02 24  0100    54155    3600      0    1.78e+00    0    1.23e+00
2007 02 24  0105    54155    3900      0    1.78e+00    0    1.25e+00
2007 02 24  0110    54155    4200      0    1.75e+00    0    1.23e+00
2007 02 24  0115    54155    4500      0    1.78e+00    0    1.25e+00
2007 02 24  0120    54155    4800      0    1.75e+00    0    1.22e+00
2007 02 24  0125    54155    5100      0    1.76e+00    0    1.23e+00
2007 02 24  0130    54155    5400      0    1.77e+00    0    1.22e+00
2007 02 24  0135    54155    5700      0    1.79e+00    0    1.27e+00
2007 02 24  0140    54155    6000      0    1.82e+00    0    1.27e+00
2007 02 24  0145    54155    6300      0    1.79e+00    0    1.26e+00
2007 02 24  0150    54155    6600      0    1.78e+00    0    1.25e+00
2007 02 24  0155    54155    6900      0    1.79e+00    0    1.25e+00
2007 02 24  0200    54155    7200      0    1.80e+00    0    1.27e+00
2007 02 24  0205    54155    7500      0    1.78e+00    0    1.25e+00
2007 02 24  0210    54155    7800      0    1.85e+00    0    1.30e+00
2007 02 24  0215    54155    8100      0    1.83e+00    0    1.28e+00
2007 02 24  0220    54155    8400      0    1.77e+00    0    1.24e+00
2007 02 24  0225    54155    8700      0    1.78e+00    0    1.25e+00
2007 02 24  0230    54155    9000      0    1.80e+00    0    1.26e+00
2007 02 24  0235    54155    9300      0    1.82e+00    0    1.29e+00
2007 02 24  0240    54155    9600      0    1.81e+00    0    1.27e+00
2007 02 24  0245    54155    9900      0    1.84e+00    0    1.30e+00
2007 02 24  0250    54155   10200      0    1.77e+00    0    1.23e+00
2007 02 24  0255    54155   10500      0    1.79e+00    0    1.26e+00
2007 02 24  0300    54155   10800      0    1.81e+00    0    1.26e+00
2007 02 24  0305    54155   11100      0    1.93e+00    0    1.40e+00
2007 02 24  0310    54155   11400      0    1.79e+00    0    1.27e+00
2007 02 24  0315    54155   11700      0    1.78e+00    0    1.25e+00
2007 02 24  0320    54155   12000      0    1.80e+00    0    1.27e+00
2007 02 24  0325    54155   12300      0    1.79e+00    0    1.26e+00
2007 02 24  0330    54155   12600      9   -1.00e+05    9   -1.00e+05
2007 02 24  0335    54155   12900      9   -1.00e+05    9   -1.00e+05
2007 02 24  0340    54155   13200      9   -1.00e+05    9   -1.00e+05
2007 02 24  0345    54155   13500      9   -1.00e+05    9   -1.00e+05
2007 02 24  0350    54155   13800      9   -1.00e+05    9   -1.00e+05
2007 02 24  0355    54155   14100      9   -1.00e+05    9   -1.00e+05
2007 02 24  0400    54155   14400      9   -1.00e+05    9   -1.00e+05
2007 02 24  0405    54155   14700      9   -1.00e+05    9   -1.00e+05
2007 02 24  0410    54155   15000      9   -1.00e+05    9   -1.00e+05
2007 02 24  0415    54155   15300      9   -1.00e+05    9   -1.00e+05
2007 02 24  0420    54155   15600      9   -1.00e+05    9   -1.00e+05
2007 02 24  0425    54155   15900      9   -1.00e+05    9   -1.00e+05
2007 02 24  0430    54155   16200      9   -1.00e+05    9   -1.00e+05
2007 02 24  0435    54155   16500      0    1.81e+00    0    1.27e+00
2007 02 24  0440    54155   16800      0    1.85e+00    0    1.30e+00
2007 02 24  0445    54155   17100      0    1.77e+00    0    1.25e+00
2007 02 24  0450    54155   17400      0    1.77e+00    0    1.24e+00
2007 02 24  0455    54155   17700      0    1.75e+00    0    1.24e+00
2007 02 24  0500    54155   18000      0    1.78e+00    0    1.24e+00
2007 02 24  0505    54155   18300      0    1.76e+00    0    1.23e+00
2007 02 24  0510    54155   18600      0    1.81e+00    0    1.27e+00
2007 02 24  0515    54155   18900      0    1.76e+00    0    1.23e+00
2007 02 24  0520    54155   19200      0    1.75e+00    0    1.23e+00
2007 02 24  0525    54155   19500      0    1.79e+00    0    1.26e+00
2007 02 24  0530    54155   19800      0    1.77e+00    0    1.24e+00
2007 02 24  0535    54155   20100      0    1.78e+00    0    1.24e+00
2007 02 24  0540    54155   20400      0    1.73e+00    0    1.22e+00
2007 02 24  0545    54155   20700      0    1.78e+00    0    1.26e+00
2007 02 24  0550    54155   21000      0    1.76e+00    0    1.23e+00
2007 02 24  0555    54155   21300      0    1.78e+00    0    1.25e+00
2007 02 24  0600    54155   21600      0    1.76e+00    0    1.23e+00
2007 02 24  0605    54155   21900      0    1.76e+00    0    1.23e+00
2007 02 24  0610    54155   22200      0    1.77e+00    0    1.24e+00
2007 02 24  0615    54155   22500      0    1.77e+00    0    1.24e+00
2007 02 24  0620    54155   22800      0    1.78e+00    0    1.25e+00
2007 02 24  0625    54155   23100      0    1.79e+00    0    1.26e+00
2007 02 24  0630    54155   23400      0    1.76e+00    0    1.25e+00
2007 02 24  0635    54155   23700      0    1.78e+00    0    1.24e+00
2007 02 24  0640    54155   24000      0    1.80e+00    0    1.26e+00
2007 02 24  0645    54155   24300      0    1.80e+00    0    1.26e+00
2007 02 24  0650    54155   24600      0    1.80e+00    0    1.26e+00
2007 02 24  0655    54155   24900      0    1.75e+00    0    1.24e+00
2007 02 24  0700    54155   25200      0    1.80e+00    0    1.27e+00
2007 02 24  0705    54155   25500      0    1.81e+00    0    1.28e+00
2007 02 24  0710    54155   25800      0    1.77e+00    0    1.25e+00
2007 02 24  0715    54155   26100      0    1.79e+00    0    1.25e+00
2007 02 24  0720    54155   26400      0    1.82e+00    0    1.28e+00
2007 02 24  0725    54155   26700      0    1.83e+00    0    1.29e+00
2007 02 24  0730    54155   27000      0    1.79e+00    0    1.27e+00
2007 02 24  0735    54155   27300      0    1.76e+00    0    1.23e+00
2007 02 24  0740    54155   27600      0    1.75e+00    0    1.24e+00
2007 02 24  0745    54155   27900      0    1.78e+00    0    1.25e+00
2007 02 24  0750    54155   28200      0    1.78e+00    0    1.25e+00
2007 02 24  0755    54155   28500      0    1.76e+00    0    1.25e+00
2007 02 24  0800    54155   28800      0    1.79e+00    0    1.25e+00
2007 02 24  0805    54155   29100      0    1.76e+00    0    1.24e+00
2007 02 24  0810    54155   29400      0    1.73e+00    0    1.21e+00
2007 02 24  0815    54155   29700      0    1.78e+00    0    1.26e+00
2007 02 24  0820    54155   30000      0    1.77e+00    0    1.23e+00
2007 02 24  0825    54155   30300      0    1.80e+00    0    1.27e+00
2007 02 24  0830    54155   30600      0    1.81e+00    0    1.25e+00
2007 02 24  0835    54155   30900      0    1.77e+00    0    1.24e+00
2007 02 24  0840    54155   31200      0    1.74e+00    0    1.22e+00
2007 02 24  0845    54155   31500      0    1.75e+00    0    1.21e+00
2007 02 24  0850    54155   31800      0    1.80e+00    0    1.26e+00
2007 02 24  0855    54155   32100      0    1.74e+00    0    1.22e+00
2007 02 24  0900    54155   32400      0    1.79e+00    0    1.25e+00
2007 02 24  0905    54155   32700      0    1.78e+00    0    1.23e+00
2007 02 24  0910    54155   33000      0    1.77e+00    0    1.24e+00
2007 02 24  0915    54155   33300      0    1.78e+00    0    1.25e+00
2007 02 24  0920    54155   33600      0    1.80e+00    0    1.25e+00
2007 02 24  0925    54155   33900      0    1.80e+00    0    1.27e+00
2007 02 24  0930    54155   34200      0    1.78e+00    0    1.26e+00
2007 02 24  0935    54155   34500      0    1.77e+00    0    1.23e+00
2007 02 24  0940    54155   34800      0    1.81e+00    0    1.26e+00
2007 02 24  0945    54155   35100      0    1.79e+00    0    1.26e+00
2007 02 24  0950    54155   35400      0    1.81e+00    0    1.26e+00
2007 02 24  0955    54155   35700      0    1.81e+00    0    1.28e+00
2007 02 24  1000    54155   36000      0    1.80e+00    0    1.26e+00
2007 02 24  1005    54155   36300      0    1.75e+00    0    1.24e+00
2007 02 24  1010    54155   36600      0    1.80e+00    0    1.26e+00
2007 02 24  1015    54155   36900      0    1.79e+00    0    1.24e+00
2007 02 24  1020    54155   37200      0    1.78e+00    0    1.25e+00
2007 02 24  1025    54155   37500      0    1.77e+00    0    1.24e+00
2007 02 24  1030    54155   37800      0    1.83e+00    0    1.28e+00
2007 02 24  1035    54155   38100      0    1.79e+00    0    1.26e+00
2007 02 24  1040    54155   38400      0    1.82e+00    0    1.27e+00
2007 02 24  1045    54155   38700      0    1.76e+00    0    1.24e+00
2007 02 24  1050    54155   39000      0    1.79e+00    0    1.25e+00
2007 02 24  1055    54155   39300      0    1.83e+00    0    1.28e+00
2007 02 24  1100    54155   39600      0    1.77e+00    0    1.23e+00
2007 02 24  1105    54155   39900      0    1.83e+00    0    1.28e+00
2007 02 24  1110    54155   40200      0    1.74e+00    0    1.23e+00
2007 02 24  1115    54155   40500      0    1.76e+00    0    1.22e+00
2007 02 24  1120    54155   40800      0    1.77e+00    0    1.23e+00
2007 02 24  1125    54155   41100      0    1.78e+00    0    1.25e+00
2007 02 24  1130    54155   41400      0    1.79e+00    0    1.26e+00
2007 02 24  1135    54155   41700      0    1.77e+00    0    1.23e+00
2007 02 24  1140    54155   42000      0    1.78e+00    0    1.25e+00
2007 02 24  1145    54155   42300      0    1.82e+00    0    1.28e+00
2007 02 24  1150    54155   42600      0    1.77e+00    0    1.24e+00
2007 02 24  1155    54155   42900      0    1.79e+00    0    1.25e+00
2007 02 24  1200    54155   43200      0    1.75e+00    0    1.25e+00
2007 02 24  1205    54155   43500      0    1.78e+00    0    1.25e+00
2007 02 24  1210    54155   43800      0    1.80e+00    0    1.27e+00
2007 02 24  1215    54155   44100      0    1.76e+00    0    1.24e+00
2007 02 24  1220    54155   44400      0    1.79e+00    0    1.26e+00
2007 02 24  1225    54155   44700      0    1.78e+00    0    1.25e+00
2007 02 24  1230    54155   45000      0    1.79e+00    0    1.25e+00
2007 02 24  1235    54155   45300      0    1.76e+00    0    1.24e+00
2007 02 24  1240    54155   45600      0    1.76e+00    0    1.24e+00
2007 02 24  1245    54155   45900      0    1.81e+00    0    1.26e+00
2007 02 24  1250    54155   46200      0    1.80e+00    0    1.27e+00
2007 02 24  1255    54155   46500      0    1.77e+00    0    1.24e+00
2007 02 24  1300    54155   46800      0    1.79e+00    0    1.26e+00
2007 02 24  1305    54155   47100      0    1.80e+00    0    1.26e+00
2007 02 24  1310    54155   47400      0    1.78e+00    0    1.24e+00
2007 02 24  1315    54155   47700      0    1.78e+00    0    1.25e+00
2007 02 24  1320    54155   48000      0    1.79e+00    0    1.25e+00
2007 02 24  1325    54155   48300      0    1.76e+00    0    1.23e+00
2007 02 24  1330    54155   48600      0    1.83e+00    0    1.29e+00
2007 02 24  1335    54155   48900      0    1.78e+00    0    1.25e+00
2007 02 24  1340    54155   49200      0    1.79e+00    0    1.26e+00
2007 02 24  1345    54155   49500      0    1.78e+00    0    1.25e+00
2007 02 24  1350    54155   49800      0    1.78e+00    0    1.23e+00
2007 02 24  1355    54155   50100      0    1.75e+00    0    1.22e+00
2007 02 24  1400    54155   50400      0    1.77e+00    0    1.24e+00
2007 02 24  1405    54155   50700      0    1.80e+00    0    1.27e+00
2007 02 24  1410    54155   51000      0    1.79e+00    0    1.26e+00
2007 02 24  1415    54155   51300      0    1.81e+00    0    1.27e+00
2007 02 24  1420    54155   51600      0    1.75e+00    0    1.22e+00
2007 02 24  1425    54155   51900      0    1.79e+00    0    1.26e+00
2007 02 24  1430    54155   52200      0    1.79e+00    0    1.25e+00
2007 02 24  1435    54155   52500      0    1.76e+00    0    1.22e+00
2007 02 24  1440    54155   52800      0    1.77e+00    0    1.23e+00
2007 02 24  1445    54155   53100      0    1.81e+00    0    1.27e+00
2007 02 24  1450    54155   53400      0    1.82e+00    0    1.28e+00
2007 02 24  1455    54155   53700      0    1.79e+00    0    1.26e+00
2007 02 24  1500    54155   54000      0    1.79e+00    0    1.23e+00
2007 02 24  1505    54155   54300      0    1.75e+00    0    1.22e+00
2007 02 24  1510    54155   54600      0    1.79e+00    0    1.26e+00
2007 02 24  1515    54155   54900      0    1.79e+00    0    1.25e+00
2007 02 24  1520    54155   55200      0    1.77e+00    0    1.24e+00
2007 02 24  1525    54155   55500      0    1.80e+00    0    1.27e+00
2007 02 24  1530    54155   55800      0    1.79e+00    0    1.26e+00
2007 02 24  1535    54155   56100      0    1.78e+00    0    1.25e+00
2007 02 24  1540    54155   56400      0    1.75e+00    0    1.23e+00
2007 02 24  1545    54155   56700      0    1.75e+00    0    1.23e+00
2007 02 24  1550    54155   57000      0    1.77e+00    0    1.23e+00
2007 02 24  1555    54155   57300      0    1.78e+00    0    1.25e+00
2007 02 24  1600    54155   57600      0    1.78e+00    0    1.24e+00
2007 02 24  1605    54155   57900      0    1.79e+00    0    1.25e+00
2007 02 24  1610    54155   58200      0    1.75e+00    0    1.23e+00
2007 02 24  1615    54155   58500      0    1.77e+00    0    1.24e+00
2007 02 24  1620    54155   58800      0    1.78e+00    0    1.24e+00
2007 02 24  1625    54155   59100      0    1.78e+00    0    1.26e+00
2007 02 24  1630    54155   59400      0    1.82e+00    0    1.27e+00
2007 02 24  1635    54155   59700      0    1.80e+00    0    1.26e+00
2007 02 24  1640    54155   60000      0    1.78e+00    0    1.25e+00
2007 02 24  1645    54155   60300      0    1.79e+00    0    1.27e+00
2007 02 24  1650    54155   60600      0    1.80e+00    0    1.27e+00
2007 02 24  1655    54155   60900      0    1.79e+00    0    1.24e+00
2007 02 24  1700    54155   61200      0    1.77e+00    0    1.24e+00
2007 02 24  1705    54155   61500      0    1.77e+00    0    1.24e+00
2007 02 24  1710    54155   61800      0    1.76e+00    0    1.22e+00
2007 02 24  1715    54155   62100      0    1.73e+00    0    1.23e+00
2007 02 24  1720    54155   62400      0    1.79e+00    0    1.25e+00
2007 02 24  1725    54155   62700      0    1.77e+00    0    1.24e+00
2007 02 24  1730    54155   63000      0    1.79e+00    0    1.25e+00
2007 02 24  1735    54155   63300      0    1.76e+00    0    1.24e+00
2007 02 24  1740    54155   63600      0    1.76e+00    0    1.23e+00
2007 02 24  1745    54155   63900      0    1.77e+00    0    1.25e+00
2007 02 24  1750    54155   64200      0    1.78e+00    0    1.23e+00
2007 02 24  1755    54155   64500      0    1.76e+00    0    1.25e+00
2007 02 24  1800    54155   64800      0    1.81e+00    0    1.27e+00
2007 02 24  1805    54155   65100      0    1.77e+00    0    1.23e+00
2007 02 24  1810    54155   65400      0    1.77e+00    0    1.23e+00
2007 02 24  1815    54155   65700      0    1.74e+00    0    1.21e+00
2007 02 24  1820    54155   66000      0    1.73e+00    0    1.21e+00
2007 02 24  1825    54155   66300      0    1.75e+00    0    1.23e+00
2007 02 24  1830    54155   66600      0    1.75e+00    0    1.22e+00
2007 02 24  1835    54155   66900      0    1.77e+00    0    1.23e+00
2007 02 24  1840    54155   67200      0    1.76e+00    0    1.23e+00
2007 02 24  1845    54155   67500      0    1.77e+00    0    1.23e+00
2007 02 24  1850    54155   67800      0    1.76e+00    0    1.23e+00
2007 02 24  1855    54155   68100      0    1.75e+00    0    1.23e+00
2007 02 24  1900    54155   68400      0    1.72e+00    0    1.20e+00
2007 02 24  1905    54155   68700      0    1.75e+00    0    1.22e+00
2007 02 24  1910    54155   69000      0    1.80e+00    0    1.26e+00
2007 02 24  1915    54155   69300      0    1.81e+00    0    1.28e+00
2007 02 24  1920    54155   69600      0    1.75e+00    0    1.23e+00
2007 02 24  1925    54155   69900      0    1.78e+00    0    1.25e+00
2007 02 24  1930    54155   70200      0    1.81e+00    0    1.26e+00
2007 02 24  1935    54155   70500      0    1.80e+00    0    1.27e+00
2007 02 24  1940    54155   70800      0    1.76e+00    0    1.23e+00
2007 02 24  1945    54155   71100      0    1.74e+00    0    1.22e+00
2007 02 24  1950    54155   71400      0    1.75e+00    0    1.23e+00
2007 02 24  1955    54155   71700      0    1.71e+00    0    1.21e+00
2007 02 24  2000    54155   72000      0    1.79e+00    0    1.26e+00
2007 02 24  2005    54155   72300      0    1.78e+00    0    1.26e+00
2007 02 24  2010    54155   72600      0    1.77e+00    0    1.25e+00
2007 02 24  2015    54155   72900      0    1.76e+00    0    1.23e+00
2007 02 24  2020    54155   73200      0    1.79e+00    0    1.25e+00
2007 02 24  2025    54155   73500      0    1.79e+00    0    1.25e+00
2007 02 24  2030    54155   73800      0    1.79e+00    0    1.26e+00
2007 02 24  2035    54155   74100      0    1.82e+00    0    1.26e+00
2007 02 24  2040    54155   74400      0    1.78e+00    0    1.26e+00
2007 02 24  2045    54155   74700      0    1.80e+00    0    1.26e+00
2007 02 24  2050    54155   75000      0    1.83e+00    0    1.29e+00
2007 02 24  2055    54155   75300      0    1.76e+00    0    1.23e+00
2007 02 24  2100    54155   75600      0    1.80e+00    0    1.27e+00
2007 02 24  2105    54155   75900      0    1.80e+00    0    1.26e+00
2007 02 24  2110    54155   76200      0    1.76e+00    0    1.23e+00
2007 02 24  2115    54155   76500      0    1.77e+00    0    1.24e+00
2007 02 24  2120    54155   76800      0    1.72e+00    0    1.22e+00
2007 02 24  2125    54155   77100      0    1.75e+00    0    1.23e+00
2007 02 24  2130    54155   77400      0    1.76e+00    0    1.24e+00
2007 02 24  2135    54155   77700      0    1.77e+00    0    1.24e+00
2007 02 24  2140    54155   78000      0    1.79e+00    0    1.25e+00
2007 02 24  2145    54155   78300      0    1.74e+00    0    1.22e+00
2007 02 24  2150    54155   78600      0    1.74e+00    0    1.22e+00
2007 02 24  2155    54155   78900      0    1.76e+00    0    1.22e+00
2007 02 24  2200    54155   79200      0    1.73e+00    0    1.21e+00
2007 02 24  2205    54155   79500      0    1.78e+00    0    1.25e+00
2007 02 24  2210    54155   79800      0    1.78e+00    0    1.25e+00
2007 02 24  2215    54155   80100      0    1.79e+00    0    1.26e+00
2007 02 24  2220    54155   80400      0    1.78e+00    0    1.25e+00
2007 02 24  2225    54155   80700      0    1.79e+00    0    1.24e+00
2007 02 24  2230    54155   81000      0    1.76e+00    0    1.23e+00
2007 02 24  2235    54155   81300      0    1.81e+00    0    1.27e+00
2007 02 24  2240    54155   81600      0    1.78e+00    0    1.23e+00
2007 02 24  2245    54155   81900      0    1.80e+00    0    1.27e+00
2007 02 24  2250    54155   82200      0    1.75e+00    0    1.23e+00
2007 02 24  2255    54155   82500      0    1.80e+00    0    1.27e+00
2007 02 24  2300    54155   82800      0    1.79e+00    0    1.25e+00
2007 02 24  2305    54155   83100      0    1.75e+00    0    1.23e+00
2007 02 24  2310    54155   83400      0    1.83e+00    0    1.30e+00
2007 02 24  2315    54155   83700      0    1.78e+00    0    1.24e+00
2007 02 24  2320    54155   84000      0    1.77e+00    0    1.25e+00
2007 02 24  2325    54155   84300      0    1.76e+00    0    1.22e+00
2007 02 24  2330    54155   84600      0    1.79e+00    0    1.26e+00
2007 02 24  2335    54155   84900      0    1.78e+00    0    1.26e+00
2007 02 24  2340    54155   85200      0    1.78e+00    0    1.26e+00
2007 02 24  2345    54155   85500      0    1.78e+00    0    1.26e+00
2007 02 24  2350    54155   85800      0    1.76e+00    0    1.23e+00
2007 02 24  2355    54155   86100      0    1.73e+00    0    1.21e+00
