:Data_list: 20070221_ace_sis_5m.txt
:Created: 2007 Feb 22 0011 UT
# Prepared by the U.S. Dept. of Commerce, NOAA, Space Environment Center.
# Please send comments and suggestions to SEC.Webmaster@noaa.gov 
# 
# Units: proton flux p/cs2-sec-ster
# Status(S): 0 = nominal data, 1 to 8 = bad data record, 9 = no data
# Missing data values: -1.00e+05
# Source: ACE Satellite - Solar Isotope Spectrometer
#
# 5-minute averaged Real-time Integral Flux of High-energy Solar Protons
# 
#                 Modified Seconds
# UT Date   Time   Julian  of the      ---- Integral Proton Flux ----
# YR MO DA  HHMM     Day     Day       S    > 10 MeV    S    > 30 MeV
#--------------------------------------------------------------------
2007 02 21  0000    54152       0      0    1.74e+00    0    1.22e+00
2007 02 21  0005    54152     300      0    1.70e+00    0    1.19e+00
2007 02 21  0010    54152     600      0    1.76e+00    0    1.23e+00
2007 02 21  0015    54152     900      0    1.77e+00    0    1.24e+00
2007 02 21  0020    54152    1200      0    1.75e+00    0    1.24e+00
2007 02 21  0025    54152    1500      0    1.76e+00    0    1.24e+00
2007 02 21  0030    54152    1800      0    1.75e+00    0    1.23e+00
2007 02 21  0035    54152    2100      0    1.77e+00    0    1.24e+00
2007 02 21  0040    54152    2400      0    1.76e+00    0    1.24e+00
2007 02 21  0045    54152    2700      0    1.74e+00    0    1.20e+00
2007 02 21  0050    54152    3000      0    1.76e+00    0    1.24e+00
2007 02 21  0055    54152    3300      0    1.75e+00    0    1.23e+00
2007 02 21  0100    54152    3600      0    1.72e+00    0    1.21e+00
2007 02 21  0105    54152    3900      9   -1.00e+05    9   -1.00e+05
2007 02 21  0110    54152    4200      0    1.66e+00    0    1.16e+00
2007 02 21  0115    54152    4500      0    1.75e+00    0    1.22e+00
2007 02 21  0120    54152    4800      0    1.76e+00    0    1.22e+00
2007 02 21  0125    54152    5100      0    1.77e+00    0    1.24e+00
2007 02 21  0130    54152    5400      0    1.80e+00    0    1.27e+00
2007 02 21  0135    54152    5700      0    1.69e+00    0    1.18e+00
2007 02 21  0140    54152    6000      0    1.80e+00    0    1.25e+00
2007 02 21  0145    54152    6300      0    1.73e+00    0    1.20e+00
2007 02 21  0150    54152    6600      0    1.75e+00    0    1.23e+00
2007 02 21  0155    54152    6900      0    1.77e+00    0    1.23e+00
2007 02 21  0200    54152    7200      0    1.80e+00    0    1.27e+00
2007 02 21  0205    54152    7500      0    1.76e+00    0    1.25e+00
2007 02 21  0210    54152    7800      0    1.79e+00    0    1.26e+00
2007 02 21  0215    54152    8100      0    1.76e+00    0    1.22e+00
2007 02 21  0220    54152    8400      0    1.75e+00    0    1.23e+00
2007 02 21  0225    54152    8700      0    1.73e+00    0    1.20e+00
2007 02 21  0230    54152    9000      0    1.76e+00    0    1.23e+00
2007 02 21  0235    54152    9300      0    1.73e+00    0    1.22e+00
2007 02 21  0240    54152    9600      0    1.76e+00    0    1.24e+00
2007 02 21  0245    54152    9900      0    1.79e+00    0    1.26e+00
2007 02 21  0250    54152   10200      0    1.74e+00    0    1.22e+00
2007 02 21  0255    54152   10500      0    1.76e+00    0    1.23e+00
2007 02 21  0300    54152   10800      0    1.73e+00    0    1.21e+00
2007 02 21  0305    54152   11100      0    1.77e+00    0    1.23e+00
2007 02 21  0310    54152   11400      0    1.77e+00    0    1.23e+00
2007 02 21  0315    54152   11700      0    1.75e+00    0    1.23e+00
2007 02 21  0320    54152   12000      0    1.77e+00    0    1.25e+00
2007 02 21  0325    54152   12300      0    1.77e+00    0    1.24e+00
2007 02 21  0330    54152   12600      9   -1.00e+05    9   -1.00e+05
2007 02 21  0335    54152   12900      9   -1.00e+05    9   -1.00e+05
2007 02 21  0340    54152   13200      9   -1.00e+05    9   -1.00e+05
2007 02 21  0345    54152   13500      9   -1.00e+05    9   -1.00e+05
2007 02 21  0350    54152   13800      9   -1.00e+05    9   -1.00e+05
2007 02 21  0355    54152   14100      9   -1.00e+05    9   -1.00e+05
2007 02 21  0400    54152   14400      9   -1.00e+05    9   -1.00e+05
2007 02 21  0405    54152   14700      9   -1.00e+05    9   -1.00e+05
2007 02 21  0410    54152   15000      0    1.79e+00    0    1.23e+00
2007 02 21  0415    54152   15300      0    1.73e+00    0    1.21e+00
2007 02 21  0420    54152   15600      0    1.75e+00    0    1.22e+00
2007 02 21  0425    54152   15900      0    1.77e+00    0    1.24e+00
2007 02 21  0430    54152   16200      0    1.79e+00    0    1.25e+00
2007 02 21  0435    54152   16500      0    1.76e+00    0    1.24e+00
2007 02 21  0440    54152   16800      0    1.73e+00    0    1.22e+00
2007 02 21  0445    54152   17100      0    1.77e+00    0    1.23e+00
2007 02 21  0450    54152   17400      0    1.72e+00    0    1.22e+00
2007 02 21  0455    54152   17700      0    1.78e+00    0    1.25e+00
2007 02 21  0500    54152   18000      0    1.75e+00    0    1.23e+00
2007 02 21  0505    54152   18300      9   -1.00e+05    9   -1.00e+05
2007 02 21  0510    54152   18600      9   -1.00e+05    9   -1.00e+05
2007 02 21  0515    54152   18900      9   -1.00e+05    9   -1.00e+05
2007 02 21  0520    54152   19200      9   -1.00e+05    9   -1.00e+05
2007 02 21  0525    54152   19500      9   -1.00e+05    9   -1.00e+05
2007 02 21  0530    54152   19800      9   -1.00e+05    9   -1.00e+05
2007 02 21  0535    54152   20100      9   -1.00e+05    9   -1.00e+05
2007 02 21  0540    54152   20400      9   -1.00e+05    9   -1.00e+05
2007 02 21  0545    54152   20700      9   -1.00e+05    9   -1.00e+05
2007 02 21  0550    54152   21000      9   -1.00e+05    9   -1.00e+05
2007 02 21  0555    54152   21300      9   -1.00e+05    9   -1.00e+05
2007 02 21  0600    54152   21600      9   -1.00e+05    9   -1.00e+05
2007 02 21  0605    54152   21900      9   -1.00e+05    9   -1.00e+05
2007 02 21  0610    54152   22200      9   -1.00e+05    9   -1.00e+05
2007 02 21  0615    54152   22500      9   -1.00e+05    9   -1.00e+05
2007 02 21  0620    54152   22800      9   -1.00e+05    9   -1.00e+05
2007 02 21  0625    54152   23100      9   -1.00e+05    9   -1.00e+05
2007 02 21  0630    54152   23400      9   -1.00e+05    9   -1.00e+05
2007 02 21  0635    54152   23700      0    1.80e+00    0    1.28e+00
2007 02 21  0640    54152   24000      0    1.73e+00    0    1.22e+00
2007 02 21  0645    54152   24300      0    1.75e+00    0    1.22e+00
2007 02 21  0650    54152   24600      0    1.76e+00    0    1.23e+00
2007 02 21  0655    54152   24900      0    1.75e+00    0    1.22e+00
2007 02 21  0700    54152   25200      0    1.80e+00    0    1.26e+00
2007 02 21  0705    54152   25500      0    1.76e+00    0    1.23e+00
2007 02 21  0710    54152   25800      0    1.75e+00    0    1.23e+00
2007 02 21  0715    54152   26100      0    1.76e+00    0    1.23e+00
2007 02 21  0720    54152   26400      0    1.75e+00    0    1.21e+00
2007 02 21  0725    54152   26700      0    1.74e+00    0    1.22e+00
2007 02 21  0730    54152   27000      0    1.73e+00    0    1.21e+00
2007 02 21  0735    54152   27300      0    1.75e+00    0    1.22e+00
2007 02 21  0740    54152   27600      0    1.69e+00    0    1.17e+00
2007 02 21  0745    54152   27900      0    1.75e+00    0    1.24e+00
2007 02 21  0750    54152   28200      0    1.77e+00    0    1.24e+00
2007 02 21  0755    54152   28500      0    1.77e+00    0    1.24e+00
2007 02 21  0800    54152   28800      0    1.77e+00    0    1.24e+00
2007 02 21  0805    54152   29100      0    1.80e+00    0    1.25e+00
2007 02 21  0810    54152   29400      0    1.70e+00    0    1.19e+00
2007 02 21  0815    54152   29700      0    1.73e+00    0    1.21e+00
2007 02 21  0820    54152   30000      0    1.76e+00    0    1.24e+00
2007 02 21  0825    54152   30300      0    1.73e+00    0    1.21e+00
2007 02 21  0830    54152   30600      0    1.78e+00    0    1.27e+00
2007 02 21  0835    54152   30900      0    1.73e+00    0    1.22e+00
2007 02 21  0840    54152   31200      0    1.73e+00    0    1.21e+00
2007 02 21  0845    54152   31500      0    1.74e+00    0    1.22e+00
2007 02 21  0850    54152   31800      0    1.66e+00    0    1.16e+00
2007 02 21  0855    54152   32100      0    1.74e+00    0    1.21e+00
2007 02 21  0900    54152   32400      0    1.77e+00    0    1.24e+00
2007 02 21  0905    54152   32700      0    1.78e+00    0    1.25e+00
2007 02 21  0910    54152   33000      0    1.77e+00    0    1.23e+00
2007 02 21  0915    54152   33300      0    1.73e+00    0    1.21e+00
2007 02 21  0920    54152   33600      0    1.74e+00    0    1.22e+00
2007 02 21  0925    54152   33900      0    1.77e+00    0    1.24e+00
2007 02 21  0930    54152   34200      0    1.73e+00    0    1.22e+00
2007 02 21  0935    54152   34500      0    1.75e+00    0    1.24e+00
2007 02 21  0940    54152   34800      0    1.71e+00    0    1.20e+00
2007 02 21  0945    54152   35100      0    1.75e+00    0    1.22e+00
2007 02 21  0950    54152   35400      0    1.75e+00    0    1.23e+00
2007 02 21  0955    54152   35700      0    1.71e+00    0    1.18e+00
2007 02 21  1000    54152   36000      0    1.76e+00    0    1.23e+00
2007 02 21  1005    54152   36300      0    1.74e+00    0    1.22e+00
2007 02 21  1010    54152   36600      0    1.74e+00    0    1.23e+00
2007 02 21  1015    54152   36900      0    1.77e+00    0    1.24e+00
2007 02 21  1020    54152   37200      0    1.74e+00    0    1.23e+00
2007 02 21  1025    54152   37500      0    1.74e+00    0    1.24e+00
2007 02 21  1030    54152   37800      0    1.78e+00    0    1.26e+00
2007 02 21  1035    54152   38100      0    1.71e+00    0    1.19e+00
2007 02 21  1040    54152   38400      0    1.75e+00    0    1.23e+00
2007 02 21  1045    54152   38700      0    1.71e+00    0    1.19e+00
2007 02 21  1050    54152   39000      0    1.75e+00    0    1.22e+00
2007 02 21  1055    54152   39300      0    1.72e+00    0    1.20e+00
2007 02 21  1100    54152   39600      0    1.75e+00    0    1.22e+00
2007 02 21  1105    54152   39900      0    1.80e+00    0    1.26e+00
2007 02 21  1110    54152   40200      0    1.77e+00    0    1.23e+00
2007 02 21  1115    54152   40500      0    1.75e+00    0    1.22e+00
2007 02 21  1120    54152   40800      0    1.75e+00    0    1.23e+00
2007 02 21  1125    54152   41100      0    1.73e+00    0    1.22e+00
2007 02 21  1130    54152   41400      0    1.73e+00    0    1.22e+00
2007 02 21  1135    54152   41700      0    1.73e+00    0    1.22e+00
2007 02 21  1140    54152   42000      0    1.73e+00    0    1.21e+00
2007 02 21  1145    54152   42300      0    1.73e+00    0    1.20e+00
2007 02 21  1150    54152   42600      0    1.79e+00    0    1.26e+00
2007 02 21  1155    54152   42900      0    1.77e+00    0    1.24e+00
2007 02 21  1200    54152   43200      0    1.74e+00    0    1.23e+00
2007 02 21  1205    54152   43500      0    1.76e+00    0    1.23e+00
2007 02 21  1210    54152   43800      0    1.77e+00    0    1.25e+00
2007 02 21  1215    54152   44100      0    1.77e+00    0    1.24e+00
2007 02 21  1220    54152   44400      0    1.78e+00    0    1.26e+00
2007 02 21  1225    54152   44700      0    1.76e+00    0    1.24e+00
2007 02 21  1230    54152   45000      0    1.76e+00    0    1.24e+00
2007 02 21  1235    54152   45300      0    1.76e+00    0    1.23e+00
2007 02 21  1240    54152   45600      0    1.73e+00    0    1.22e+00
2007 02 21  1245    54152   45900      0    1.79e+00    0    1.25e+00
2007 02 21  1250    54152   46200      0    1.74e+00    0    1.20e+00
2007 02 21  1255    54152   46500      0    1.79e+00    0    1.26e+00
2007 02 21  1300    54152   46800      0    1.76e+00    0    1.24e+00
2007 02 21  1305    54152   47100      0    1.81e+00    0    1.28e+00
2007 02 21  1310    54152   47400      0    1.74e+00    0    1.21e+00
2007 02 21  1315    54152   47700      0    1.78e+00    0    1.25e+00
2007 02 21  1320    54152   48000      0    1.77e+00    0    1.25e+00
2007 02 21  1325    54152   48300      0    1.75e+00    0    1.22e+00
2007 02 21  1330    54152   48600      0    1.77e+00    0    1.23e+00
2007 02 21  1335    54152   48900      0    1.77e+00    0    1.25e+00
2007 02 21  1340    54152   49200      0    1.70e+00    0    1.19e+00
2007 02 21  1345    54152   49500      0    1.73e+00    0    1.22e+00
2007 02 21  1350    54152   49800      0    1.68e+00    0    1.18e+00
2007 02 21  1355    54152   50100      0    1.78e+00    0    1.27e+00
2007 02 21  1400    54152   50400      0    1.74e+00    0    1.21e+00
2007 02 21  1405    54152   50700      0    1.74e+00    0    1.22e+00
2007 02 21  1410    54152   51000      0    1.75e+00    0    1.23e+00
2007 02 21  1415    54152   51300      0    1.75e+00    0    1.22e+00
2007 02 21  1420    54152   51600      0    1.75e+00    0    1.22e+00
2007 02 21  1425    54152   51900      0    1.73e+00    0    1.21e+00
2007 02 21  1430    54152   52200      0    1.75e+00    0    1.22e+00
2007 02 21  1435    54152   52500      0    1.76e+00    0    1.24e+00
2007 02 21  1440    54152   52800      0    1.74e+00    0    1.22e+00
2007 02 21  1445    54152   53100      0    1.77e+00    0    1.24e+00
2007 02 21  1450    54152   53400      0    1.77e+00    0    1.25e+00
2007 02 21  1455    54152   53700      0    1.78e+00    0    1.26e+00
2007 02 21  1500    54152   54000      0    1.75e+00    0    1.22e+00
2007 02 21  1505    54152   54300      0    1.78e+00    0    1.25e+00
2007 02 21  1510    54152   54600      0    1.77e+00    0    1.24e+00
2007 02 21  1515    54152   54900      0    1.75e+00    0    1.23e+00
2007 02 21  1520    54152   55200      0    1.79e+00    0    1.24e+00
2007 02 21  1525    54152   55500      0    1.77e+00    0    1.26e+00
2007 02 21  1530    54152   55800      0    1.79e+00    0    1.25e+00
2007 02 21  1535    54152   56100      0    1.77e+00    0    1.23e+00
2007 02 21  1540    54152   56400      0    1.73e+00    0    1.21e+00
2007 02 21  1545    54152   56700      0    1.75e+00    0    1.22e+00
2007 02 21  1550    54152   57000      0    1.76e+00    0    1.23e+00
2007 02 21  1555    54152   57300      0    1.72e+00    0    1.20e+00
2007 02 21  1600    54152   57600      0    1.77e+00    0    1.25e+00
2007 02 21  1605    54152   57900      0    1.78e+00    0    1.24e+00
2007 02 21  1610    54152   58200      0    1.76e+00    0    1.24e+00
2007 02 21  1615    54152   58500      0    1.74e+00    0    1.21e+00
2007 02 21  1620    54152   58800      0    1.77e+00    0    1.25e+00
2007 02 21  1625    54152   59100      0    1.76e+00    0    1.24e+00
2007 02 21  1630    54152   59400      0    1.78e+00    0    1.25e+00
2007 02 21  1635    54152   59700      0    1.78e+00    0    1.25e+00
2007 02 21  1640    54152   60000      0    1.75e+00    0    1.23e+00
2007 02 21  1645    54152   60300      0    1.73e+00    0    1.21e+00
2007 02 21  1650    54152   60600      0    1.76e+00    0    1.23e+00
2007 02 21  1655    54152   60900      0    1.79e+00    0    1.26e+00
2007 02 21  1700    54152   61200      0    1.78e+00    0    1.25e+00
2007 02 21  1705    54152   61500      0    1.80e+00    0    1.25e+00
2007 02 21  1710    54152   61800      0    1.77e+00    0    1.24e+00
2007 02 21  1715    54152   62100      0    1.75e+00    0    1.23e+00
2007 02 21  1720    54152   62400      0    1.78e+00    0    1.25e+00
2007 02 21  1725    54152   62700      0    1.80e+00    0    1.26e+00
2007 02 21  1730    54152   63000      0    1.80e+00    0    1.25e+00
2007 02 21  1735    54152   63300      0    1.75e+00    0    1.23e+00
2007 02 21  1740    54152   63600      0    1.77e+00    0    1.24e+00
2007 02 21  1745    54152   63900      0    1.76e+00    0    1.24e+00
2007 02 21  1750    54152   64200      0    1.73e+00    0    1.21e+00
2007 02 21  1755    54152   64500      0    1.78e+00    0    1.25e+00
2007 02 21  1800    54152   64800      0    1.78e+00    0    1.24e+00
2007 02 21  1805    54152   65100      0    1.76e+00    0    1.24e+00
2007 02 21  1810    54152   65400      0    1.77e+00    0    1.23e+00
2007 02 21  1815    54152   65700      0    1.83e+00    0    1.28e+00
2007 02 21  1820    54152   66000      0    1.76e+00    0    1.23e+00
2007 02 21  1825    54152   66300      0    1.74e+00    0    1.22e+00
2007 02 21  1830    54152   66600      0    1.77e+00    0    1.24e+00
2007 02 21  1835    54152   66900      0    1.79e+00    0    1.26e+00
2007 02 21  1840    54152   67200      0    1.85e+00    0    1.30e+00
2007 02 21  1845    54152   67500      0    1.80e+00    0    1.26e+00
2007 02 21  1850    54152   67800      0    1.76e+00    0    1.24e+00
2007 02 21  1855    54152   68100      0    1.74e+00    0    1.22e+00
2007 02 21  1900    54152   68400      0    1.79e+00    0    1.25e+00
2007 02 21  1905    54152   68700      0    1.82e+00    0    1.27e+00
2007 02 21  1910    54152   69000      0    1.77e+00    0    1.24e+00
2007 02 21  1915    54152   69300      0    1.80e+00    0    1.24e+00
2007 02 21  1920    54152   69600      0    1.77e+00    0    1.23e+00
2007 02 21  1925    54152   69900      0    1.77e+00    0    1.23e+00
2007 02 21  1930    54152   70200      0    1.76e+00    0    1.24e+00
2007 02 21  1935    54152   70500      0    1.75e+00    0    1.23e+00
2007 02 21  1940    54152   70800      0    1.77e+00    0    1.24e+00
2007 02 21  1945    54152   71100      0    1.77e+00    0    1.25e+00
2007 02 21  1950    54152   71400      0    1.77e+00    0    1.25e+00
2007 02 21  1955    54152   71700      0    1.77e+00    0    1.24e+00
2007 02 21  2000    54152   72000      0    1.79e+00    0    1.26e+00
2007 02 21  2005    54152   72300      0    1.78e+00    0    1.24e+00
2007 02 21  2010    54152   72600      0    1.73e+00    0    1.19e+00
2007 02 21  2015    54152   72900      0    1.77e+00    0    1.24e+00
2007 02 21  2020    54152   73200      0    1.75e+00    0    1.23e+00
2007 02 21  2025    54152   73500      0    1.74e+00    0    1.21e+00
2007 02 21  2030    54152   73800      0    1.76e+00    0    1.24e+00
2007 02 21  2035    54152   74100      0    1.75e+00    0    1.23e+00
2007 02 21  2040    54152   74400      0    1.76e+00    0    1.25e+00
2007 02 21  2045    54152   74700      0    1.73e+00    0    1.21e+00
2007 02 21  2050    54152   75000      0    1.75e+00    0    1.21e+00
2007 02 21  2055    54152   75300      0    1.71e+00    0    1.20e+00
2007 02 21  2100    54152   75600      0    1.75e+00    0    1.22e+00
2007 02 21  2105    54152   75900      0    1.74e+00    0    1.23e+00
2007 02 21  2110    54152   76200      0    1.76e+00    0    1.23e+00
2007 02 21  2115    54152   76500      0    1.79e+00    0    1.26e+00
2007 02 21  2120    54152   76800      0    1.77e+00    0    1.24e+00
2007 02 21  2125    54152   77100      0    1.74e+00    0    1.22e+00
2007 02 21  2130    54152   77400      0    1.74e+00    0    1.22e+00
2007 02 21  2135    54152   77700      0    1.72e+00    0    1.20e+00
2007 02 21  2140    54152   78000      0    1.75e+00    0    1.23e+00
2007 02 21  2145    54152   78300      0    1.72e+00    0    1.20e+00
2007 02 21  2150    54152   78600      0    1.75e+00    0    1.23e+00
2007 02 21  2155    54152   78900      0    1.77e+00    0    1.22e+00
2007 02 21  2200    54152   79200      0    1.75e+00    0    1.24e+00
2007 02 21  2205    54152   79500      0    1.76e+00    0    1.23e+00
2007 02 21  2210    54152   79800      0    1.73e+00    0    1.21e+00
2007 02 21  2215    54152   80100      0    1.77e+00    0    1.24e+00
2007 02 21  2220    54152   80400      0    1.77e+00    0    1.25e+00
2007 02 21  2225    54152   80700      0    1.75e+00    0    1.23e+00
2007 02 21  2230    54152   81000      0    1.71e+00    0    1.21e+00
2007 02 21  2235    54152   81300      0    1.78e+00    0    1.24e+00
2007 02 21  2240    54152   81600      0    1.75e+00    0    1.22e+00
2007 02 21  2245    54152   81900      0    1.80e+00    0    1.26e+00
2007 02 21  2250    54152   82200      0    1.77e+00    0    1.25e+00
2007 02 21  2255    54152   82500      0    1.77e+00    0    1.24e+00
2007 02 21  2300    54152   82800      0    1.71e+00    0    1.19e+00
2007 02 21  2305    54152   83100      0    1.78e+00    0    1.25e+00
2007 02 21  2310    54152   83400      0    1.75e+00    0    1.22e+00
2007 02 21  2315    54152   83700      0    1.74e+00    0    1.22e+00
2007 02 21  2320    54152   84000      0    1.70e+00    0    1.19e+00
2007 02 21  2325    54152   84300      0    1.75e+00    0    1.21e+00
2007 02 21  2330    54152   84600      0    1.80e+00    0    1.27e+00
2007 02 21  2335    54152   84900      0    1.74e+00    0    1.23e+00
2007 02 21  2340    54152   85200      0    1.72e+00    0    1.21e+00
2007 02 21  2345    54152   85500      0    1.76e+00    0    1.25e+00
2007 02 21  2350    54152   85800      0    1.76e+00    0    1.23e+00
2007 02 21  2355    54152   86100      0    1.73e+00    0    1.21e+00
