:Data_list: 20070402_ace_sis_5m.txt
:Created: 2007 Apr 03 0011 UT
# Prepared by the U.S. Dept. of Commerce, NOAA, Space Environment Center.
# Please send comments and suggestions to SEC.Webmaster@noaa.gov 
# 
# Units: proton flux p/cs2-sec-ster
# Status(S): 0 = nominal data, 1 to 8 = bad data record, 9 = no data
# Missing data values: -1.00e+05
# Source: ACE Satellite - Solar Isotope Spectrometer
#
# 5-minute averaged Real-time Integral Flux of High-energy Solar Protons
# 
#                 Modified Seconds
# UT Date   Time   Julian  of the      ---- Integral Proton Flux ----
# YR MO DA  HHMM     Day     Day       S    > 10 MeV    S    > 30 MeV
#--------------------------------------------------------------------
2007 04 02  0000    54192       0      0    1.78e+00    0    1.26e+00
2007 04 02  0005    54192     300      0    1.76e+00    0    1.25e+00
2007 04 02  0010    54192     600      0    1.76e+00    0    1.25e+00
2007 04 02  0015    54192     900      0    1.77e+00    0    1.24e+00
2007 04 02  0020    54192    1200      0    1.69e+00    0    1.19e+00
2007 04 02  0025    54192    1500      0    1.73e+00    0    1.21e+00
2007 04 02  0030    54192    1800      0    1.74e+00    0    1.22e+00
2007 04 02  0035    54192    2100      0    1.74e+00    0    1.22e+00
2007 04 02  0040    54192    2400      0    1.74e+00    0    1.21e+00
2007 04 02  0045    54192    2700      0    1.75e+00    0    1.22e+00
2007 04 02  0050    54192    3000      0    1.73e+00    0    1.21e+00
2007 04 02  0055    54192    3300      0    1.76e+00    0    1.23e+00
2007 04 02  0100    54192    3600      0    1.73e+00    0    1.22e+00
2007 04 02  0105    54192    3900      0    1.76e+00    0    1.23e+00
2007 04 02  0110    54192    4200      0    1.75e+00    0    1.24e+00
2007 04 02  0115    54192    4500      0    1.73e+00    0    1.20e+00
2007 04 02  0120    54192    4800      0    1.80e+00    0    1.24e+00
2007 04 02  0125    54192    5100      0    1.74e+00    0    1.22e+00
2007 04 02  0130    54192    5400      0    1.75e+00    0    1.22e+00
2007 04 02  0135    54192    5700      0    1.79e+00    0    1.26e+00
2007 04 02  0140    54192    6000      0    1.75e+00    0    1.23e+00
2007 04 02  0145    54192    6300      0    1.74e+00    0    1.21e+00
2007 04 02  0150    54192    6600      0    1.74e+00    0    1.21e+00
2007 04 02  0155    54192    6900      0    1.73e+00    0    1.22e+00
2007 04 02  0200    54192    7200      0    1.75e+00    0    1.22e+00
2007 04 02  0205    54192    7500      0    1.73e+00    0    1.20e+00
2007 04 02  0210    54192    7800      0    1.75e+00    0    1.22e+00
2007 04 02  0215    54192    8100      0    1.76e+00    0    1.23e+00
2007 04 02  0220    54192    8400      0    1.73e+00    0    1.21e+00
2007 04 02  0225    54192    8700      0    1.73e+00    0    1.21e+00
2007 04 02  0230    54192    9000      0    1.79e+00    0    1.25e+00
2007 04 02  0235    54192    9300      0    1.77e+00    0    1.23e+00
2007 04 02  0240    54192    9600      0    1.78e+00    0    1.24e+00
2007 04 02  0245    54192    9900      0    1.78e+00    0    1.25e+00
2007 04 02  0250    54192   10200      0    1.74e+00    0    1.22e+00
2007 04 02  0255    54192   10500      0    1.73e+00    0    1.21e+00
2007 04 02  0300    54192   10800      0    1.72e+00    0    1.20e+00
2007 04 02  0305    54192   11100      0    1.73e+00    0    1.21e+00
2007 04 02  0310    54192   11400      0    1.78e+00    0    1.24e+00
2007 04 02  0315    54192   11700      0    1.71e+00    0    1.21e+00
2007 04 02  0320    54192   12000      0    1.79e+00    0    1.25e+00
2007 04 02  0325    54192   12300      0    1.77e+00    0    1.23e+00
2007 04 02  0330    54192   12600      0    1.78e+00    0    1.26e+00
2007 04 02  0335    54192   12900      0    1.77e+00    0    1.27e+00
2007 04 02  0340    54192   13200      0    1.73e+00    0    1.20e+00
2007 04 02  0345    54192   13500      0    1.76e+00    0    1.22e+00
2007 04 02  0350    54192   13800      0    1.75e+00    0    1.21e+00
2007 04 02  0355    54192   14100      0    1.75e+00    0    1.22e+00
2007 04 02  0400    54192   14400      0    1.75e+00    0    1.22e+00
2007 04 02  0405    54192   14700      0    1.75e+00    0    1.22e+00
2007 04 02  0410    54192   15000      0    1.79e+00    0    1.25e+00
2007 04 02  0415    54192   15300      0    1.73e+00    0    1.21e+00
2007 04 02  0420    54192   15600      0    1.75e+00    0    1.24e+00
2007 04 02  0425    54192   15900      0    1.78e+00    0    1.26e+00
2007 04 02  0430    54192   16200      0    1.72e+00    0    1.21e+00
2007 04 02  0435    54192   16500      0    1.76e+00    0    1.23e+00
2007 04 02  0440    54192   16800      0    1.75e+00    0    1.22e+00
2007 04 02  0445    54192   17100      0    1.76e+00    0    1.23e+00
2007 04 02  0450    54192   17400      0    1.76e+00    0    1.21e+00
2007 04 02  0455    54192   17700      0    1.78e+00    0    1.25e+00
2007 04 02  0500    54192   18000      0    1.74e+00    0    1.23e+00
2007 04 02  0505    54192   18300      0    1.73e+00    0    1.21e+00
2007 04 02  0510    54192   18600      0    1.74e+00    0    1.23e+00
2007 04 02  0515    54192   18900      0    1.72e+00    0    1.20e+00
2007 04 02  0520    54192   19200      0    1.77e+00    0    1.24e+00
2007 04 02  0525    54192   19500      0    1.77e+00    0    1.23e+00
2007 04 02  0530    54192   19800      0    1.72e+00    0    1.19e+00
2007 04 02  0535    54192   20100      0    1.78e+00    0    1.24e+00
2007 04 02  0540    54192   20400      0    1.77e+00    0    1.25e+00
2007 04 02  0545    54192   20700      0    1.72e+00    0    1.21e+00
2007 04 02  0550    54192   21000      0    1.74e+00    0    1.22e+00
2007 04 02  0555    54192   21300      0    1.75e+00    0    1.22e+00
2007 04 02  0600    54192   21600      0    1.73e+00    0    1.20e+00
2007 04 02  0605    54192   21900      0    1.77e+00    0    1.24e+00
2007 04 02  0610    54192   22200      0    1.73e+00    0    1.19e+00
2007 04 02  0615    54192   22500      0    1.72e+00    0    1.20e+00
2007 04 02  0620    54192   22800      0    1.75e+00    0    1.22e+00
2007 04 02  0625    54192   23100      0    1.72e+00    0    1.20e+00
2007 04 02  0630    54192   23400      0    1.77e+00    0    1.23e+00
2007 04 02  0635    54192   23700      0    1.74e+00    0    1.21e+00
2007 04 02  0640    54192   24000      0    1.79e+00    0    1.26e+00
2007 04 02  0645    54192   24300      0    1.79e+00    0    1.26e+00
2007 04 02  0650    54192   24600      0    1.79e+00    0    1.26e+00
2007 04 02  0655    54192   24900      0    1.80e+00    0    1.26e+00
2007 04 02  0700    54192   25200      0    1.73e+00    0    1.22e+00
2007 04 02  0705    54192   25500      0    1.74e+00    0    1.22e+00
2007 04 02  0710    54192   25800      0    1.73e+00    0    1.21e+00
2007 04 02  0715    54192   26100      0    1.72e+00    0    1.21e+00
2007 04 02  0720    54192   26400      0    1.71e+00    0    1.20e+00
2007 04 02  0725    54192   26700      0    1.75e+00    0    1.23e+00
2007 04 02  0730    54192   27000      0    1.76e+00    0    1.24e+00
2007 04 02  0735    54192   27300      0    1.76e+00    0    1.23e+00
2007 04 02  0740    54192   27600      0    1.74e+00    0    1.22e+00
2007 04 02  0745    54192   27900      0    1.72e+00    0    1.19e+00
2007 04 02  0750    54192   28200      0    1.75e+00    0    1.23e+00
2007 04 02  0755    54192   28500      0    1.77e+00    0    1.24e+00
2007 04 02  0800    54192   28800      0    1.76e+00    0    1.24e+00
2007 04 02  0805    54192   29100      0    1.75e+00    0    1.23e+00
2007 04 02  0810    54192   29400      0    1.74e+00    0    1.21e+00
2007 04 02  0815    54192   29700      0    1.71e+00    0    1.20e+00
2007 04 02  0820    54192   30000      0    1.75e+00    0    1.22e+00
2007 04 02  0825    54192   30300      0    1.77e+00    0    1.23e+00
2007 04 02  0830    54192   30600      0    1.76e+00    0    1.23e+00
2007 04 02  0835    54192   30900      0    1.74e+00    0    1.22e+00
2007 04 02  0840    54192   31200      0    1.78e+00    0    1.24e+00
2007 04 02  0845    54192   31500      0    1.75e+00    0    1.22e+00
2007 04 02  0850    54192   31800      0    1.79e+00    0    1.25e+00
2007 04 02  0855    54192   32100      0    1.74e+00    0    1.22e+00
2007 04 02  0900    54192   32400      0    1.75e+00    0    1.22e+00
2007 04 02  0905    54192   32700      0    1.75e+00    0    1.22e+00
2007 04 02  0910    54192   33000      0    1.72e+00    0    1.18e+00
2007 04 02  0915    54192   33300      0    1.72e+00    0    1.20e+00
2007 04 02  0920    54192   33600      0    1.73e+00    0    1.22e+00
2007 04 02  0925    54192   33900      0    1.73e+00    0    1.21e+00
2007 04 02  0930    54192   34200      0    1.74e+00    0    1.22e+00
2007 04 02  0935    54192   34500      0    1.75e+00    0    1.22e+00
2007 04 02  0940    54192   34800      0    1.74e+00    0    1.23e+00
2007 04 02  0945    54192   35100      0    1.70e+00    0    1.17e+00
2007 04 02  0950    54192   35400      0    1.76e+00    0    1.23e+00
2007 04 02  0955    54192   35700      0    1.74e+00    0    1.22e+00
2007 04 02  1000    54192   36000      0    1.73e+00    0    1.21e+00
2007 04 02  1005    54192   36300      0    1.74e+00    0    1.22e+00
2007 04 02  1010    54192   36600      0    1.75e+00    0    1.23e+00
2007 04 02  1015    54192   36900      0    1.74e+00    0    1.23e+00
2007 04 02  1020    54192   37200      0    1.73e+00    0    1.22e+00
2007 04 02  1025    54192   37500      0    1.69e+00    0    1.19e+00
2007 04 02  1030    54192   37800      0    1.74e+00    0    1.23e+00
2007 04 02  1035    54192   38100      0    1.73e+00    0    1.21e+00
2007 04 02  1040    54192   38400      0    1.75e+00    0    1.23e+00
2007 04 02  1045    54192   38700      0    1.73e+00    0    1.21e+00
2007 04 02  1050    54192   39000      0    1.81e+00    0    1.27e+00
2007 04 02  1055    54192   39300      0    1.76e+00    0    1.24e+00
2007 04 02  1100    54192   39600      0    1.77e+00    0    1.25e+00
2007 04 02  1105    54192   39900      0    1.73e+00    0    1.22e+00
2007 04 02  1110    54192   40200      0    1.76e+00    0    1.23e+00
2007 04 02  1115    54192   40500      0    1.75e+00    0    1.22e+00
2007 04 02  1120    54192   40800      0    1.75e+00    0    1.24e+00
2007 04 02  1125    54192   41100      0    1.77e+00    0    1.25e+00
2007 04 02  1130    54192   41400      0    1.74e+00    0    1.23e+00
2007 04 02  1135    54192   41700      0    1.74e+00    0    1.21e+00
2007 04 02  1140    54192   42000      0    1.76e+00    0    1.24e+00
2007 04 02  1145    54192   42300      0    1.70e+00    0    1.17e+00
2007 04 02  1150    54192   42600      0    1.71e+00    0    1.20e+00
2007 04 02  1155    54192   42900      0    1.75e+00    0    1.23e+00
2007 04 02  1200    54192   43200      0    1.72e+00    0    1.20e+00
2007 04 02  1205    54192   43500      0    1.69e+00    0    1.18e+00
2007 04 02  1210    54192   43800      0    1.72e+00    0    1.20e+00
2007 04 02  1215    54192   44100      0    1.71e+00    0    1.19e+00
2007 04 02  1220    54192   44400      0    1.75e+00    0    1.23e+00
2007 04 02  1225    54192   44700      0    1.72e+00    0    1.20e+00
2007 04 02  1230    54192   45000      0    1.76e+00    0    1.24e+00
2007 04 02  1235    54192   45300      0    1.73e+00    0    1.21e+00
2007 04 02  1240    54192   45600      0    1.72e+00    0    1.20e+00
2007 04 02  1245    54192   45900      0    1.71e+00    0    1.21e+00
2007 04 02  1250    54192   46200      0    1.75e+00    0    1.22e+00
2007 04 02  1255    54192   46500      0    1.75e+00    0    1.23e+00
2007 04 02  1300    54192   46800      0    1.77e+00    0    1.24e+00
2007 04 02  1305    54192   47100      0    1.78e+00    0    1.24e+00
2007 04 02  1310    54192   47400      0    1.79e+00    0    1.25e+00
2007 04 02  1315    54192   47700      0    1.77e+00    0    1.24e+00
2007 04 02  1320    54192   48000      0    1.76e+00    0    1.24e+00
2007 04 02  1325    54192   48300      0    1.72e+00    0    1.20e+00
2007 04 02  1330    54192   48600      0    1.75e+00    0    1.22e+00
2007 04 02  1335    54192   48900      0    1.73e+00    0    1.21e+00
2007 04 02  1340    54192   49200      0    1.74e+00    0    1.22e+00
2007 04 02  1345    54192   49500      0    1.73e+00    0    1.22e+00
2007 04 02  1350    54192   49800      0    1.75e+00    0    1.21e+00
2007 04 02  1355    54192   50100      0    1.74e+00    0    1.23e+00
2007 04 02  1400    54192   50400      0    1.72e+00    0    1.20e+00
2007 04 02  1405    54192   50700      0    1.73e+00    0    1.20e+00
2007 04 02  1410    54192   51000      0    1.74e+00    0    1.22e+00
2007 04 02  1415    54192   51300      0    1.72e+00    0    1.22e+00
2007 04 02  1420    54192   51600      0    1.77e+00    0    1.24e+00
2007 04 02  1425    54192   51900      0    1.73e+00    0    1.22e+00
2007 04 02  1430    54192   52200      0    1.75e+00    0    1.23e+00
2007 04 02  1435    54192   52500      0    1.75e+00    0    1.22e+00
2007 04 02  1440    54192   52800      0    1.76e+00    0    1.23e+00
2007 04 02  1445    54192   53100      0    1.75e+00    0    1.23e+00
2007 04 02  1450    54192   53400      0    1.76e+00    0    1.23e+00
2007 04 02  1455    54192   53700      0    1.75e+00    0    1.23e+00
2007 04 02  1500    54192   54000      0    1.72e+00    0    1.19e+00
2007 04 02  1505    54192   54300      0    1.74e+00    0    1.22e+00
2007 04 02  1510    54192   54600      0    1.73e+00    0    1.23e+00
2007 04 02  1515    54192   54900      0    1.72e+00    0    1.19e+00
2007 04 02  1520    54192   55200      0    1.76e+00    0    1.22e+00
2007 04 02  1525    54192   55500      0    1.75e+00    0    1.23e+00
2007 04 02  1530    54192   55800      0    1.74e+00    0    1.21e+00
2007 04 02  1535    54192   56100      0    1.74e+00    0    1.22e+00
2007 04 02  1540    54192   56400      0    1.76e+00    0    1.24e+00
2007 04 02  1545    54192   56700      0    1.78e+00    0    1.25e+00
2007 04 02  1550    54192   57000      0    1.79e+00    0    1.26e+00
2007 04 02  1555    54192   57300      0    1.74e+00    0    1.21e+00
2007 04 02  1600    54192   57600      0    1.77e+00    0    1.24e+00
2007 04 02  1605    54192   57900      0    1.76e+00    0    1.23e+00
2007 04 02  1610    54192   58200      0    1.76e+00    0    1.23e+00
2007 04 02  1615    54192   58500      0    1.78e+00    0    1.25e+00
2007 04 02  1620    54192   58800      0    1.77e+00    0    1.25e+00
2007 04 02  1625    54192   59100      0    1.81e+00    0    1.27e+00
2007 04 02  1630    54192   59400      0    1.77e+00    0    1.25e+00
2007 04 02  1635    54192   59700      0    1.81e+00    0    1.27e+00
2007 04 02  1640    54192   60000      0    1.78e+00    0    1.25e+00
2007 04 02  1645    54192   60300      0    1.79e+00    0    1.26e+00
2007 04 02  1650    54192   60600      0    1.78e+00    0    1.24e+00
2007 04 02  1655    54192   60900      0    1.75e+00    0    1.23e+00
2007 04 02  1700    54192   61200      0    1.77e+00    0    1.24e+00
2007 04 02  1705    54192   61500      0    1.80e+00    0    1.26e+00
2007 04 02  1710    54192   61800      0    1.75e+00    0    1.23e+00
2007 04 02  1715    54192   62100      0    1.80e+00    0    1.26e+00
2007 04 02  1720    54192   62400      0    1.75e+00    0    1.23e+00
2007 04 02  1725    54192   62700      0    1.79e+00    0    1.25e+00
2007 04 02  1730    54192   63000      0    1.79e+00    0    1.25e+00
2007 04 02  1735    54192   63300      0    1.75e+00    0    1.22e+00
2007 04 02  1740    54192   63600      0    1.74e+00    0    1.23e+00
2007 04 02  1745    54192   63900      0    1.78e+00    0    1.25e+00
2007 04 02  1750    54192   64200      0    1.71e+00    0    1.21e+00
2007 04 02  1755    54192   64500      0    1.81e+00    0    1.27e+00
2007 04 02  1800    54192   64800      0    1.74e+00    0    1.22e+00
2007 04 02  1805    54192   65100      0    1.73e+00    0    1.22e+00
2007 04 02  1810    54192   65400      0    1.73e+00    0    1.21e+00
2007 04 02  1815    54192   65700      0    1.79e+00    0    1.26e+00
2007 04 02  1820    54192   66000      0    1.79e+00    0    1.25e+00
2007 04 02  1825    54192   66300      0    1.78e+00    0    1.26e+00
2007 04 02  1830    54192   66600      0    1.78e+00    0    1.25e+00
2007 04 02  1835    54192   66900      0    1.73e+00    0    1.21e+00
2007 04 02  1840    54192   67200      0    1.75e+00    0    1.23e+00
2007 04 02  1845    54192   67500      0    1.75e+00    0    1.21e+00
2007 04 02  1850    54192   67800      0    1.74e+00    0    1.21e+00
2007 04 02  1855    54192   68100      0    1.77e+00    0    1.24e+00
2007 04 02  1900    54192   68400      0    1.79e+00    0    1.26e+00
2007 04 02  1905    54192   68700      0    1.75e+00    0    1.22e+00
2007 04 02  1910    54192   69000      0    1.73e+00    0    1.20e+00
2007 04 02  1915    54192   69300      0    1.75e+00    0    1.22e+00
2007 04 02  1920    54192   69600      0    1.80e+00    0    1.25e+00
2007 04 02  1925    54192   69900      0    1.77e+00    0    1.23e+00
2007 04 02  1930    54192   70200      0    1.81e+00    0    1.26e+00
2007 04 02  1935    54192   70500      0    1.79e+00    0    1.27e+00
2007 04 02  1940    54192   70800      0    1.74e+00    0    1.22e+00
2007 04 02  1945    54192   71100      0    1.82e+00    0    1.29e+00
2007 04 02  1950    54192   71400      0    1.79e+00    0    1.25e+00
2007 04 02  1955    54192   71700      0    1.77e+00    0    1.24e+00
2007 04 02  2000    54192   72000      0    1.73e+00    0    1.21e+00
2007 04 02  2005    54192   72300      0    1.78e+00    0    1.25e+00
2007 04 02  2010    54192   72600      0    1.75e+00    0    1.22e+00
2007 04 02  2015    54192   72900      0    1.70e+00    0    1.20e+00
2007 04 02  2020    54192   73200      0    1.73e+00    0    1.22e+00
2007 04 02  2025    54192   73500      0    1.75e+00    0    1.23e+00
2007 04 02  2030    54192   73800      0    1.78e+00    0    1.24e+00
2007 04 02  2035    54192   74100      0    1.73e+00    0    1.22e+00
2007 04 02  2040    54192   74400      0    1.76e+00    0    1.23e+00
2007 04 02  2045    54192   74700      0    1.77e+00    0    1.25e+00
2007 04 02  2050    54192   75000      0    1.74e+00    0    1.22e+00
2007 04 02  2055    54192   75300      0    1.74e+00    0    1.22e+00
2007 04 02  2100    54192   75600      0    1.78e+00    0    1.23e+00
2007 04 02  2105    54192   75900      0    1.77e+00    0    1.24e+00
2007 04 02  2110    54192   76200      0    1.74e+00    0    1.22e+00
2007 04 02  2115    54192   76500      0    1.76e+00    0    1.23e+00
2007 04 02  2120    54192   76800      0    1.77e+00    0    1.24e+00
2007 04 02  2125    54192   77100      0    1.73e+00    0    1.21e+00
2007 04 02  2130    54192   77400      0    1.71e+00    0    1.20e+00
2007 04 02  2135    54192   77700      0    1.64e+00    0    1.16e+00
2007 04 02  2140    54192   78000      0    1.77e+00    0    1.24e+00
2007 04 02  2145    54192   78300      0    1.76e+00    0    1.23e+00
2007 04 02  2150    54192   78600      0    1.79e+00    0    1.25e+00
2007 04 02  2155    54192   78900      0    1.78e+00    0    1.24e+00
2007 04 02  2200    54192   79200      0    1.76e+00    0    1.24e+00
2007 04 02  2205    54192   79500      0    1.78e+00    0    1.24e+00
2007 04 02  2210    54192   79800      0    1.77e+00    0    1.22e+00
2007 04 02  2215    54192   80100      0    1.79e+00    0    1.26e+00
2007 04 02  2220    54192   80400      0    1.78e+00    0    1.25e+00
2007 04 02  2225    54192   80700      0    1.80e+00    0    1.25e+00
2007 04 02  2230    54192   81000      0    1.73e+00    0    1.21e+00
2007 04 02  2235    54192   81300      0    1.77e+00    0    1.23e+00
2007 04 02  2240    54192   81600      0    1.76e+00    0    1.22e+00
2007 04 02  2245    54192   81900      0    1.77e+00    0    1.25e+00
2007 04 02  2250    54192   82200      0    1.85e+00    0    1.30e+00
2007 04 02  2255    54192   82500      0    1.79e+00    0    1.26e+00
2007 04 02  2300    54192   82800      0    1.79e+00    0    1.25e+00
2007 04 02  2305    54192   83100      0    1.80e+00    0    1.25e+00
2007 04 02  2310    54192   83400      0    1.73e+00    0    1.21e+00
2007 04 02  2315    54192   83700      0    1.81e+00    0    1.27e+00
2007 04 02  2320    54192   84000      0    1.81e+00    0    1.27e+00
2007 04 02  2325    54192   84300      0    1.75e+00    0    1.23e+00
2007 04 02  2330    54192   84600      0    1.79e+00    0    1.26e+00
2007 04 02  2335    54192   84900      0    1.78e+00    0    1.26e+00
2007 04 02  2340    54192   85200      0    1.79e+00    0    1.25e+00
2007 04 02  2345    54192   85500      0    1.77e+00    0    1.25e+00
2007 04 02  2350    54192   85800      0    1.80e+00    0    1.25e+00
2007 04 02  2355    54192   86100      0    1.82e+00    0    1.28e+00
