:Data_list: 20070522_ace_sis_5m.txt
:Created: 2007 May 23 0011 UT
# Prepared by the U.S. Dept. of Commerce, NOAA, Space Environment Center.
# Please send comments and suggestions to SEC.Webmaster@noaa.gov 
# 
# Units: proton flux p/cs2-sec-ster
# Status(S): 0 = nominal data, 1 to 8 = bad data record, 9 = no data
# Missing data values: -1.00e+05
# Source: ACE Satellite - Solar Isotope Spectrometer
#
# 5-minute averaged Real-time Integral Flux of High-energy Solar Protons
# 
#                 Modified Seconds
# UT Date   Time   Julian  of the      ---- Integral Proton Flux ----
# YR MO DA  HHMM     Day     Day       S    > 10 MeV    S    > 30 MeV
#--------------------------------------------------------------------
2007 05 22  0000    54242       0      0    1.72e+00    0    1.21e+00
2007 05 22  0005    54242     300      0    1.79e+00    0    1.26e+00
2007 05 22  0010    54242     600      0    1.76e+00    0    1.23e+00
2007 05 22  0015    54242     900      0    1.71e+00    0    1.19e+00
2007 05 22  0020    54242    1200      0    1.75e+00    0    1.24e+00
2007 05 22  0025    54242    1500      0    1.75e+00    0    1.22e+00
2007 05 22  0030    54242    1800      0    1.75e+00    0    1.22e+00
2007 05 22  0035    54242    2100      0    1.76e+00    0    1.23e+00
2007 05 22  0040    54242    2400      0    1.74e+00    0    1.20e+00
2007 05 22  0045    54242    2700      0    1.76e+00    0    1.23e+00
2007 05 22  0050    54242    3000      0    1.73e+00    0    1.22e+00
2007 05 22  0055    54242    3300      0    1.77e+00    0    1.24e+00
2007 05 22  0100    54242    3600      0    1.77e+00    0    1.24e+00
2007 05 22  0105    54242    3900      0    1.76e+00    0    1.23e+00
2007 05 22  0110    54242    4200      0    1.71e+00    0    1.19e+00
2007 05 22  0115    54242    4500      0    1.77e+00    0    1.23e+00
2007 05 22  0120    54242    4800      0    1.77e+00    0    1.23e+00
2007 05 22  0125    54242    5100      0    1.78e+00    0    1.24e+00
2007 05 22  0130    54242    5400      0    1.77e+00    0    1.25e+00
2007 05 22  0135    54242    5700      0    1.79e+00    0    1.25e+00
2007 05 22  0140    54242    6000      0    1.77e+00    0    1.22e+00
2007 05 22  0145    54242    6300      0    1.77e+00    0    1.24e+00
2007 05 22  0150    54242    6600      0    1.77e+00    0    1.24e+00
2007 05 22  0155    54242    6900      0    1.78e+00    0    1.25e+00
2007 05 22  0200    54242    7200      0    1.76e+00    0    1.23e+00
2007 05 22  0205    54242    7500      0    1.71e+00    0    1.20e+00
2007 05 22  0210    54242    7800      0    1.78e+00    0    1.24e+00
2007 05 22  0215    54242    8100      0    1.77e+00    0    1.24e+00
2007 05 22  0220    54242    8400      0    1.80e+00    0    1.27e+00
2007 05 22  0225    54242    8700      0    1.80e+00    0    1.27e+00
2007 05 22  0230    54242    9000      0    1.75e+00    0    1.21e+00
2007 05 22  0235    54242    9300      0    1.80e+00    0    1.26e+00
2007 05 22  0240    54242    9600      0    1.74e+00    0    1.22e+00
2007 05 22  0245    54242    9900      0    1.75e+00    0    1.20e+00
2007 05 22  0250    54242   10200      0    1.75e+00    0    1.22e+00
2007 05 22  0255    54242   10500      0    1.81e+00    0    1.27e+00
2007 05 22  0300    54242   10800      0    1.78e+00    0    1.23e+00
2007 05 22  0305    54242   11100      0    1.77e+00    0    1.25e+00
2007 05 22  0310    54242   11400      0    1.81e+00    0    1.26e+00
2007 05 22  0315    54242   11700      0    1.77e+00    0    1.24e+00
2007 05 22  0320    54242   12000      0    1.75e+00    0    1.22e+00
2007 05 22  0325    54242   12300      0    1.80e+00    0    1.25e+00
2007 05 22  0330    54242   12600      0    1.75e+00    0    1.23e+00
2007 05 22  0335    54242   12900      0    1.77e+00    0    1.24e+00
2007 05 22  0340    54242   13200      0    1.74e+00    0    1.22e+00
2007 05 22  0345    54242   13500      0    1.77e+00    0    1.24e+00
2007 05 22  0350    54242   13800      0    1.78e+00    0    1.24e+00
2007 05 22  0355    54242   14100      0    1.78e+00    0    1.25e+00
2007 05 22  0400    54242   14400      0    1.79e+00    0    1.24e+00
2007 05 22  0405    54242   14700      0    1.76e+00    0    1.23e+00
2007 05 22  0410    54242   15000      0    1.76e+00    0    1.23e+00
2007 05 22  0415    54242   15300      0    1.80e+00    0    1.26e+00
2007 05 22  0420    54242   15600      0    1.76e+00    0    1.23e+00
2007 05 22  0425    54242   15900      0    1.76e+00    0    1.22e+00
2007 05 22  0430    54242   16200      0    1.77e+00    0    1.24e+00
2007 05 22  0435    54242   16500      0    1.81e+00    0    1.27e+00
2007 05 22  0440    54242   16800      0    1.64e+00    0    1.15e+00
2007 05 22  0445    54242   17100      0    1.74e+00    0    1.23e+00
2007 05 22  0450    54242   17400      0    1.82e+00    0    1.28e+00
2007 05 22  0455    54242   17700      0    1.78e+00    0    1.25e+00
2007 05 22  0500    54242   18000      0    1.80e+00    0    1.27e+00
2007 05 22  0505    54242   18300      0    1.77e+00    0    1.24e+00
2007 05 22  0510    54242   18600      0    1.75e+00    0    1.22e+00
2007 05 22  0515    54242   18900      0    1.74e+00    0    1.22e+00
2007 05 22  0520    54242   19200      0    1.78e+00    0    1.25e+00
2007 05 22  0525    54242   19500      0    1.77e+00    0    1.24e+00
2007 05 22  0530    54242   19800      0    1.77e+00    0    1.24e+00
2007 05 22  0535    54242   20100      0    1.81e+00    0    1.26e+00
2007 05 22  0540    54242   20400      0    1.81e+00    0    1.26e+00
2007 05 22  0545    54242   20700      0    1.75e+00    0    1.22e+00
2007 05 22  0550    54242   21000      0    1.77e+00    0    1.23e+00
2007 05 22  0555    54242   21300      0    1.81e+00    0    1.25e+00
2007 05 22  0600    54242   21600      0    1.78e+00    0    1.25e+00
2007 05 22  0605    54242   21900      0    1.78e+00    0    1.24e+00
2007 05 22  0610    54242   22200      0    1.76e+00    0    1.22e+00
2007 05 22  0615    54242   22500      0    1.77e+00    0    1.23e+00
2007 05 22  0620    54242   22800      0    1.81e+00    0    1.27e+00
2007 05 22  0625    54242   23100      0    1.73e+00    0    1.22e+00
2007 05 22  0630    54242   23400      0    1.76e+00    0    1.22e+00
2007 05 22  0635    54242   23700      0    1.76e+00    0    1.21e+00
2007 05 22  0640    54242   24000      0    1.79e+00    0    1.25e+00
2007 05 22  0645    54242   24300      0    1.75e+00    0    1.24e+00
2007 05 22  0650    54242   24600      0    1.77e+00    0    1.24e+00
2007 05 22  0655    54242   24900      0    1.79e+00    0    1.25e+00
2007 05 22  0700    54242   25200      0    1.77e+00    0    1.23e+00
2007 05 22  0705    54242   25500      0    1.78e+00    0    1.23e+00
2007 05 22  0710    54242   25800      0    1.75e+00    0    1.22e+00
2007 05 22  0715    54242   26100      0    1.78e+00    0    1.23e+00
2007 05 22  0720    54242   26400      0    1.76e+00    0    1.22e+00
2007 05 22  0725    54242   26700      0    1.75e+00    0    1.22e+00
2007 05 22  0730    54242   27000      0    1.71e+00    0    1.19e+00
2007 05 22  0735    54242   27300      0    1.74e+00    0    1.23e+00
2007 05 22  0740    54242   27600      0    1.77e+00    0    1.24e+00
2007 05 22  0745    54242   27900      0    1.79e+00    0    1.25e+00
2007 05 22  0750    54242   28200      0    1.79e+00    0    1.26e+00
2007 05 22  0755    54242   28500      0    1.77e+00    0    1.24e+00
2007 05 22  0800    54242   28800      0    1.79e+00    0    1.25e+00
2007 05 22  0805    54242   29100      0    1.74e+00    0    1.22e+00
2007 05 22  0810    54242   29400      0    1.76e+00    0    1.24e+00
2007 05 22  0815    54242   29700      0    1.79e+00    0    1.26e+00
2007 05 22  0820    54242   30000      0    1.74e+00    0    1.20e+00
2007 05 22  0825    54242   30300      0    1.78e+00    0    1.24e+00
2007 05 22  0830    54242   30600      0    1.77e+00    0    1.25e+00
2007 05 22  0835    54242   30900      0    1.74e+00    0    1.23e+00
2007 05 22  0840    54242   31200      0    1.78e+00    0    1.24e+00
2007 05 22  0845    54242   31500      0    1.77e+00    0    1.23e+00
2007 05 22  0850    54242   31800      0    1.76e+00    0    1.23e+00
2007 05 22  0855    54242   32100      0    1.79e+00    0    1.26e+00
2007 05 22  0900    54242   32400      0    1.79e+00    0    1.25e+00
2007 05 22  0905    54242   32700      0    1.74e+00    0    1.21e+00
2007 05 22  0910    54242   33000      0    1.72e+00    0    1.19e+00
2007 05 22  0915    54242   33300      0    1.73e+00    0    1.22e+00
2007 05 22  0920    54242   33600      0    1.74e+00    0    1.22e+00
2007 05 22  0925    54242   33900      0    1.78e+00    0    1.25e+00
2007 05 22  0930    54242   34200      0    1.79e+00    0    1.26e+00
2007 05 22  0935    54242   34500      0    1.75e+00    0    1.22e+00
2007 05 22  0940    54242   34800      0    1.74e+00    0    1.22e+00
2007 05 22  0945    54242   35100      0    1.76e+00    0    1.23e+00
2007 05 22  0950    54242   35400      0    1.74e+00    0    1.23e+00
2007 05 22  0955    54242   35700      0    1.80e+00    0    1.26e+00
2007 05 22  1000    54242   36000      0    1.77e+00    0    1.26e+00
2007 05 22  1005    54242   36300      0    1.75e+00    0    1.23e+00
2007 05 22  1010    54242   36600      0    1.76e+00    0    1.22e+00
2007 05 22  1015    54242   36900      0    1.78e+00    0    1.24e+00
2007 05 22  1020    54242   37200      0    1.77e+00    0    1.23e+00
2007 05 22  1025    54242   37500      0    1.77e+00    0    1.24e+00
2007 05 22  1030    54242   37800      0    1.79e+00    0    1.25e+00
2007 05 22  1035    54242   38100      0    1.61e+00    0    1.12e+00
2007 05 22  1040    54242   38400      0    1.77e+00    0    1.24e+00
2007 05 22  1045    54242   38700      0    1.78e+00    0    1.25e+00
2007 05 22  1050    54242   39000      0    1.74e+00    0    1.23e+00
2007 05 22  1055    54242   39300      0    1.74e+00    0    1.22e+00
2007 05 22  1100    54242   39600      0    1.76e+00    0    1.22e+00
2007 05 22  1105    54242   39900      0    1.71e+00    0    1.20e+00
2007 05 22  1110    54242   40200      0    1.76e+00    0    1.23e+00
2007 05 22  1115    54242   40500      0    1.77e+00    0    1.23e+00
2007 05 22  1120    54242   40800      0    1.76e+00    0    1.25e+00
2007 05 22  1125    54242   41100      0    1.77e+00    0    1.23e+00
2007 05 22  1130    54242   41400      0    1.75e+00    0    1.22e+00
2007 05 22  1135    54242   41700      0    1.79e+00    0    1.25e+00
2007 05 22  1140    54242   42000      0    1.81e+00    0    1.27e+00
2007 05 22  1145    54242   42300      0    1.79e+00    0    1.27e+00
2007 05 22  1150    54242   42600      0    1.79e+00    0    1.26e+00
2007 05 22  1155    54242   42900      0    1.82e+00    0    1.27e+00
2007 05 22  1200    54242   43200      0    1.78e+00    0    1.25e+00
2007 05 22  1205    54242   43500      0    1.80e+00    0    1.25e+00
2007 05 22  1210    54242   43800      0    1.75e+00    0    1.22e+00
2007 05 22  1215    54242   44100      0    1.76e+00    0    1.25e+00
2007 05 22  1220    54242   44400      0    1.73e+00    0    1.21e+00
2007 05 22  1225    54242   44700      0    1.75e+00    0    1.23e+00
2007 05 22  1230    54242   45000      0    1.75e+00    0    1.21e+00
2007 05 22  1235    54242   45300      0    1.77e+00    0    1.26e+00
2007 05 22  1240    54242   45600      0    1.75e+00    0    1.22e+00
2007 05 22  1245    54242   45900      0    1.76e+00    0    1.22e+00
2007 05 22  1250    54242   46200      0    1.78e+00    0    1.24e+00
2007 05 22  1255    54242   46500      0    1.76e+00    0    1.23e+00
2007 05 22  1300    54242   46800      0    1.78e+00    0    1.24e+00
2007 05 22  1305    54242   47100      0    1.68e+00    0    1.16e+00
2007 05 22  1310    54242   47400      0    1.74e+00    0    1.21e+00
2007 05 22  1315    54242   47700      0    1.76e+00    0    1.23e+00
2007 05 22  1320    54242   48000      0    1.76e+00    0    1.22e+00
2007 05 22  1325    54242   48300      0    1.73e+00    0    1.22e+00
2007 05 22  1330    54242   48600      0    1.80e+00    0    1.25e+00
2007 05 22  1335    54242   48900      0    1.80e+00    0    1.26e+00
2007 05 22  1340    54242   49200      0    1.81e+00    0    1.26e+00
2007 05 22  1345    54242   49500      0    1.79e+00    0    1.25e+00
2007 05 22  1350    54242   49800      0    1.77e+00    0    1.23e+00
2007 05 22  1355    54242   50100      0    1.82e+00    0    1.26e+00
2007 05 22  1400    54242   50400      0    1.78e+00    0    1.24e+00
2007 05 22  1405    54242   50700      0    1.79e+00    0    1.24e+00
2007 05 22  1410    54242   51000      0    1.72e+00    0    1.19e+00
2007 05 22  1415    54242   51300      0    1.76e+00    0    1.24e+00
2007 05 22  1420    54242   51600      0    1.76e+00    0    1.24e+00
2007 05 22  1425    54242   51900      0    1.75e+00    0    1.22e+00
2007 05 22  1430    54242   52200      0    1.77e+00    0    1.23e+00
2007 05 22  1435    54242   52500      0    1.73e+00    0    1.21e+00
2007 05 22  1440    54242   52800      0    1.77e+00    0    1.23e+00
2007 05 22  1445    54242   53100      0    1.79e+00    0    1.25e+00
2007 05 22  1450    54242   53400      0    1.76e+00    0    1.23e+00
2007 05 22  1455    54242   53700      0    1.76e+00    0    1.22e+00
2007 05 22  1500    54242   54000      0    1.77e+00    0    1.25e+00
2007 05 22  1505    54242   54300      0    1.73e+00    0    1.21e+00
2007 05 22  1510    54242   54600      0    1.72e+00    0    1.20e+00
2007 05 22  1515    54242   54900      0    1.78e+00    0    1.25e+00
2007 05 22  1520    54242   55200      0    1.77e+00    0    1.25e+00
2007 05 22  1525    54242   55500      0    1.80e+00    0    1.26e+00
2007 05 22  1530    54242   55800      0    1.76e+00    0    1.24e+00
2007 05 22  1535    54242   56100      0    1.73e+00    0    1.22e+00
2007 05 22  1540    54242   56400      0    1.74e+00    0    1.22e+00
2007 05 22  1545    54242   56700      0    1.77e+00    0    1.23e+00
2007 05 22  1550    54242   57000      0    1.78e+00    0    1.25e+00
2007 05 22  1555    54242   57300      0    1.74e+00    0    1.22e+00
2007 05 22  1600    54242   57600      0    1.78e+00    0    1.25e+00
2007 05 22  1605    54242   57900      0    1.78e+00    0    1.25e+00
2007 05 22  1610    54242   58200      0    1.78e+00    0    1.24e+00
2007 05 22  1615    54242   58500      0    1.75e+00    0    1.23e+00
2007 05 22  1620    54242   58800      0    1.77e+00    0    1.24e+00
2007 05 22  1625    54242   59100      0    1.77e+00    0    1.24e+00
2007 05 22  1630    54242   59400      0    1.78e+00    0    1.25e+00
2007 05 22  1635    54242   59700      0    1.75e+00    0    1.22e+00
2007 05 22  1640    54242   60000      0    1.77e+00    0    1.24e+00
2007 05 22  1645    54242   60300      0    1.80e+00    0    1.26e+00
2007 05 22  1650    54242   60600      0    1.74e+00    0    1.22e+00
2007 05 22  1655    54242   60900      0    1.77e+00    0    1.23e+00
2007 05 22  1700    54242   61200      0    1.79e+00    0    1.25e+00
2007 05 22  1705    54242   61500      0    1.75e+00    0    1.22e+00
2007 05 22  1710    54242   61800      0    1.73e+00    0    1.20e+00
2007 05 22  1715    54242   62100      0    1.73e+00    0    1.21e+00
2007 05 22  1720    54242   62400      0    1.79e+00    0    1.26e+00
2007 05 22  1725    54242   62700      0    1.79e+00    0    1.25e+00
2007 05 22  1730    54242   63000      0    1.77e+00    0    1.22e+00
2007 05 22  1735    54242   63300      0    1.77e+00    0    1.24e+00
2007 05 22  1740    54242   63600      0    1.75e+00    0    1.21e+00
2007 05 22  1745    54242   63900      0    1.77e+00    0    1.23e+00
2007 05 22  1750    54242   64200      0    1.76e+00    0    1.23e+00
2007 05 22  1755    54242   64500      0    1.79e+00    0    1.25e+00
2007 05 22  1800    54242   64800      0    1.78e+00    0    1.25e+00
2007 05 22  1805    54242   65100      0    1.79e+00    0    1.26e+00
2007 05 22  1810    54242   65400      0    1.77e+00    0    1.23e+00
2007 05 22  1815    54242   65700      0    1.77e+00    0    1.24e+00
2007 05 22  1820    54242   66000      0    1.76e+00    0    1.23e+00
2007 05 22  1825    54242   66300      0    1.78e+00    0    1.25e+00
2007 05 22  1830    54242   66600      0    1.79e+00    0    1.26e+00
2007 05 22  1835    54242   66900      0    1.82e+00    0    1.28e+00
2007 05 22  1840    54242   67200      0    1.74e+00    0    1.21e+00
2007 05 22  1845    54242   67500      0    1.75e+00    0    1.22e+00
2007 05 22  1850    54242   67800      0    1.74e+00    0    1.22e+00
2007 05 22  1855    54242   68100      0    1.78e+00    0    1.24e+00
2007 05 22  1900    54242   68400      0    1.77e+00    0    1.24e+00
2007 05 22  1905    54242   68700      0    1.74e+00    0    1.22e+00
2007 05 22  1910    54242   69000      0    1.76e+00    0    1.23e+00
2007 05 22  1915    54242   69300      0    1.76e+00    0    1.23e+00
2007 05 22  1920    54242   69600      0    1.76e+00    0    1.24e+00
2007 05 22  1925    54242   69900      0    1.77e+00    0    1.22e+00
2007 05 22  1930    54242   70200      0    1.76e+00    0    1.23e+00
2007 05 22  1935    54242   70500      0    1.82e+00    0    1.26e+00
2007 05 22  1940    54242   70800      0    1.72e+00    0    1.20e+00
2007 05 22  1945    54242   71100      0    1.75e+00    0    1.23e+00
2007 05 22  1950    54242   71400      0    1.79e+00    0    1.24e+00
2007 05 22  1955    54242   71700      0    1.78e+00    0    1.25e+00
2007 05 22  2000    54242   72000      0    1.78e+00    0    1.23e+00
2007 05 22  2005    54242   72300      0    1.81e+00    0    1.28e+00
2007 05 22  2010    54242   72600      0    1.73e+00    0    1.21e+00
2007 05 22  2015    54242   72900      0    1.78e+00    0    1.25e+00
2007 05 22  2020    54242   73200      0    1.79e+00    0    1.28e+00
2007 05 22  2025    54242   73500      0    1.75e+00    0    1.21e+00
2007 05 22  2030    54242   73800      0    1.76e+00    0    1.23e+00
2007 05 22  2035    54242   74100      0    1.76e+00    0    1.25e+00
2007 05 22  2040    54242   74400      0    1.76e+00    0    1.23e+00
2007 05 22  2045    54242   74700      0    1.78e+00    0    1.25e+00
2007 05 22  2050    54242   75000      0    1.79e+00    0    1.25e+00
2007 05 22  2055    54242   75300      0    1.79e+00    0    1.25e+00
2007 05 22  2100    54242   75600      0    1.76e+00    0    1.23e+00
2007 05 22  2105    54242   75900      0    1.74e+00    0    1.22e+00
2007 05 22  2110    54242   76200      0    1.79e+00    0    1.25e+00
2007 05 22  2115    54242   76500      0    1.76e+00    0    1.24e+00
2007 05 22  2120    54242   76800      0    1.75e+00    0    1.24e+00
2007 05 22  2125    54242   77100      0    1.81e+00    0    1.27e+00
2007 05 22  2130    54242   77400      0    1.75e+00    0    1.23e+00
2007 05 22  2135    54242   77700      0    1.74e+00    0    1.21e+00
2007 05 22  2140    54242   78000      0    1.78e+00    0    1.25e+00
2007 05 22  2145    54242   78300      0    1.79e+00    0    1.25e+00
2007 05 22  2150    54242   78600      0    1.80e+00    0    1.27e+00
2007 05 22  2155    54242   78900      0    1.79e+00    0    1.26e+00
2007 05 22  2200    54242   79200      0    1.82e+00    0    1.28e+00
2007 05 22  2205    54242   79500      0    1.77e+00    0    1.25e+00
2007 05 22  2210    54242   79800      0    1.74e+00    0    1.22e+00
2007 05 22  2215    54242   80100      0    1.77e+00    0    1.25e+00
2007 05 22  2220    54242   80400      0    1.80e+00    0    1.26e+00
2007 05 22  2225    54242   80700      0    1.75e+00    0    1.22e+00
2007 05 22  2230    54242   81000      0    1.79e+00    0    1.25e+00
2007 05 22  2235    54242   81300      0    1.79e+00    0    1.25e+00
2007 05 22  2240    54242   81600      0    1.74e+00    0    1.20e+00
2007 05 22  2245    54242   81900      0    1.78e+00    0    1.24e+00
2007 05 22  2250    54242   82200      0    1.79e+00    0    1.24e+00
2007 05 22  2255    54242   82500      0    1.80e+00    0    1.25e+00
2007 05 22  2300    54242   82800      0    1.78e+00    0    1.25e+00
2007 05 22  2305    54242   83100      0    1.78e+00    0    1.25e+00
2007 05 22  2310    54242   83400      0    1.76e+00    0    1.23e+00
2007 05 22  2315    54242   83700      0    1.81e+00    0    1.26e+00
2007 05 22  2320    54242   84000      0    1.75e+00    0    1.24e+00
2007 05 22  2325    54242   84300      0    1.78e+00    0    1.24e+00
2007 05 22  2330    54242   84600      0    1.82e+00    0    1.27e+00
2007 05 22  2335    54242   84900      0    1.75e+00    0    1.22e+00
2007 05 22  2340    54242   85200      0    1.78e+00    0    1.25e+00
2007 05 22  2345    54242   85500      0    1.81e+00    0    1.27e+00
2007 05 22  2350    54242   85800      0    1.81e+00    0    1.26e+00
2007 05 22  2355    54242   86100      0    1.80e+00    0    1.26e+00
