:Data_list: 20070425_ace_sis_5m.txt
:Created: 2007 Apr 26 0011 UT
# Prepared by the U.S. Dept. of Commerce, NOAA, Space Environment Center.
# Please send comments and suggestions to SEC.Webmaster@noaa.gov 
# 
# Units: proton flux p/cs2-sec-ster
# Status(S): 0 = nominal data, 1 to 8 = bad data record, 9 = no data
# Missing data values: -1.00e+05
# Source: ACE Satellite - Solar Isotope Spectrometer
#
# 5-minute averaged Real-time Integral Flux of High-energy Solar Protons
# 
#                 Modified Seconds
# UT Date   Time   Julian  of the      ---- Integral Proton Flux ----
# YR MO DA  HHMM     Day     Day       S    > 10 MeV    S    > 30 MeV
#--------------------------------------------------------------------
2007 04 25  0000    54215       0      0    1.77e+00    0    1.23e+00
2007 04 25  0005    54215     300      0    1.80e+00    0    1.27e+00
2007 04 25  0010    54215     600      0    1.73e+00    0    1.21e+00
2007 04 25  0015    54215     900      0    1.81e+00    0    1.26e+00
2007 04 25  0020    54215    1200      0    1.73e+00    0    1.21e+00
2007 04 25  0025    54215    1500      0    1.76e+00    0    1.24e+00
2007 04 25  0030    54215    1800      0    1.75e+00    0    1.23e+00
2007 04 25  0035    54215    2100      0    1.80e+00    0    1.26e+00
2007 04 25  0040    54215    2400      0    1.75e+00    0    1.22e+00
2007 04 25  0045    54215    2700      0    1.75e+00    0    1.21e+00
2007 04 25  0050    54215    3000      0    1.78e+00    0    1.24e+00
2007 04 25  0055    54215    3300      0    1.73e+00    0    1.22e+00
2007 04 25  0100    54215    3600      0    1.76e+00    0    1.23e+00
2007 04 25  0105    54215    3900      0    1.75e+00    0    1.23e+00
2007 04 25  0110    54215    4200      0    1.73e+00    0    1.21e+00
2007 04 25  0115    54215    4500      0    1.74e+00    0    1.21e+00
2007 04 25  0120    54215    4800      0    1.77e+00    0    1.25e+00
2007 04 25  0125    54215    5100      0    1.78e+00    0    1.24e+00
2007 04 25  0130    54215    5400      0    1.80e+00    0    1.26e+00
2007 04 25  0135    54215    5700      0    1.81e+00    0    1.27e+00
2007 04 25  0140    54215    6000      0    1.79e+00    0    1.25e+00
2007 04 25  0145    54215    6300      0    1.81e+00    0    1.26e+00
2007 04 25  0150    54215    6600      0    1.71e+00    0    1.20e+00
2007 04 25  0155    54215    6900      0    1.75e+00    0    1.24e+00
2007 04 25  0200    54215    7200      0    1.78e+00    0    1.22e+00
2007 04 25  0205    54215    7500      0    1.72e+00    0    1.20e+00
2007 04 25  0210    54215    7800      0    1.77e+00    0    1.24e+00
2007 04 25  0215    54215    8100      0    1.76e+00    0    1.23e+00
2007 04 25  0220    54215    8400      0    1.78e+00    0    1.25e+00
2007 04 25  0225    54215    8700      0    1.79e+00    0    1.26e+00
2007 04 25  0230    54215    9000      0    1.74e+00    0    1.22e+00
2007 04 25  0235    54215    9300      0    1.74e+00    0    1.21e+00
2007 04 25  0240    54215    9600      0    1.78e+00    0    1.24e+00
2007 04 25  0245    54215    9900      0    1.77e+00    0    1.23e+00
2007 04 25  0250    54215   10200      0    1.78e+00    0    1.23e+00
2007 04 25  0255    54215   10500      0    1.78e+00    0    1.26e+00
2007 04 25  0300    54215   10800      0    1.80e+00    0    1.27e+00
2007 04 25  0305    54215   11100      0    1.75e+00    0    1.21e+00
2007 04 25  0310    54215   11400      0    1.75e+00    0    1.23e+00
2007 04 25  0315    54215   11700      0    1.77e+00    0    1.25e+00
2007 04 25  0320    54215   12000      0    1.76e+00    0    1.22e+00
2007 04 25  0325    54215   12300      0    1.79e+00    0    1.24e+00
2007 04 25  0330    54215   12600      0    1.75e+00    0    1.21e+00
2007 04 25  0335    54215   12900      0    1.78e+00    0    1.24e+00
2007 04 25  0340    54215   13200      0    1.71e+00    0    1.19e+00
2007 04 25  0345    54215   13500      0    1.77e+00    0    1.23e+00
2007 04 25  0350    54215   13800      0    1.78e+00    0    1.25e+00
2007 04 25  0355    54215   14100      0    1.80e+00    0    1.27e+00
2007 04 25  0400    54215   14400      0    1.79e+00    0    1.25e+00
2007 04 25  0405    54215   14700      0    1.77e+00    0    1.24e+00
2007 04 25  0410    54215   15000      0    1.76e+00    0    1.23e+00
2007 04 25  0415    54215   15300      0    1.81e+00    0    1.27e+00
2007 04 25  0420    54215   15600      0    1.74e+00    0    1.23e+00
2007 04 25  0425    54215   15900      0    1.77e+00    0    1.24e+00
2007 04 25  0430    54215   16200      0    1.77e+00    0    1.22e+00
2007 04 25  0435    54215   16500      0    1.76e+00    0    1.23e+00
2007 04 25  0440    54215   16800      0    1.77e+00    0    1.24e+00
2007 04 25  0445    54215   17100      0    1.77e+00    0    1.23e+00
2007 04 25  0450    54215   17400      0    1.79e+00    0    1.25e+00
2007 04 25  0455    54215   17700      0    1.76e+00    0    1.24e+00
2007 04 25  0500    54215   18000      0    1.77e+00    0    1.22e+00
2007 04 25  0505    54215   18300      0    1.80e+00    0    1.26e+00
2007 04 25  0510    54215   18600      0    1.78e+00    0    1.24e+00
2007 04 25  0515    54215   18900      0    1.83e+00    0    1.29e+00
2007 04 25  0520    54215   19200      0    1.74e+00    0    1.23e+00
2007 04 25  0525    54215   19500      0    1.76e+00    0    1.22e+00
2007 04 25  0530    54215   19800      0    1.78e+00    0    1.24e+00
2007 04 25  0535    54215   20100      0    1.79e+00    0    1.25e+00
2007 04 25  0540    54215   20400      0    1.79e+00    0    1.26e+00
2007 04 25  0545    54215   20700      0    1.76e+00    0    1.23e+00
2007 04 25  0550    54215   21000      0    1.74e+00    0    1.22e+00
2007 04 25  0555    54215   21300      0    1.73e+00    0    1.22e+00
2007 04 25  0600    54215   21600      0    1.78e+00    0    1.25e+00
2007 04 25  0605    54215   21900      0    1.73e+00    0    1.21e+00
2007 04 25  0610    54215   22200      0    1.74e+00    0    1.22e+00
2007 04 25  0615    54215   22500      0    1.79e+00    0    1.24e+00
2007 04 25  0620    54215   22800      0    1.76e+00    0    1.22e+00
2007 04 25  0625    54215   23100      0    1.74e+00    0    1.23e+00
2007 04 25  0630    54215   23400      0    1.78e+00    0    1.25e+00
2007 04 25  0635    54215   23700      0    1.74e+00    0    1.23e+00
2007 04 25  0640    54215   24000      0    1.78e+00    0    1.25e+00
2007 04 25  0645    54215   24300      0    1.77e+00    0    1.24e+00
2007 04 25  0650    54215   24600      0    1.77e+00    0    1.23e+00
2007 04 25  0655    54215   24900      0    1.74e+00    0    1.22e+00
2007 04 25  0700    54215   25200      0    1.76e+00    0    1.22e+00
2007 04 25  0705    54215   25500      0    1.71e+00    0    1.20e+00
2007 04 25  0710    54215   25800      0    1.73e+00    0    1.20e+00
2007 04 25  0715    54215   26100      0    1.77e+00    0    1.25e+00
2007 04 25  0720    54215   26400      0    1.74e+00    0    1.24e+00
2007 04 25  0725    54215   26700      0    1.74e+00    0    1.21e+00
2007 04 25  0730    54215   27000      0    1.77e+00    0    1.22e+00
2007 04 25  0735    54215   27300      0    1.77e+00    0    1.25e+00
2007 04 25  0740    54215   27600      0    1.78e+00    0    1.25e+00
2007 04 25  0745    54215   27900      0    1.75e+00    0    1.22e+00
2007 04 25  0750    54215   28200      0    1.75e+00    0    1.22e+00
2007 04 25  0755    54215   28500      0    1.77e+00    0    1.24e+00
2007 04 25  0800    54215   28800      0    1.79e+00    0    1.26e+00
2007 04 25  0805    54215   29100      0    1.73e+00    0    1.19e+00
2007 04 25  0810    54215   29400      0    1.76e+00    0    1.25e+00
2007 04 25  0815    54215   29700      0    1.74e+00    0    1.21e+00
2007 04 25  0820    54215   30000      0    1.71e+00    0    1.18e+00
2007 04 25  0825    54215   30300      0    1.75e+00    0    1.23e+00
2007 04 25  0830    54215   30600      0    1.82e+00    0    1.27e+00
2007 04 25  0835    54215   30900      0    1.73e+00    0    1.22e+00
2007 04 25  0840    54215   31200      0    1.78e+00    0    1.24e+00
2007 04 25  0845    54215   31500      0    1.79e+00    0    1.25e+00
2007 04 25  0850    54215   31800      0    1.77e+00    0    1.24e+00
2007 04 25  0855    54215   32100      0    1.79e+00    0    1.25e+00
2007 04 25  0900    54215   32400      0    1.79e+00    0    1.26e+00
2007 04 25  0905    54215   32700      0    1.80e+00    0    1.25e+00
2007 04 25  0910    54215   33000      0    1.77e+00    0    1.23e+00
2007 04 25  0915    54215   33300      0    1.79e+00    0    1.24e+00
2007 04 25  0920    54215   33600      0    1.78e+00    0    1.24e+00
2007 04 25  0925    54215   33900      0    1.86e+00    0    1.31e+00
2007 04 25  0930    54215   34200      0    1.78e+00    0    1.25e+00
2007 04 25  0935    54215   34500      0    1.79e+00    0    1.26e+00
2007 04 25  0940    54215   34800      0    1.83e+00    0    1.28e+00
2007 04 25  0945    54215   35100      0    1.83e+00    0    1.29e+00
2007 04 25  0950    54215   35400      0    1.79e+00    0    1.26e+00
2007 04 25  0955    54215   35700      0    1.80e+00    0    1.26e+00
2007 04 25  1000    54215   36000      0    1.80e+00    0    1.26e+00
2007 04 25  1005    54215   36300      0    1.87e+00    0    1.31e+00
2007 04 25  1010    54215   36600      0    1.82e+00    0    1.29e+00
2007 04 25  1015    54215   36900      0    1.81e+00    0    1.27e+00
2007 04 25  1020    54215   37200      0    1.77e+00    0    1.25e+00
2007 04 25  1025    54215   37500      0    1.79e+00    0    1.26e+00
2007 04 25  1030    54215   37800      0    1.81e+00    0    1.27e+00
2007 04 25  1035    54215   38100      0    1.84e+00    0    1.30e+00
2007 04 25  1040    54215   38400      0    1.80e+00    0    1.26e+00
2007 04 25  1045    54215   38700      0    1.81e+00    0    1.27e+00
2007 04 25  1050    54215   39000      0    1.81e+00    0    1.27e+00
2007 04 25  1055    54215   39300      0    1.79e+00    0    1.24e+00
2007 04 25  1100    54215   39600      0    1.78e+00    0    1.24e+00
2007 04 25  1105    54215   39900      0    1.79e+00    0    1.25e+00
2007 04 25  1110    54215   40200      0    1.79e+00    0    1.25e+00
2007 04 25  1115    54215   40500      0    1.82e+00    0    1.27e+00
2007 04 25  1120    54215   40800      0    1.84e+00    0    1.28e+00
2007 04 25  1125    54215   41100      0    1.80e+00    0    1.24e+00
2007 04 25  1130    54215   41400      0    1.82e+00    0    1.27e+00
2007 04 25  1135    54215   41700      0    1.81e+00    0    1.26e+00
2007 04 25  1140    54215   42000      0    1.76e+00    0    1.22e+00
2007 04 25  1145    54215   42300      0    1.80e+00    0    1.26e+00
2007 04 25  1150    54215   42600      0    1.79e+00    0    1.25e+00
2007 04 25  1155    54215   42900      0    1.82e+00    0    1.27e+00
2007 04 25  1200    54215   43200      0    1.77e+00    0    1.24e+00
2007 04 25  1205    54215   43500      0    1.83e+00    0    1.28e+00
2007 04 25  1210    54215   43800      0    1.84e+00    0    1.29e+00
2007 04 25  1215    54215   44100      0    1.83e+00    0    1.28e+00
2007 04 25  1220    54215   44400      0    1.78e+00    0    1.25e+00
2007 04 25  1225    54215   44700      0    1.78e+00    0    1.25e+00
2007 04 25  1230    54215   45000      0    1.77e+00    0    1.24e+00
2007 04 25  1235    54215   45300      0    1.81e+00    0    1.29e+00
2007 04 25  1240    54215   45600      0    1.80e+00    0    1.25e+00
2007 04 25  1245    54215   45900      0    1.75e+00    0    1.22e+00
2007 04 25  1250    54215   46200      0    1.78e+00    0    1.24e+00
2007 04 25  1255    54215   46500      0    1.79e+00    0    1.27e+00
2007 04 25  1300    54215   46800      0    1.81e+00    0    1.25e+00
2007 04 25  1305    54215   47100      0    1.81e+00    0    1.28e+00
2007 04 25  1310    54215   47400      0    1.78e+00    0    1.25e+00
2007 04 25  1315    54215   47700      0    1.85e+00    0    1.29e+00
2007 04 25  1320    54215   48000      0    1.77e+00    0    1.24e+00
2007 04 25  1325    54215   48300      0    1.82e+00    0    1.27e+00
2007 04 25  1330    54215   48600      0    1.82e+00    0    1.27e+00
2007 04 25  1335    54215   48900      0    1.83e+00    0    1.28e+00
2007 04 25  1340    54215   49200      0    1.81e+00    0    1.27e+00
2007 04 25  1345    54215   49500      0    1.83e+00    0    1.28e+00
2007 04 25  1350    54215   49800      0    1.77e+00    0    1.25e+00
2007 04 25  1355    54215   50100      0    1.78e+00    0    1.25e+00
2007 04 25  1400    54215   50400      0    1.85e+00    0    1.30e+00
2007 04 25  1405    54215   50700      0    1.83e+00    0    1.29e+00
2007 04 25  1410    54215   51000      0    1.83e+00    0    1.28e+00
2007 04 25  1415    54215   51300      0    1.80e+00    0    1.26e+00
2007 04 25  1420    54215   51600      0    1.79e+00    0    1.26e+00
2007 04 25  1425    54215   51900      0    1.82e+00    0    1.29e+00
2007 04 25  1430    54215   52200      0    1.83e+00    0    1.29e+00
2007 04 25  1435    54215   52500      0    1.80e+00    0    1.27e+00
2007 04 25  1440    54215   52800      0    1.84e+00    0    1.30e+00
2007 04 25  1445    54215   53100      0    1.80e+00    0    1.26e+00
2007 04 25  1450    54215   53400      0    1.83e+00    0    1.29e+00
2007 04 25  1455    54215   53700      0    1.84e+00    0    1.30e+00
2007 04 25  1500    54215   54000      0    1.81e+00    0    1.27e+00
2007 04 25  1505    54215   54300      0    1.82e+00    0    1.26e+00
2007 04 25  1510    54215   54600      0    1.79e+00    0    1.25e+00
2007 04 25  1515    54215   54900      0    1.81e+00    0    1.27e+00
2007 04 25  1520    54215   55200      0    1.85e+00    0    1.29e+00
2007 04 25  1525    54215   55500      0    1.82e+00    0    1.28e+00
2007 04 25  1530    54215   55800      0    1.77e+00    0    1.23e+00
2007 04 25  1535    54215   56100      0    1.81e+00    0    1.26e+00
2007 04 25  1540    54215   56400      0    1.80e+00    0    1.25e+00
2007 04 25  1545    54215   56700      0    1.82e+00    0    1.28e+00
2007 04 25  1550    54215   57000      0    1.82e+00    0    1.27e+00
2007 04 25  1555    54215   57300      0    1.76e+00    0    1.22e+00
2007 04 25  1600    54215   57600      0    1.80e+00    0    1.27e+00
2007 04 25  1605    54215   57900      0    1.81e+00    0    1.27e+00
2007 04 25  1610    54215   58200      0    1.87e+00    0    1.32e+00
2007 04 25  1615    54215   58500      0    1.80e+00    0    1.27e+00
2007 04 25  1620    54215   58800      0    1.80e+00    0    1.27e+00
2007 04 25  1625    54215   59100      0    1.81e+00    0    1.27e+00
2007 04 25  1630    54215   59400      0    1.82e+00    0    1.25e+00
2007 04 25  1635    54215   59700      0    1.81e+00    0    1.26e+00
2007 04 25  1640    54215   60000      0    1.84e+00    0    1.28e+00
2007 04 25  1645    54215   60300      0    1.80e+00    0    1.26e+00
2007 04 25  1650    54215   60600      0    1.78e+00    0    1.24e+00
2007 04 25  1655    54215   60900      0    1.71e+00    0    1.20e+00
2007 04 25  1700    54215   61200      0    1.82e+00    0    1.27e+00
2007 04 25  1705    54215   61500      0    1.79e+00    0    1.26e+00
2007 04 25  1710    54215   61800      0    1.85e+00    0    1.31e+00
2007 04 25  1715    54215   62100      0    1.79e+00    0    1.26e+00
2007 04 25  1720    54215   62400      0    1.81e+00    0    1.27e+00
2007 04 25  1725    54215   62700      0    1.86e+00    0    1.30e+00
2007 04 25  1730    54215   63000      0    1.84e+00    0    1.27e+00
2007 04 25  1735    54215   63300      0    1.83e+00    0    1.28e+00
2007 04 25  1740    54215   63600      0    1.81e+00    0    1.27e+00
2007 04 25  1745    54215   63900      0    1.83e+00    0    1.29e+00
2007 04 25  1750    54215   64200      0    1.81e+00    0    1.27e+00
2007 04 25  1755    54215   64500      0    1.80e+00    0    1.25e+00
2007 04 25  1800    54215   64800      0    1.82e+00    0    1.27e+00
2007 04 25  1805    54215   65100      0    1.84e+00    0    1.28e+00
2007 04 25  1810    54215   65400      0    1.81e+00    0    1.26e+00
2007 04 25  1815    54215   65700      0    1.82e+00    0    1.27e+00
2007 04 25  1820    54215   66000      0    1.80e+00    0    1.26e+00
2007 04 25  1825    54215   66300      0    1.82e+00    0    1.26e+00
2007 04 25  1830    54215   66600      0    1.83e+00    0    1.29e+00
2007 04 25  1835    54215   66900      0    1.83e+00    0    1.27e+00
2007 04 25  1840    54215   67200      0    1.85e+00    0    1.30e+00
2007 04 25  1845    54215   67500      0    1.81e+00    0    1.27e+00
2007 04 25  1850    54215   67800      0    1.87e+00    0    1.31e+00
2007 04 25  1855    54215   68100      0    1.86e+00    0    1.30e+00
2007 04 25  1900    54215   68400      0    1.84e+00    0    1.29e+00
2007 04 25  1905    54215   68700      0    1.82e+00    0    1.27e+00
2007 04 25  1910    54215   69000      0    1.82e+00    0    1.27e+00
2007 04 25  1915    54215   69300      0    1.80e+00    0    1.26e+00
2007 04 25  1920    54215   69600      0    1.81e+00    0    1.27e+00
2007 04 25  1925    54215   69900      0    1.79e+00    0    1.26e+00
2007 04 25  1930    54215   70200      0    1.80e+00    0    1.25e+00
2007 04 25  1935    54215   70500      0    1.82e+00    0    1.28e+00
2007 04 25  1940    54215   70800      0    1.83e+00    0    1.28e+00
2007 04 25  1945    54215   71100      0    1.82e+00    0    1.28e+00
2007 04 25  1950    54215   71400      0    1.78e+00    0    1.25e+00
2007 04 25  1955    54215   71700      0    1.81e+00    0    1.27e+00
2007 04 25  2000    54215   72000      0    1.82e+00    0    1.27e+00
2007 04 25  2005    54215   72300      0    1.83e+00    0    1.27e+00
2007 04 25  2010    54215   72600      0    1.83e+00    0    1.29e+00
2007 04 25  2015    54215   72900      0    1.82e+00    0    1.28e+00
2007 04 25  2020    54215   73200      0    1.83e+00    0    1.28e+00
2007 04 25  2025    54215   73500      0    1.83e+00    0    1.28e+00
2007 04 25  2030    54215   73800      0    1.82e+00    0    1.27e+00
2007 04 25  2035    54215   74100      0    1.79e+00    0    1.25e+00
2007 04 25  2040    54215   74400      0    1.82e+00    0    1.27e+00
2007 04 25  2045    54215   74700      0    1.81e+00    0    1.26e+00
2007 04 25  2050    54215   75000      0    1.80e+00    0    1.27e+00
2007 04 25  2055    54215   75300      0    1.85e+00    0    1.30e+00
2007 04 25  2100    54215   75600      0    1.87e+00    0    1.31e+00
2007 04 25  2105    54215   75900      0    1.83e+00    0    1.29e+00
2007 04 25  2110    54215   76200      0    1.83e+00    0    1.28e+00
2007 04 25  2115    54215   76500      0    1.81e+00    0    1.26e+00
2007 04 25  2120    54215   76800      0    1.81e+00    0    1.27e+00
2007 04 25  2125    54215   77100      0    1.79e+00    0    1.25e+00
2007 04 25  2130    54215   77400      0    1.78e+00    0    1.24e+00
2007 04 25  2135    54215   77700      0    1.83e+00    0    1.28e+00
2007 04 25  2140    54215   78000      0    1.84e+00    0    1.28e+00
2007 04 25  2145    54215   78300      0    1.85e+00    0    1.29e+00
2007 04 25  2150    54215   78600      0    1.83e+00    0    1.27e+00
2007 04 25  2155    54215   78900      0    1.83e+00    0    1.26e+00
2007 04 25  2200    54215   79200      0    1.80e+00    0    1.25e+00
2007 04 25  2205    54215   79500      0    1.84e+00    0    1.29e+00
2007 04 25  2210    54215   79800      0    1.85e+00    0    1.29e+00
2007 04 25  2215    54215   80100      0    1.83e+00    0    1.27e+00
2007 04 25  2220    54215   80400      0    1.81e+00    0    1.27e+00
2007 04 25  2225    54215   80700      0    1.81e+00    0    1.28e+00
2007 04 25  2230    54215   81000      0    1.83e+00    0    1.29e+00
2007 04 25  2235    54215   81300      0    1.87e+00    0    1.31e+00
2007 04 25  2240    54215   81600      0    1.84e+00    0    1.29e+00
2007 04 25  2245    54215   81900      0    1.81e+00    0    1.26e+00
2007 04 25  2250    54215   82200      0    1.82e+00    0    1.26e+00
2007 04 25  2255    54215   82500      0    1.81e+00    0    1.26e+00
2007 04 25  2300    54215   82800      0    1.83e+00    0    1.29e+00
2007 04 25  2305    54215   83100      0    1.83e+00    0    1.30e+00
2007 04 25  2310    54215   83400      0    1.82e+00    0    1.28e+00
2007 04 25  2315    54215   83700      0    1.81e+00    0    1.27e+00
2007 04 25  2320    54215   84000      0    1.83e+00    0    1.27e+00
2007 04 25  2325    54215   84300      0    1.84e+00    0    1.30e+00
2007 04 25  2330    54215   84600      0    1.81e+00    0    1.27e+00
2007 04 25  2335    54215   84900      0    1.78e+00    0    1.26e+00
2007 04 25  2340    54215   85200      0    1.83e+00    0    1.29e+00
2007 04 25  2345    54215   85500      0    1.80e+00    0    1.26e+00
2007 04 25  2350    54215   85800      0    1.83e+00    0    1.28e+00
2007 04 25  2355    54215   86100      0    1.83e+00    0    1.29e+00
