:Data_list: 20070421_ace_sis_5m.txt
:Created: 2007 Apr 22 0011 UT
# Prepared by the U.S. Dept. of Commerce, NOAA, Space Environment Center.
# Please send comments and suggestions to SEC.Webmaster@noaa.gov 
# 
# Units: proton flux p/cs2-sec-ster
# Status(S): 0 = nominal data, 1 to 8 = bad data record, 9 = no data
# Missing data values: -1.00e+05
# Source: ACE Satellite - Solar Isotope Spectrometer
#
# 5-minute averaged Real-time Integral Flux of High-energy Solar Protons
# 
#                 Modified Seconds
# UT Date   Time   Julian  of the      ---- Integral Proton Flux ----
# YR MO DA  HHMM     Day     Day       S    > 10 MeV    S    > 30 MeV
#--------------------------------------------------------------------
2007 04 21  0000    54211       0      0    1.87e+00    0    1.31e+00
2007 04 21  0005    54211     300      0    1.88e+00    0    1.32e+00
2007 04 21  0010    54211     600      0    1.84e+00    0    1.28e+00
2007 04 21  0015    54211     900      0    1.89e+00    0    1.32e+00
2007 04 21  0020    54211    1200      0    1.90e+00    0    1.34e+00
2007 04 21  0025    54211    1500      0    1.87e+00    0    1.31e+00
2007 04 21  0030    54211    1800      0    1.82e+00    0    1.27e+00
2007 04 21  0035    54211    2100      0    1.91e+00    0    1.35e+00
2007 04 21  0040    54211    2400      0    1.88e+00    0    1.32e+00
2007 04 21  0045    54211    2700      0    1.88e+00    0    1.31e+00
2007 04 21  0050    54211    3000      0    1.87e+00    0    1.31e+00
2007 04 21  0055    54211    3300      0    1.85e+00    0    1.29e+00
2007 04 21  0100    54211    3600      0    1.86e+00    0    1.30e+00
2007 04 21  0105    54211    3900      0    1.88e+00    0    1.31e+00
2007 04 21  0110    54211    4200      0    1.90e+00    0    1.34e+00
2007 04 21  0115    54211    4500      0    1.89e+00    0    1.32e+00
2007 04 21  0120    54211    4800      0    1.88e+00    0    1.32e+00
2007 04 21  0125    54211    5100      0    1.86e+00    0    1.29e+00
2007 04 21  0130    54211    5400      0    1.83e+00    0    1.27e+00
2007 04 21  0135    54211    5700      0    1.88e+00    0    1.31e+00
2007 04 21  0140    54211    6000      0    1.87e+00    0    1.29e+00
2007 04 21  0145    54211    6300      0    1.87e+00    0    1.30e+00
2007 04 21  0150    54211    6600      0    1.89e+00    0    1.32e+00
2007 04 21  0155    54211    6900      0    1.86e+00    0    1.28e+00
2007 04 21  0200    54211    7200      0    1.84e+00    0    1.27e+00
2007 04 21  0205    54211    7500      0    1.83e+00    0    1.28e+00
2007 04 21  0210    54211    7800      0    1.82e+00    0    1.27e+00
2007 04 21  0215    54211    8100      0    1.84e+00    0    1.29e+00
2007 04 21  0220    54211    8400      0    1.85e+00    0    1.29e+00
2007 04 21  0225    54211    8700      0    1.86e+00    0    1.32e+00
2007 04 21  0230    54211    9000      0    1.90e+00    0    1.31e+00
2007 04 21  0235    54211    9300      0    1.85e+00    0    1.29e+00
2007 04 21  0240    54211    9600      0    1.89e+00    0    1.32e+00
2007 04 21  0245    54211    9900      0    1.87e+00    0    1.31e+00
2007 04 21  0250    54211   10200      0    1.87e+00    0    1.31e+00
2007 04 21  0255    54211   10500      0    1.88e+00    0    1.32e+00
2007 04 21  0300    54211   10800      0    1.86e+00    0    1.30e+00
2007 04 21  0305    54211   11100      0    1.85e+00    0    1.30e+00
2007 04 21  0310    54211   11400      0    1.88e+00    0    1.31e+00
2007 04 21  0315    54211   11700      0    1.86e+00    0    1.29e+00
2007 04 21  0320    54211   12000      0    1.85e+00    0    1.30e+00
2007 04 21  0325    54211   12300      0    1.84e+00    0    1.30e+00
2007 04 21  0330    54211   12600      0    1.82e+00    0    1.29e+00
2007 04 21  0335    54211   12900      0    1.91e+00    0    1.34e+00
2007 04 21  0340    54211   13200      0    1.87e+00    0    1.30e+00
2007 04 21  0345    54211   13500      0    1.88e+00    0    1.32e+00
2007 04 21  0350    54211   13800      0    1.89e+00    0    1.32e+00
2007 04 21  0355    54211   14100      0    1.86e+00    0    1.29e+00
2007 04 21  0400    54211   14400      0    1.89e+00    0    1.32e+00
2007 04 21  0405    54211   14700      0    1.89e+00    0    1.32e+00
2007 04 21  0410    54211   15000      0    1.81e+00    0    1.28e+00
2007 04 21  0415    54211   15300      0    1.94e+00    0    1.34e+00
2007 04 21  0420    54211   15600      0    1.86e+00    0    1.29e+00
2007 04 21  0425    54211   15900      0    1.82e+00    0    1.26e+00
2007 04 21  0430    54211   16200      0    1.85e+00    0    1.29e+00
2007 04 21  0435    54211   16500      0    1.89e+00    0    1.31e+00
2007 04 21  0440    54211   16800      0    1.87e+00    0    1.31e+00
2007 04 21  0445    54211   17100      0    1.86e+00    0    1.31e+00
2007 04 21  0450    54211   17400      0    1.88e+00    0    1.33e+00
2007 04 21  0455    54211   17700      0    1.86e+00    0    1.31e+00
2007 04 21  0500    54211   18000      0    1.86e+00    0    1.31e+00
2007 04 21  0505    54211   18300      0    1.88e+00    0    1.31e+00
2007 04 21  0510    54211   18600      0    1.85e+00    0    1.30e+00
2007 04 21  0515    54211   18900      0    1.90e+00    0    1.32e+00
2007 04 21  0520    54211   19200      0    1.86e+00    0    1.29e+00
2007 04 21  0525    54211   19500      0    1.85e+00    0    1.29e+00
2007 04 21  0530    54211   19800      0    1.90e+00    0    1.31e+00
2007 04 21  0535    54211   20100      0    1.92e+00    0    1.36e+00
2007 04 21  0540    54211   20400      0    1.87e+00    0    1.29e+00
2007 04 21  0545    54211   20700      0    1.88e+00    0    1.31e+00
2007 04 21  0550    54211   21000      0    1.90e+00    0    1.32e+00
2007 04 21  0555    54211   21300      0    1.88e+00    0    1.31e+00
2007 04 21  0600    54211   21600      0    1.91e+00    0    1.34e+00
2007 04 21  0605    54211   21900      0    1.82e+00    0    1.28e+00
2007 04 21  0610    54211   22200      0    1.86e+00    0    1.31e+00
2007 04 21  0615    54211   22500      0    1.87e+00    0    1.31e+00
2007 04 21  0620    54211   22800      0    1.90e+00    0    1.33e+00
2007 04 21  0625    54211   23100      0    1.90e+00    0    1.32e+00
2007 04 21  0630    54211   23400      0    1.85e+00    0    1.30e+00
2007 04 21  0635    54211   23700      0    1.88e+00    0    1.31e+00
2007 04 21  0640    54211   24000      0    1.86e+00    0    1.31e+00
2007 04 21  0645    54211   24300      0    1.88e+00    0    1.33e+00
2007 04 21  0650    54211   24600      0    1.87e+00    0    1.30e+00
2007 04 21  0655    54211   24900      0    1.86e+00    0    1.31e+00
2007 04 21  0700    54211   25200      0    1.88e+00    0    1.31e+00
2007 04 21  0705    54211   25500      0    1.87e+00    0    1.32e+00
2007 04 21  0710    54211   25800      0    1.88e+00    0    1.32e+00
2007 04 21  0715    54211   26100      0    1.91e+00    0    1.34e+00
2007 04 21  0720    54211   26400      0    1.90e+00    0    1.34e+00
2007 04 21  0725    54211   26700      0    1.91e+00    0    1.34e+00
2007 04 21  0730    54211   27000      0    1.91e+00    0    1.34e+00
2007 04 21  0735    54211   27300      0    1.85e+00    0    1.29e+00
2007 04 21  0740    54211   27600      0    1.84e+00    0    1.28e+00
2007 04 21  0745    54211   27900      0    1.89e+00    0    1.31e+00
2007 04 21  0750    54211   28200      0    1.87e+00    0    1.33e+00
2007 04 21  0755    54211   28500      0    1.89e+00    0    1.31e+00
2007 04 21  0800    54211   28800      0    1.82e+00    0    1.27e+00
2007 04 21  0805    54211   29100      0    1.87e+00    0    1.30e+00
2007 04 21  0810    54211   29400      0    1.81e+00    0    1.25e+00
2007 04 21  0815    54211   29700      0    1.86e+00    0    1.29e+00
2007 04 21  0820    54211   30000      0    1.93e+00    0    1.35e+00
2007 04 21  0825    54211   30300      0    1.89e+00    0    1.32e+00
2007 04 21  0830    54211   30600      0    1.85e+00    0    1.30e+00
2007 04 21  0835    54211   30900      0    1.86e+00    0    1.29e+00
2007 04 21  0840    54211   31200      0    1.86e+00    0    1.30e+00
2007 04 21  0845    54211   31500      0    1.80e+00    0    1.26e+00
2007 04 21  0850    54211   31800      0    1.88e+00    0    1.31e+00
2007 04 21  0855    54211   32100      0    1.90e+00    0    1.34e+00
2007 04 21  0900    54211   32400      0    1.85e+00    0    1.28e+00
2007 04 21  0905    54211   32700      0    1.90e+00    0    1.33e+00
2007 04 21  0910    54211   33000      0    1.90e+00    0    1.33e+00
2007 04 21  0915    54211   33300      0    1.88e+00    0    1.31e+00
2007 04 21  0920    54211   33600      0    1.87e+00    0    1.31e+00
2007 04 21  0925    54211   33900      0    1.90e+00    0    1.34e+00
2007 04 21  0930    54211   34200      0    1.89e+00    0    1.33e+00
2007 04 21  0935    54211   34500      0    1.90e+00    0    1.33e+00
2007 04 21  0940    54211   34800      0    1.88e+00    0    1.32e+00
2007 04 21  0945    54211   35100      0    1.86e+00    0    1.30e+00
2007 04 21  0950    54211   35400      0    1.87e+00    0    1.30e+00
2007 04 21  0955    54211   35700      0    1.87e+00    0    1.32e+00
2007 04 21  1000    54211   36000      0    1.88e+00    0    1.31e+00
2007 04 21  1005    54211   36300      0    1.86e+00    0    1.30e+00
2007 04 21  1010    54211   36600      0    1.88e+00    0    1.31e+00
2007 04 21  1015    54211   36900      0    1.95e+00    0    1.35e+00
2007 04 21  1020    54211   37200      0    1.89e+00    0    1.31e+00
2007 04 21  1025    54211   37500      0    1.88e+00    0    1.31e+00
2007 04 21  1030    54211   37800      0    1.86e+00    0    1.31e+00
2007 04 21  1035    54211   38100      0    1.87e+00    0    1.31e+00
2007 04 21  1040    54211   38400      0    1.86e+00    0    1.31e+00
2007 04 21  1045    54211   38700      0    1.87e+00    0    1.31e+00
2007 04 21  1050    54211   39000      0    1.84e+00    0    1.28e+00
2007 04 21  1055    54211   39300      0    1.89e+00    0    1.32e+00
2007 04 21  1100    54211   39600      0    1.90e+00    0    1.34e+00
2007 04 21  1105    54211   39900      0    1.89e+00    0    1.32e+00
2007 04 21  1110    54211   40200      0    1.88e+00    0    1.33e+00
2007 04 21  1115    54211   40500      0    1.88e+00    0    1.32e+00
2007 04 21  1120    54211   40800      0    1.88e+00    0    1.31e+00
2007 04 21  1125    54211   41100      0    1.88e+00    0    1.32e+00
2007 04 21  1130    54211   41400      0    1.88e+00    0    1.30e+00
2007 04 21  1135    54211   41700      0    1.87e+00    0    1.31e+00
2007 04 21  1140    54211   42000      0    1.92e+00    0    1.34e+00
2007 04 21  1145    54211   42300      0    1.86e+00    0    1.31e+00
2007 04 21  1150    54211   42600      0    1.89e+00    0    1.33e+00
2007 04 21  1155    54211   42900      0    1.83e+00    0    1.26e+00
2007 04 21  1200    54211   43200      0    1.87e+00    0    1.32e+00
2007 04 21  1205    54211   43500      0    1.87e+00    0    1.31e+00
2007 04 21  1210    54211   43800      0    1.87e+00    0    1.30e+00
2007 04 21  1215    54211   44100      0    1.86e+00    0    1.30e+00
2007 04 21  1220    54211   44400      0    1.89e+00    0    1.33e+00
2007 04 21  1225    54211   44700      0    1.87e+00    0    1.31e+00
2007 04 21  1230    54211   45000      0    1.85e+00    0    1.29e+00
2007 04 21  1235    54211   45300      0    1.89e+00    0    1.33e+00
2007 04 21  1240    54211   45600      0    1.91e+00    0    1.33e+00
2007 04 21  1245    54211   45900      0    1.86e+00    0    1.32e+00
2007 04 21  1250    54211   46200      0    1.92e+00    0    1.35e+00
2007 04 21  1255    54211   46500      0    1.86e+00    0    1.31e+00
2007 04 21  1300    54211   46800      0    1.89e+00    0    1.31e+00
2007 04 21  1305    54211   47100      0    1.86e+00    0    1.29e+00
2007 04 21  1310    54211   47400      0    1.88e+00    0    1.31e+00
2007 04 21  1315    54211   47700      0    1.87e+00    0    1.31e+00
2007 04 21  1320    54211   48000      0    1.86e+00    0    1.29e+00
2007 04 21  1325    54211   48300      0    1.88e+00    0    1.31e+00
2007 04 21  1330    54211   48600      0    1.87e+00    0    1.31e+00
2007 04 21  1335    54211   48900      0    1.84e+00    0    1.29e+00
2007 04 21  1340    54211   49200      0    1.84e+00    0    1.29e+00
2007 04 21  1345    54211   49500      0    1.86e+00    0    1.30e+00
2007 04 21  1350    54211   49800      0    1.90e+00    0    1.33e+00
2007 04 21  1355    54211   50100      0    1.88e+00    0    1.31e+00
2007 04 21  1400    54211   50400      0    1.90e+00    0    1.33e+00
2007 04 21  1405    54211   50700      0    1.91e+00    0    1.33e+00
2007 04 21  1410    54211   51000      0    1.91e+00    0    1.33e+00
2007 04 21  1415    54211   51300      0    1.87e+00    0    1.31e+00
2007 04 21  1420    54211   51600      0    1.88e+00    0    1.32e+00
2007 04 21  1425    54211   51900      0    1.87e+00    0    1.30e+00
2007 04 21  1430    54211   52200      0    1.87e+00    0    1.30e+00
2007 04 21  1435    54211   52500      0    1.91e+00    0    1.35e+00
2007 04 21  1440    54211   52800      0    1.90e+00    0    1.34e+00
2007 04 21  1445    54211   53100      0    1.88e+00    0    1.31e+00
2007 04 21  1450    54211   53400      0    1.90e+00    0    1.32e+00
2007 04 21  1455    54211   53700      0    1.91e+00    0    1.34e+00
2007 04 21  1500    54211   54000      0    1.91e+00    0    1.34e+00
2007 04 21  1505    54211   54300      0    1.87e+00    0    1.30e+00
2007 04 21  1510    54211   54600      0    1.90e+00    0    1.32e+00
2007 04 21  1515    54211   54900      0    1.86e+00    0    1.29e+00
2007 04 21  1520    54211   55200      0    1.89e+00    0    1.33e+00
2007 04 21  1525    54211   55500      0    1.86e+00    0    1.29e+00
2007 04 21  1530    54211   55800      0    1.86e+00    0    1.30e+00
2007 04 21  1535    54211   56100      0    1.88e+00    0    1.30e+00
2007 04 21  1540    54211   56400      0    1.85e+00    0    1.30e+00
2007 04 21  1545    54211   56700      0    1.90e+00    0    1.33e+00
2007 04 21  1550    54211   57000      0    1.86e+00    0    1.31e+00
2007 04 21  1555    54211   57300      0    1.88e+00    0    1.32e+00
2007 04 21  1600    54211   57600      0    1.88e+00    0    1.30e+00
2007 04 21  1605    54211   57900      0    1.88e+00    0    1.33e+00
2007 04 21  1610    54211   58200      0    1.88e+00    0    1.32e+00
2007 04 21  1615    54211   58500      0    1.87e+00    0    1.31e+00
2007 04 21  1620    54211   58800      0    1.88e+00    0    1.31e+00
2007 04 21  1625    54211   59100      0    1.88e+00    0    1.31e+00
2007 04 21  1630    54211   59400      0    1.87e+00    0    1.29e+00
2007 04 21  1635    54211   59700      0    1.83e+00    0    1.28e+00
2007 04 21  1640    54211   60000      0    1.86e+00    0    1.30e+00
2007 04 21  1645    54211   60300      0    1.88e+00    0    1.31e+00
2007 04 21  1650    54211   60600      0    1.88e+00    0    1.31e+00
2007 04 21  1655    54211   60900      0    1.88e+00    0    1.31e+00
2007 04 21  1700    54211   61200      0    1.89e+00    0    1.31e+00
2007 04 21  1705    54211   61500      0    1.89e+00    0    1.32e+00
2007 04 21  1710    54211   61800      0    1.86e+00    0    1.30e+00
2007 04 21  1715    54211   62100      0    1.88e+00    0    1.31e+00
2007 04 21  1720    54211   62400      0    1.91e+00    0    1.34e+00
2007 04 21  1725    54211   62700      0    1.89e+00    0    1.32e+00
2007 04 21  1730    54211   63000      0    1.89e+00    0    1.32e+00
2007 04 21  1735    54211   63300      0    1.92e+00    0    1.34e+00
2007 04 21  1740    54211   63600      0    1.92e+00    0    1.34e+00
2007 04 21  1745    54211   63900      0    1.89e+00    0    1.33e+00
2007 04 21  1750    54211   64200      0    1.83e+00    0    1.26e+00
2007 04 21  1755    54211   64500      0    1.89e+00    0    1.32e+00
2007 04 21  1800    54211   64800      0    1.85e+00    0    1.29e+00
2007 04 21  1805    54211   65100      0    1.85e+00    0    1.31e+00
2007 04 21  1810    54211   65400      0    1.89e+00    0    1.33e+00
2007 04 21  1815    54211   65700      0    1.88e+00    0    1.32e+00
2007 04 21  1820    54211   66000      0    1.89e+00    0    1.32e+00
2007 04 21  1825    54211   66300      0    1.88e+00    0    1.31e+00
2007 04 21  1830    54211   66600      0    1.87e+00    0    1.31e+00
2007 04 21  1835    54211   66900      0    1.84e+00    0    1.29e+00
2007 04 21  1840    54211   67200      0    1.91e+00    0    1.35e+00
2007 04 21  1845    54211   67500      0    1.88e+00    0    1.32e+00
2007 04 21  1850    54211   67800      0    1.88e+00    0    1.32e+00
2007 04 21  1855    54211   68100      0    1.88e+00    0    1.31e+00
2007 04 21  1900    54211   68400      0    1.87e+00    0    1.31e+00
2007 04 21  1905    54211   68700      0    1.88e+00    0    1.31e+00
2007 04 21  1910    54211   69000      0    1.83e+00    0    1.27e+00
2007 04 21  1915    54211   69300      0    1.91e+00    0    1.35e+00
2007 04 21  1920    54211   69600      0    1.87e+00    0    1.31e+00
2007 04 21  1925    54211   69900      0    1.85e+00    0    1.30e+00
2007 04 21  1930    54211   70200      0    1.90e+00    0    1.35e+00
2007 04 21  1935    54211   70500      0    1.88e+00    0    1.32e+00
2007 04 21  1940    54211   70800      0    1.88e+00    0    1.32e+00
2007 04 21  1945    54211   71100      0    1.88e+00    0    1.31e+00
2007 04 21  1950    54211   71400      0    1.87e+00    0    1.32e+00
2007 04 21  1955    54211   71700      0    1.87e+00    0    1.30e+00
2007 04 21  2000    54211   72000      0    1.88e+00    0    1.32e+00
2007 04 21  2005    54211   72300      0    1.88e+00    0    1.32e+00
2007 04 21  2010    54211   72600      0    1.86e+00    0    1.31e+00
2007 04 21  2015    54211   72900      0    1.86e+00    0    1.30e+00
2007 04 21  2020    54211   73200      0    1.87e+00    0    1.31e+00
2007 04 21  2025    54211   73500      0    1.86e+00    0    1.30e+00
2007 04 21  2030    54211   73800      0    1.87e+00    0    1.30e+00
2007 04 21  2035    54211   74100      0    1.90e+00    0    1.33e+00
2007 04 21  2040    54211   74400      0    1.87e+00    0    1.31e+00
2007 04 21  2045    54211   74700      0    1.86e+00    0    1.30e+00
2007 04 21  2050    54211   75000      0    1.88e+00    0    1.32e+00
2007 04 21  2055    54211   75300      0    1.86e+00    0    1.30e+00
2007 04 21  2100    54211   75600      0    1.88e+00    0    1.31e+00
2007 04 21  2105    54211   75900      0    1.83e+00    0    1.27e+00
2007 04 21  2110    54211   76200      0    1.87e+00    0    1.30e+00
2007 04 21  2115    54211   76500      0    1.88e+00    0    1.31e+00
2007 04 21  2120    54211   76800      0    1.89e+00    0    1.33e+00
2007 04 21  2125    54211   77100      0    1.88e+00    0    1.32e+00
2007 04 21  2130    54211   77400      0    1.86e+00    0    1.29e+00
2007 04 21  2135    54211   77700      0    1.93e+00    0    1.34e+00
2007 04 21  2140    54211   78000      0    1.89e+00    0    1.32e+00
2007 04 21  2145    54211   78300      0    1.88e+00    0    1.32e+00
2007 04 21  2150    54211   78600      0    1.85e+00    0    1.28e+00
2007 04 21  2155    54211   78900      0    1.86e+00    0    1.30e+00
2007 04 21  2200    54211   79200      0    1.87e+00    0    1.32e+00
2007 04 21  2205    54211   79500      0    1.88e+00    0    1.31e+00
2007 04 21  2210    54211   79800      0    1.91e+00    0    1.32e+00
2007 04 21  2215    54211   80100      0    1.89e+00    0    1.32e+00
2007 04 21  2220    54211   80400      0    1.85e+00    0    1.30e+00
2007 04 21  2225    54211   80700      0    1.87e+00    0    1.31e+00
2007 04 21  2230    54211   81000      0    1.89e+00    0    1.31e+00
2007 04 21  2235    54211   81300      0    1.89e+00    0    1.33e+00
2007 04 21  2240    54211   81600      0    1.84e+00    0    1.30e+00
2007 04 21  2245    54211   81900      0    1.89e+00    0    1.32e+00
2007 04 21  2250    54211   82200      0    1.89e+00    0    1.31e+00
2007 04 21  2255    54211   82500      0    1.87e+00    0    1.32e+00
2007 04 21  2300    54211   82800      0    1.90e+00    0    1.32e+00
2007 04 21  2305    54211   83100      0    1.87e+00    0    1.33e+00
2007 04 21  2310    54211   83400      0    1.86e+00    0    1.29e+00
2007 04 21  2315    54211   83700      0    1.87e+00    0    1.32e+00
2007 04 21  2320    54211   84000      0    1.92e+00    0    1.34e+00
2007 04 21  2325    54211   84300      0    1.87e+00    0    1.31e+00
2007 04 21  2330    54211   84600      0    1.86e+00    0    1.30e+00
2007 04 21  2335    54211   84900      0    1.88e+00    0    1.30e+00
2007 04 21  2340    54211   85200      0    1.90e+00    0    1.33e+00
2007 04 21  2345    54211   85500      0    1.88e+00    0    1.32e+00
2007 04 21  2350    54211   85800      0    1.89e+00    0    1.33e+00
2007 04 21  2355    54211   86100      0    1.91e+00    0    1.34e+00
