:Data_list: 20070912_ace_sis_5m.txt
:Created: 2007 Sep 13 0011 UT
# Prepared by the U.S. Dept. of Commerce, NOAA, Space Environment Center.
# Please send comments and suggestions to SEC.Webmaster@noaa.gov 
# 
# Units: proton flux p/cs2-sec-ster
# Status(S): 0 = nominal data, 1 to 8 = bad data record, 9 = no data
# Missing data values: -1.00e+05
# Source: ACE Satellite - Solar Isotope Spectrometer
#
# 5-minute averaged Real-time Integral Flux of High-energy Solar Protons
# 
#                 Modified Seconds
# UT Date   Time   Julian  of the      ---- Integral Proton Flux ----
# YR MO DA  HHMM     Day     Day       S    > 10 MeV    S    > 30 MeV
#--------------------------------------------------------------------
2007 09 12  0000    54355       0      0    2.01e+00    0    1.40e+00
2007 09 12  0005    54355     300      9   -1.00e+05    9   -1.00e+05
2007 09 12  0010    54355     600      9   -1.00e+05    9   -1.00e+05
2007 09 12  0015    54355     900      9   -1.00e+05    9   -1.00e+05
2007 09 12  0020    54355    1200      0    3.02e+00    0    1.74e+00
2007 09 12  0025    54355    1500      0    2.01e+00    0    1.41e+00
2007 09 12  0030    54355    1800      0    1.95e+00    0    1.36e+00
2007 09 12  0035    54355    2100      0    1.96e+00    0    1.37e+00
2007 09 12  0040    54355    2400      0    1.93e+00    0    1.35e+00
2007 09 12  0045    54355    2700      0    1.98e+00    0    1.39e+00
2007 09 12  0050    54355    3000      0    1.94e+00    0    1.36e+00
2007 09 12  0055    54355    3300      0    1.98e+00    0    1.38e+00
2007 09 12  0100    54355    3600      0    1.96e+00    0    1.37e+00
2007 09 12  0105    54355    3900      0    1.97e+00    0    1.38e+00
2007 09 12  0110    54355    4200      0    1.90e+00    0    1.34e+00
2007 09 12  0115    54355    4500      0    1.98e+00    0    1.39e+00
2007 09 12  0120    54355    4800      0    1.95e+00    0    1.37e+00
2007 09 12  0125    54355    5100      0    1.98e+00    0    1.38e+00
2007 09 12  0130    54355    5400      0    1.88e+00    0    1.29e+00
2007 09 12  0135    54355    5700      9   -1.00e+05    9   -1.00e+05
2007 09 12  0140    54355    6000      9   -1.00e+05    9   -1.00e+05
2007 09 12  0145    54355    6300      9   -1.00e+05    9   -1.00e+05
2007 09 12  0150    54355    6600      9   -1.00e+05    9   -1.00e+05
2007 09 12  0155    54355    6900      9   -1.00e+05    9   -1.00e+05
2007 09 12  0200    54355    7200      9   -1.00e+05    9   -1.00e+05
2007 09 12  0205    54355    7500      9   -1.00e+05    9   -1.00e+05
2007 09 12  0210    54355    7800      9   -1.00e+05    9   -1.00e+05
2007 09 12  0215    54355    8100      9   -1.00e+05    9   -1.00e+05
2007 09 12  0220    54355    8400      9   -1.00e+05    9   -1.00e+05
2007 09 12  0225    54355    8700      9   -1.00e+05    9   -1.00e+05
2007 09 12  0230    54355    9000      9   -1.00e+05    9   -1.00e+05
2007 09 12  0235    54355    9300      9   -1.00e+05    9   -1.00e+05
2007 09 12  0240    54355    9600      9   -1.00e+05    9   -1.00e+05
2007 09 12  0245    54355    9900      9   -1.00e+05    9   -1.00e+05
2007 09 12  0250    54355   10200      9   -1.00e+05    9   -1.00e+05
2007 09 12  0255    54355   10500      9   -1.00e+05    9   -1.00e+05
2007 09 12  0300    54355   10800      9   -1.00e+05    9   -1.00e+05
2007 09 12  0305    54355   11100      9   -1.00e+05    9   -1.00e+05
2007 09 12  0310    54355   11400      9   -1.00e+05    9   -1.00e+05
2007 09 12  0315    54355   11700      9   -1.00e+05    9   -1.00e+05
2007 09 12  0320    54355   12000      9   -1.00e+05    9   -1.00e+05
2007 09 12  0325    54355   12300      0    2.00e+00    0    1.39e+00
2007 09 12  0330    54355   12600      0    1.96e+00    0    1.38e+00
2007 09 12  0335    54355   12900      0    1.94e+00    0    1.35e+00
2007 09 12  0340    54355   13200      0    1.96e+00    0    1.38e+00
2007 09 12  0345    54355   13500      0    1.97e+00    0    1.38e+00
2007 09 12  0350    54355   13800      0    1.97e+00    0    1.38e+00
2007 09 12  0355    54355   14100      0    1.99e+00    0    1.40e+00
2007 09 12  0400    54355   14400      0    1.97e+00    0    1.38e+00
2007 09 12  0405    54355   14700      0    1.99e+00    0    1.38e+00
2007 09 12  0410    54355   15000      0    1.97e+00    0    1.38e+00
2007 09 12  0415    54355   15300      0    1.99e+00    0    1.41e+00
2007 09 12  0420    54355   15600      0    1.94e+00    0    1.35e+00
2007 09 12  0425    54355   15900      0    1.95e+00    0    1.36e+00
2007 09 12  0430    54355   16200      0    1.95e+00    0    1.35e+00
2007 09 12  0435    54355   16500      0    2.02e+00    0    1.43e+00
2007 09 12  0440    54355   16800      0    1.95e+00    0    1.36e+00
2007 09 12  0445    54355   17100      0    1.98e+00    0    1.39e+00
2007 09 12  0450    54355   17400      0    1.99e+00    0    1.39e+00
2007 09 12  0455    54355   17700      0    1.99e+00    0    1.39e+00
2007 09 12  0500    54355   18000      0    1.94e+00    0    1.36e+00
2007 09 12  0505    54355   18300      0    1.96e+00    0    1.38e+00
2007 09 12  0510    54355   18600      0    1.98e+00    0    1.38e+00
2007 09 12  0515    54355   18900      0    1.99e+00    0    1.40e+00
2007 09 12  0520    54355   19200      9   -1.00e+05    9   -1.00e+05
2007 09 12  0525    54355   19500      9   -1.00e+05    9   -1.00e+05
2007 09 12  0530    54355   19800      9   -1.00e+05    9   -1.00e+05
2007 09 12  0535    54355   20100      9   -1.00e+05    9   -1.00e+05
2007 09 12  0540    54355   20400      9   -1.00e+05    9   -1.00e+05
2007 09 12  0545    54355   20700      9   -1.00e+05    9   -1.00e+05
2007 09 12  0550    54355   21000      9   -1.00e+05    9   -1.00e+05
2007 09 12  0555    54355   21300      9   -1.00e+05    9   -1.00e+05
2007 09 12  0600    54355   21600      9   -1.00e+05    9   -1.00e+05
2007 09 12  0605    54355   21900      9   -1.00e+05    9   -1.00e+05
2007 09 12  0610    54355   22200      9   -1.00e+05    9   -1.00e+05
2007 09 12  0615    54355   22500      9   -1.00e+05    9   -1.00e+05
2007 09 12  0620    54355   22800      9   -1.00e+05    9   -1.00e+05
2007 09 12  0625    54355   23100      9   -1.00e+05    9   -1.00e+05
2007 09 12  0630    54355   23400      9   -1.00e+05    9   -1.00e+05
2007 09 12  0635    54355   23700      9   -1.00e+05    9   -1.00e+05
2007 09 12  0640    54355   24000      9   -1.00e+05    9   -1.00e+05
2007 09 12  0645    54355   24300      9   -1.00e+05    9   -1.00e+05
2007 09 12  0650    54355   24600      0    2.03e+00    0    1.42e+00
2007 09 12  0655    54355   24900      0    1.97e+00    0    1.40e+00
2007 09 12  0700    54355   25200      0    1.94e+00    0    1.36e+00
2007 09 12  0705    54355   25500      0    1.93e+00    0    1.35e+00
2007 09 12  0710    54355   25800      0    1.95e+00    0    1.35e+00
2007 09 12  0715    54355   26100      0    1.92e+00    0    1.35e+00
2007 09 12  0720    54355   26400      0    1.95e+00    0    1.35e+00
2007 09 12  0725    54355   26700      0    1.98e+00    0    1.37e+00
2007 09 12  0730    54355   27000      0    1.94e+00    0    1.34e+00
2007 09 12  0735    54355   27300      0    1.92e+00    0    1.33e+00
2007 09 12  0740    54355   27600      0    1.98e+00    0    1.38e+00
2007 09 12  0745    54355   27900      0    1.96e+00    0    1.38e+00
2007 09 12  0750    54355   28200      0    1.89e+00    0    1.31e+00
2007 09 12  0755    54355   28500      0    1.98e+00    0    1.37e+00
2007 09 12  0800    54355   28800      0    1.95e+00    0    1.36e+00
2007 09 12  0805    54355   29100      0    1.97e+00    0    1.38e+00
2007 09 12  0810    54355   29400      0    1.98e+00    0    1.37e+00
2007 09 12  0815    54355   29700      0    1.98e+00    0    1.37e+00
2007 09 12  0820    54355   30000      0    1.99e+00    0    1.38e+00
2007 09 12  0825    54355   30300      0    1.97e+00    0    1.36e+00
2007 09 12  0830    54355   30600      0    1.93e+00    0    1.33e+00
2007 09 12  0835    54355   30900      0    1.97e+00    0    1.39e+00
2007 09 12  0840    54355   31200      0    1.96e+00    0    1.37e+00
2007 09 12  0845    54355   31500      0    1.97e+00    0    1.37e+00
2007 09 12  0850    54355   31800      0    2.00e+00    0    1.40e+00
2007 09 12  0855    54355   32100      0    1.97e+00    0    1.38e+00
2007 09 12  0900    54355   32400      0    1.97e+00    0    1.37e+00
2007 09 12  0905    54355   32700      0    2.00e+00    0    1.43e+00
2007 09 12  0910    54355   33000      0    1.95e+00    0    1.37e+00
2007 09 12  0915    54355   33300      0    1.95e+00    0    1.36e+00
2007 09 12  0920    54355   33600      0    1.99e+00    0    1.40e+00
2007 09 12  0925    54355   33900      0    1.98e+00    0    1.38e+00
2007 09 12  0930    54355   34200      0    2.01e+00    0    1.41e+00
2007 09 12  0935    54355   34500      0    1.99e+00    0    1.39e+00
2007 09 12  0940    54355   34800      0    1.96e+00    0    1.38e+00
2007 09 12  0945    54355   35100      0    2.01e+00    0    1.41e+00
2007 09 12  0950    54355   35400      0    1.98e+00    0    1.38e+00
2007 09 12  0955    54355   35700      0    1.95e+00    0    1.35e+00
2007 09 12  1000    54355   36000      0    1.97e+00    0    1.39e+00
2007 09 12  1005    54355   36300      0    1.96e+00    0    1.37e+00
2007 09 12  1010    54355   36600      0    2.00e+00    0    1.40e+00
2007 09 12  1015    54355   36900      0    1.98e+00    0    1.37e+00
2007 09 12  1020    54355   37200      0    2.00e+00    0    1.40e+00
2007 09 12  1025    54355   37500      0    2.02e+00    0    1.40e+00
2007 09 12  1030    54355   37800      0    1.93e+00    0    1.36e+00
2007 09 12  1035    54355   38100      0    1.97e+00    0    1.37e+00
2007 09 12  1040    54355   38400      0    1.95e+00    0    1.34e+00
2007 09 12  1045    54355   38700      0    1.98e+00    0    1.38e+00
2007 09 12  1050    54355   39000      0    1.97e+00    0    1.37e+00
2007 09 12  1055    54355   39300      0    1.97e+00    0    1.37e+00
2007 09 12  1100    54355   39600      0    1.99e+00    0    1.39e+00
2007 09 12  1105    54355   39900      0    2.00e+00    0    1.41e+00
2007 09 12  1110    54355   40200      0    1.99e+00    0    1.38e+00
2007 09 12  1115    54355   40500      0    2.05e+00    0    1.42e+00
2007 09 12  1120    54355   40800      0    1.96e+00    0    1.37e+00
2007 09 12  1125    54355   41100      0    2.03e+00    0    1.42e+00
2007 09 12  1130    54355   41400      0    1.93e+00    0    1.35e+00
2007 09 12  1135    54355   41700      0    1.97e+00    0    1.38e+00
2007 09 12  1140    54355   42000      0    1.99e+00    0    1.39e+00
2007 09 12  1145    54355   42300      0    1.98e+00    0    1.38e+00
2007 09 12  1150    54355   42600      0    1.97e+00    0    1.37e+00
2007 09 12  1155    54355   42900      0    1.97e+00    0    1.38e+00
2007 09 12  1200    54355   43200      0    1.97e+00    0    1.38e+00
2007 09 12  1205    54355   43500      0    1.99e+00    0    1.39e+00
2007 09 12  1210    54355   43800      0    1.96e+00    0    1.36e+00
2007 09 12  1215    54355   44100      0    1.91e+00    0    1.34e+00
2007 09 12  1220    54355   44400      0    1.95e+00    0    1.36e+00
2007 09 12  1225    54355   44700      0    1.98e+00    0    1.40e+00
2007 09 12  1230    54355   45000      0    2.00e+00    0    1.40e+00
2007 09 12  1235    54355   45300      0    2.01e+00    0    1.40e+00
2007 09 12  1240    54355   45600      0    1.88e+00    0    1.32e+00
2007 09 12  1245    54355   45900      0    1.97e+00    0    1.37e+00
2007 09 12  1250    54355   46200      0    1.95e+00    0    1.36e+00
2007 09 12  1255    54355   46500      0    1.98e+00    0    1.38e+00
2007 09 12  1300    54355   46800      0    1.97e+00    0    1.38e+00
2007 09 12  1305    54355   47100      0    1.97e+00    0    1.39e+00
2007 09 12  1310    54355   47400      0    1.96e+00    0    1.38e+00
2007 09 12  1315    54355   47700      0    1.97e+00    0    1.38e+00
2007 09 12  1320    54355   48000      0    2.02e+00    0    1.40e+00
2007 09 12  1325    54355   48300      0    1.99e+00    0    1.41e+00
2007 09 12  1330    54355   48600      0    1.95e+00    0    1.36e+00
2007 09 12  1335    54355   48900      0    1.92e+00    0    1.35e+00
2007 09 12  1340    54355   49200      0    1.94e+00    0    1.35e+00
2007 09 12  1345    54355   49500      0    1.97e+00    0    1.38e+00
2007 09 12  1350    54355   49800      0    2.00e+00    0    1.40e+00
2007 09 12  1355    54355   50100      0    1.99e+00    0    1.39e+00
2007 09 12  1400    54355   50400      0    1.98e+00    0    1.40e+00
2007 09 12  1405    54355   50700      0    1.98e+00    0    1.39e+00
2007 09 12  1410    54355   51000      0    1.96e+00    0    1.36e+00
2007 09 12  1415    54355   51300      0    2.03e+00    0    1.43e+00
2007 09 12  1420    54355   51600      0    1.91e+00    0    1.32e+00
2007 09 12  1425    54355   51900      0    1.95e+00    0    1.36e+00
2007 09 12  1430    54355   52200      0    1.97e+00    0    1.38e+00
2007 09 12  1435    54355   52500      0    1.96e+00    0    1.37e+00
2007 09 12  1440    54355   52800      0    1.98e+00    0    1.38e+00
2007 09 12  1445    54355   53100      0    2.01e+00    0    1.41e+00
2007 09 12  1450    54355   53400      0    1.98e+00    0    1.38e+00
2007 09 12  1455    54355   53700      0    1.96e+00    0    1.35e+00
2007 09 12  1500    54355   54000      0    2.00e+00    0    1.40e+00
2007 09 12  1505    54355   54300      0    1.96e+00    0    1.38e+00
2007 09 12  1510    54355   54600      0    1.99e+00    0    1.38e+00
2007 09 12  1515    54355   54900      0    2.00e+00    0    1.40e+00
2007 09 12  1520    54355   55200      0    1.98e+00    0    1.40e+00
2007 09 12  1525    54355   55500      0    1.99e+00    0    1.41e+00
2007 09 12  1530    54355   55800      0    1.97e+00    0    1.38e+00
2007 09 12  1535    54355   56100      0    1.98e+00    0    1.38e+00
2007 09 12  1540    54355   56400      0    1.97e+00    0    1.38e+00
2007 09 12  1545    54355   56700      0    1.97e+00    0    1.40e+00
2007 09 12  1550    54355   57000      0    1.95e+00    0    1.36e+00
2007 09 12  1555    54355   57300      0    1.93e+00    0    1.35e+00
2007 09 12  1600    54355   57600      0    2.01e+00    0    1.40e+00
2007 09 12  1605    54355   57900      0    2.00e+00    0    1.40e+00
2007 09 12  1610    54355   58200      0    2.01e+00    0    1.40e+00
2007 09 12  1615    54355   58500      0    1.99e+00    0    1.38e+00
2007 09 12  1620    54355   58800      0    2.00e+00    0    1.41e+00
2007 09 12  1625    54355   59100      0    1.97e+00    0    1.38e+00
2007 09 12  1630    54355   59400      0    1.98e+00    0    1.39e+00
2007 09 12  1635    54355   59700      0    1.97e+00    0    1.37e+00
2007 09 12  1640    54355   60000      0    1.98e+00    0    1.38e+00
2007 09 12  1645    54355   60300      0    1.97e+00    0    1.39e+00
2007 09 12  1650    54355   60600      0    1.98e+00    0    1.39e+00
2007 09 12  1655    54355   60900      0    2.00e+00    0    1.41e+00
2007 09 12  1700    54355   61200      0    1.95e+00    0    1.35e+00
2007 09 12  1705    54355   61500      0    1.98e+00    0    1.38e+00
2007 09 12  1710    54355   61800      0    1.96e+00    0    1.36e+00
2007 09 12  1715    54355   62100      0    2.00e+00    0    1.40e+00
2007 09 12  1720    54355   62400      9   -1.00e+05    9   -1.00e+05
2007 09 12  1725    54355   62700      9   -1.00e+05    9   -1.00e+05
2007 09 12  1730    54355   63000      0    1.93e+00    0    1.34e+00
2007 09 12  1735    54355   63300      0    1.92e+00    0    1.36e+00
2007 09 12  1740    54355   63600      0    2.00e+00    0    1.39e+00
2007 09 12  1745    54355   63900      0    1.99e+00    0    1.38e+00
2007 09 12  1750    54355   64200      0    1.95e+00    0    1.36e+00
2007 09 12  1755    54355   64500      0    1.97e+00    0    1.36e+00
2007 09 12  1800    54355   64800      0    1.93e+00    0    1.36e+00
2007 09 12  1805    54355   65100      0    2.00e+00    0    1.39e+00
2007 09 12  1810    54355   65400      0    1.99e+00    0    1.41e+00
2007 09 12  1815    54355   65700      0    1.92e+00    0    1.33e+00
2007 09 12  1820    54355   66000      0    1.98e+00    0    1.39e+00
2007 09 12  1825    54355   66300      0    2.02e+00    0    1.40e+00
2007 09 12  1830    54355   66600      0    1.98e+00    0    1.40e+00
2007 09 12  1835    54355   66900      0    1.96e+00    0    1.36e+00
2007 09 12  1840    54355   67200      0    2.00e+00    0    1.40e+00
2007 09 12  1845    54355   67500      0    1.97e+00    0    1.37e+00
2007 09 12  1850    54355   67800      0    1.93e+00    0    1.35e+00
2007 09 12  1855    54355   68100      0    1.98e+00    0    1.39e+00
2007 09 12  1900    54355   68400      0    2.01e+00    0    1.41e+00
2007 09 12  1905    54355   68700      0    1.95e+00    0    1.34e+00
2007 09 12  1910    54355   69000      0    1.97e+00    0    1.38e+00
2007 09 12  1915    54355   69300      0    1.94e+00    0    1.36e+00
2007 09 12  1920    54355   69600      0    1.98e+00    0    1.38e+00
2007 09 12  1925    54355   69900      9   -1.00e+05    9   -1.00e+05
2007 09 12  1930    54355   70200      9   -1.00e+05    9   -1.00e+05
2007 09 12  1935    54355   70500      0    1.98e+00    0    1.38e+00
2007 09 12  1940    54355   70800      0    1.99e+00    0    1.38e+00
2007 09 12  1945    54355   71100      0    1.98e+00    0    1.38e+00
2007 09 12  1950    54355   71400      0    2.01e+00    0    1.40e+00
2007 09 12  1955    54355   71700      0    2.00e+00    0    1.40e+00
2007 09 12  2000    54355   72000      0    1.99e+00    0    1.39e+00
2007 09 12  2005    54355   72300      0    1.99e+00    0    1.41e+00
2007 09 12  2010    54355   72600      0    1.93e+00    0    1.36e+00
2007 09 12  2015    54355   72900      0    1.97e+00    0    1.39e+00
2007 09 12  2020    54355   73200      0    1.98e+00    0    1.39e+00
2007 09 12  2025    54355   73500      0    1.96e+00    0    1.36e+00
2007 09 12  2030    54355   73800      0    1.97e+00    0    1.37e+00
2007 09 12  2035    54355   74100      0    1.95e+00    0    1.35e+00
2007 09 12  2040    54355   74400      0    1.96e+00    0    1.39e+00
2007 09 12  2045    54355   74700      0    1.98e+00    0    1.39e+00
2007 09 12  2050    54355   75000      0    1.99e+00    0    1.38e+00
2007 09 12  2055    54355   75300      0    1.96e+00    0    1.37e+00
2007 09 12  2100    54355   75600      0    1.95e+00    0    1.37e+00
2007 09 12  2105    54355   75900      0    1.98e+00    0    1.39e+00
2007 09 12  2110    54355   76200      0    1.97e+00    0    1.38e+00
2007 09 12  2115    54355   76500      0    1.97e+00    0    1.38e+00
2007 09 12  2120    54355   76800      0    1.97e+00    0    1.39e+00
2007 09 12  2125    54355   77100      0    1.97e+00    0    1.39e+00
2007 09 12  2130    54355   77400      0    1.96e+00    0    1.37e+00
2007 09 12  2135    54355   77700      0    1.98e+00    0    1.38e+00
2007 09 12  2140    54355   78000      0    1.99e+00    0    1.40e+00
2007 09 12  2145    54355   78300      0    1.95e+00    0    1.36e+00
2007 09 12  2150    54355   78600      0    1.99e+00    0    1.39e+00
2007 09 12  2155    54355   78900      0    1.98e+00    0    1.38e+00
2007 09 12  2200    54355   79200      0    1.99e+00    0    1.39e+00
2007 09 12  2205    54355   79500      0    1.99e+00    0    1.40e+00
2007 09 12  2210    54355   79800      0    1.98e+00    0    1.38e+00
2007 09 12  2215    54355   80100      0    1.98e+00    0    1.38e+00
2007 09 12  2220    54355   80400      0    1.98e+00    0    1.40e+00
2007 09 12  2225    54355   80700      0    1.99e+00    0    1.41e+00
2007 09 12  2230    54355   81000      0    2.03e+00    0    1.42e+00
2007 09 12  2235    54355   81300      0    1.97e+00    0    1.38e+00
2007 09 12  2240    54355   81600      0    1.97e+00    0    1.37e+00
2007 09 12  2245    54355   81900      0    1.95e+00    0    1.37e+00
2007 09 12  2250    54355   82200      0    1.93e+00    0    1.34e+00
2007 09 12  2255    54355   82500      0    1.99e+00    0    1.38e+00
2007 09 12  2300    54355   82800      0    1.97e+00    0    1.39e+00
2007 09 12  2305    54355   83100      0    1.99e+00    0    1.39e+00
2007 09 12  2310    54355   83400      0    2.00e+00    0    1.40e+00
2007 09 12  2315    54355   83700      0    1.95e+00    0    1.35e+00
2007 09 12  2320    54355   84000      0    2.01e+00    0    1.40e+00
2007 09 12  2325    54355   84300      0    1.96e+00    0    1.37e+00
2007 09 12  2330    54355   84600      0    1.96e+00    0    1.36e+00
2007 09 12  2335    54355   84900      0    1.97e+00    0    1.38e+00
2007 09 12  2340    54355   85200      0    1.99e+00    0    1.39e+00
2007 09 12  2345    54355   85500      0    2.01e+00    0    1.41e+00
2007 09 12  2350    54355   85800      0    1.97e+00    0    1.39e+00
2007 09 12  2355    54355   86100      0    1.98e+00    0    1.38e+00
