:Data_list: 20070913_ace_sis_5m.txt
:Created: 2007 Sep 14 0011 UT
# Prepared by the U.S. Dept. of Commerce, NOAA, Space Environment Center.
# Please send comments and suggestions to SEC.Webmaster@noaa.gov 
# 
# Units: proton flux p/cs2-sec-ster
# Status(S): 0 = nominal data, 1 to 8 = bad data record, 9 = no data
# Missing data values: -1.00e+05
# Source: ACE Satellite - Solar Isotope Spectrometer
#
# 5-minute averaged Real-time Integral Flux of High-energy Solar Protons
# 
#                 Modified Seconds
# UT Date   Time   Julian  of the      ---- Integral Proton Flux ----
# YR MO DA  HHMM     Day     Day       S    > 10 MeV    S    > 30 MeV
#--------------------------------------------------------------------
2007 09 13  0000    54356       0      0    1.99e+00    0    1.39e+00
2007 09 13  0005    54356     300      0    1.94e+00    0    1.34e+00
2007 09 13  0010    54356     600      0    1.99e+00    0    1.40e+00
2007 09 13  0015    54356     900      0    1.94e+00    0    1.35e+00
2007 09 13  0020    54356    1200      0    2.00e+00    0    1.40e+00
2007 09 13  0025    54356    1500      0    1.98e+00    0    1.37e+00
2007 09 13  0030    54356    1800      0    1.94e+00    0    1.36e+00
2007 09 13  0035    54356    2100      9   -1.00e+05    9   -1.00e+05
2007 09 13  0040    54356    2400      9   -1.00e+05    9   -1.00e+05
2007 09 13  0045    54356    2700      9   -1.00e+05    9   -1.00e+05
2007 09 13  0050    54356    3000      9   -1.00e+05    9   -1.00e+05
2007 09 13  0055    54356    3300      9   -1.00e+05    9   -1.00e+05
2007 09 13  0100    54356    3600      9   -1.00e+05    9   -1.00e+05
2007 09 13  0105    54356    3900      9   -1.00e+05    9   -1.00e+05
2007 09 13  0110    54356    4200      9   -1.00e+05    9   -1.00e+05
2007 09 13  0115    54356    4500      9   -1.00e+05    9   -1.00e+05
2007 09 13  0120    54356    4800      9   -1.00e+05    9   -1.00e+05
2007 09 13  0125    54356    5100      9   -1.00e+05    9   -1.00e+05
2007 09 13  0130    54356    5400      9   -1.00e+05    9   -1.00e+05
2007 09 13  0135    54356    5700      9   -1.00e+05    9   -1.00e+05
2007 09 13  0140    54356    6000      9   -1.00e+05    9   -1.00e+05
2007 09 13  0145    54356    6300      9   -1.00e+05    9   -1.00e+05
2007 09 13  0150    54356    6600      9   -1.00e+05    9   -1.00e+05
2007 09 13  0155    54356    6900      9   -1.00e+05    9   -1.00e+05
2007 09 13  0200    54356    7200      9   -1.00e+05    9   -1.00e+05
2007 09 13  0205    54356    7500      9   -1.00e+05    9   -1.00e+05
2007 09 13  0210    54356    7800      9   -1.00e+05    9   -1.00e+05
2007 09 13  0215    54356    8100      9   -1.00e+05    9   -1.00e+05
2007 09 13  0220    54356    8400      9   -1.00e+05    9   -1.00e+05
2007 09 13  0225    54356    8700      9   -1.00e+05    9   -1.00e+05
2007 09 13  0230    54356    9000      9   -1.00e+05    9   -1.00e+05
2007 09 13  0235    54356    9300      9   -1.00e+05    9   -1.00e+05
2007 09 13  0240    54356    9600      9   -1.00e+05    9   -1.00e+05
2007 09 13  0245    54356    9900      9   -1.00e+05    9   -1.00e+05
2007 09 13  0250    54356   10200      9   -1.00e+05    9   -1.00e+05
2007 09 13  0255    54356   10500      9   -1.00e+05    9   -1.00e+05
2007 09 13  0300    54356   10800      9   -1.00e+05    9   -1.00e+05
2007 09 13  0305    54356   11100      9   -1.00e+05    9   -1.00e+05
2007 09 13  0310    54356   11400      9   -1.00e+05    9   -1.00e+05
2007 09 13  0315    54356   11700      9   -1.00e+05    9   -1.00e+05
2007 09 13  0320    54356   12000      9   -1.00e+05    9   -1.00e+05
2007 09 13  0325    54356   12300      9   -1.00e+05    9   -1.00e+05
2007 09 13  0330    54356   12600      9   -1.00e+05    9   -1.00e+05
2007 09 13  0335    54356   12900      9   -1.00e+05    9   -1.00e+05
2007 09 13  0340    54356   13200      9   -1.00e+05    9   -1.00e+05
2007 09 13  0345    54356   13500      9   -1.00e+05    9   -1.00e+05
2007 09 13  0350    54356   13800      9   -1.00e+05    9   -1.00e+05
2007 09 13  0355    54356   14100      9   -1.00e+05    9   -1.00e+05
2007 09 13  0400    54356   14400      9   -1.00e+05    9   -1.00e+05
2007 09 13  0405    54356   14700      9   -1.00e+05    9   -1.00e+05
2007 09 13  0410    54356   15000      9   -1.00e+05    9   -1.00e+05
2007 09 13  0415    54356   15300      9   -1.00e+05    9   -1.00e+05
2007 09 13  0420    54356   15600      9   -1.00e+05    9   -1.00e+05
2007 09 13  0425    54356   15900      9   -1.00e+05    9   -1.00e+05
2007 09 13  0430    54356   16200      9   -1.00e+05    9   -1.00e+05
2007 09 13  0435    54356   16500      9   -1.00e+05    9   -1.00e+05
2007 09 13  0440    54356   16800      9   -1.00e+05    9   -1.00e+05
2007 09 13  0445    54356   17100      9   -1.00e+05    9   -1.00e+05
2007 09 13  0450    54356   17400      9   -1.00e+05    9   -1.00e+05
2007 09 13  0455    54356   17700      9   -1.00e+05    9   -1.00e+05
2007 09 13  0500    54356   18000      9   -1.00e+05    9   -1.00e+05
2007 09 13  0505    54356   18300      9   -1.00e+05    9   -1.00e+05
2007 09 13  0510    54356   18600      9   -1.00e+05    9   -1.00e+05
2007 09 13  0515    54356   18900      9   -1.00e+05    9   -1.00e+05
2007 09 13  0520    54356   19200      9   -1.00e+05    9   -1.00e+05
2007 09 13  0525    54356   19500      9   -1.00e+05    9   -1.00e+05
2007 09 13  0530    54356   19800      9   -1.00e+05    9   -1.00e+05
2007 09 13  0535    54356   20100      9   -1.00e+05    9   -1.00e+05
2007 09 13  0540    54356   20400      9   -1.00e+05    9   -1.00e+05
2007 09 13  0545    54356   20700      9   -1.00e+05    9   -1.00e+05
2007 09 13  0550    54356   21000      9   -1.00e+05    9   -1.00e+05
2007 09 13  0555    54356   21300      9   -1.00e+05    9   -1.00e+05
2007 09 13  0600    54356   21600      9   -1.00e+05    9   -1.00e+05
2007 09 13  0605    54356   21900      9   -1.00e+05    9   -1.00e+05
2007 09 13  0610    54356   22200      9   -1.00e+05    9   -1.00e+05
2007 09 13  0615    54356   22500      9   -1.00e+05    9   -1.00e+05
2007 09 13  0620    54356   22800      9   -1.00e+05    9   -1.00e+05
2007 09 13  0625    54356   23100      9   -1.00e+05    9   -1.00e+05
2007 09 13  0630    54356   23400      9   -1.00e+05    9   -1.00e+05
2007 09 13  0635    54356   23700      9   -1.00e+05    9   -1.00e+05
2007 09 13  0640    54356   24000      9   -1.00e+05    9   -1.00e+05
2007 09 13  0645    54356   24300      9   -1.00e+05    9   -1.00e+05
2007 09 13  0650    54356   24600      0    2.06e+00    0    1.42e+00
2007 09 13  0655    54356   24900      0    1.98e+00    0    1.39e+00
2007 09 13  0700    54356   25200      0    1.97e+00    0    1.37e+00
2007 09 13  0705    54356   25500      0    1.92e+00    0    1.33e+00
2007 09 13  0710    54356   25800      0    1.94e+00    0    1.36e+00
2007 09 13  0715    54356   26100      0    2.00e+00    0    1.41e+00
2007 09 13  0720    54356   26400      0    1.98e+00    0    1.38e+00
2007 09 13  0725    54356   26700      0    2.02e+00    0    1.42e+00
2007 09 13  0730    54356   27000      0    1.96e+00    0    1.36e+00
2007 09 13  0735    54356   27300      0    1.96e+00    0    1.37e+00
2007 09 13  0740    54356   27600      0    2.00e+00    0    1.40e+00
2007 09 13  0745    54356   27900      0    2.04e+00    0    1.41e+00
2007 09 13  0750    54356   28200      0    1.99e+00    0    1.39e+00
2007 09 13  0755    54356   28500      0    1.99e+00    0    1.40e+00
2007 09 13  0800    54356   28800      0    2.01e+00    0    1.40e+00
2007 09 13  0805    54356   29100      0    2.00e+00    0    1.39e+00
2007 09 13  0810    54356   29400      0    2.02e+00    0    1.41e+00
2007 09 13  0815    54356   29700      0    2.00e+00    0    1.40e+00
2007 09 13  0820    54356   30000      0    2.00e+00    0    1.39e+00
2007 09 13  0825    54356   30300      0    1.98e+00    0    1.38e+00
2007 09 13  0830    54356   30600      0    1.98e+00    0    1.40e+00
2007 09 13  0835    54356   30900      0    2.02e+00    0    1.41e+00
2007 09 13  0840    54356   31200      0    1.97e+00    0    1.36e+00
2007 09 13  0845    54356   31500      0    1.98e+00    0    1.38e+00
2007 09 13  0850    54356   31800      0    2.00e+00    0    1.39e+00
2007 09 13  0855    54356   32100      0    2.02e+00    0    1.41e+00
2007 09 13  0900    54356   32400      0    2.02e+00    0    1.43e+00
2007 09 13  0905    54356   32700      0    1.98e+00    0    1.40e+00
2007 09 13  0910    54356   33000      0    2.01e+00    0    1.41e+00
2007 09 13  0915    54356   33300      0    1.97e+00    0    1.37e+00
2007 09 13  0920    54356   33600      0    1.95e+00    0    1.36e+00
2007 09 13  0925    54356   33900      0    1.95e+00    0    1.38e+00
2007 09 13  0930    54356   34200      0    2.03e+00    0    1.42e+00
2007 09 13  0935    54356   34500      0    2.00e+00    0    1.40e+00
2007 09 13  0940    54356   34800      0    2.01e+00    0    1.40e+00
2007 09 13  0945    54356   35100      0    2.00e+00    0    1.41e+00
2007 09 13  0950    54356   35400      0    2.01e+00    0    1.41e+00
2007 09 13  0955    54356   35700      0    1.97e+00    0    1.39e+00
2007 09 13  1000    54356   36000      0    2.00e+00    0    1.39e+00
2007 09 13  1005    54356   36300      0    1.98e+00    0    1.38e+00
2007 09 13  1010    54356   36600      0    1.99e+00    0    1.38e+00
2007 09 13  1015    54356   36900      0    1.99e+00    0    1.40e+00
2007 09 13  1020    54356   37200      0    1.97e+00    0    1.37e+00
2007 09 13  1025    54356   37500      0    2.02e+00    0    1.41e+00
2007 09 13  1030    54356   37800      0    1.94e+00    0    1.35e+00
2007 09 13  1035    54356   38100      0    1.97e+00    0    1.38e+00
2007 09 13  1040    54356   38400      0    2.05e+00    0    1.44e+00
2007 09 13  1045    54356   38700      0    1.97e+00    0    1.38e+00
2007 09 13  1050    54356   39000      0    1.97e+00    0    1.37e+00
2007 09 13  1055    54356   39300      0    1.97e+00    0    1.38e+00
2007 09 13  1100    54356   39600      0    1.99e+00    0    1.41e+00
2007 09 13  1105    54356   39900      0    1.97e+00    0    1.39e+00
2007 09 13  1110    54356   40200      0    1.96e+00    0    1.36e+00
2007 09 13  1115    54356   40500      0    2.00e+00    0    1.41e+00
2007 09 13  1120    54356   40800      0    2.01e+00    0    1.40e+00
2007 09 13  1125    54356   41100      0    1.99e+00    0    1.39e+00
2007 09 13  1130    54356   41400      0    2.00e+00    0    1.40e+00
2007 09 13  1135    54356   41700      0    1.99e+00    0    1.39e+00
2007 09 13  1140    54356   42000      0    1.94e+00    0    1.34e+00
2007 09 13  1145    54356   42300      0    1.98e+00    0    1.38e+00
2007 09 13  1150    54356   42600      0    1.97e+00    0    1.39e+00
2007 09 13  1155    54356   42900      0    2.02e+00    0    1.41e+00
2007 09 13  1200    54356   43200      0    1.98e+00    0    1.37e+00
2007 09 13  1205    54356   43500      0    2.04e+00    0    1.42e+00
2007 09 13  1210    54356   43800      0    2.02e+00    0    1.41e+00
2007 09 13  1215    54356   44100      0    1.96e+00    0    1.37e+00
2007 09 13  1220    54356   44400      0    1.99e+00    0    1.40e+00
2007 09 13  1225    54356   44700      0    1.97e+00    0    1.38e+00
2007 09 13  1230    54356   45000      0    1.99e+00    0    1.39e+00
2007 09 13  1235    54356   45300      0    2.01e+00    0    1.40e+00
2007 09 13  1240    54356   45600      0    1.90e+00    0    1.32e+00
2007 09 13  1245    54356   45900      0    2.01e+00    0    1.41e+00
2007 09 13  1250    54356   46200      0    1.94e+00    0    1.36e+00
2007 09 13  1255    54356   46500      0    2.00e+00    0    1.40e+00
2007 09 13  1300    54356   46800      0    1.98e+00    0    1.37e+00
2007 09 13  1305    54356   47100      0    1.98e+00    0    1.39e+00
2007 09 13  1310    54356   47400      0    1.96e+00    0    1.37e+00
2007 09 13  1315    54356   47700      0    1.98e+00    0    1.39e+00
2007 09 13  1320    54356   48000      0    1.99e+00    0    1.40e+00
2007 09 13  1325    54356   48300      0    1.99e+00    0    1.38e+00
2007 09 13  1330    54356   48600      0    2.01e+00    0    1.40e+00
2007 09 13  1335    54356   48900      0    2.00e+00    0    1.41e+00
2007 09 13  1340    54356   49200      0    2.00e+00    0    1.38e+00
2007 09 13  1345    54356   49500      0    1.98e+00    0    1.37e+00
2007 09 13  1350    54356   49800      0    1.99e+00    0    1.39e+00
2007 09 13  1355    54356   50100      0    1.94e+00    0    1.36e+00
2007 09 13  1400    54356   50400      0    1.98e+00    0    1.39e+00
2007 09 13  1405    54356   50700      0    1.95e+00    0    1.35e+00
2007 09 13  1410    54356   51000      0    1.97e+00    0    1.36e+00
2007 09 13  1415    54356   51300      0    2.00e+00    0    1.41e+00
2007 09 13  1420    54356   51600      0    2.02e+00    0    1.42e+00
2007 09 13  1425    54356   51900      0    1.98e+00    0    1.39e+00
2007 09 13  1430    54356   52200      0    1.96e+00    0    1.37e+00
2007 09 13  1435    54356   52500      0    2.01e+00    0    1.41e+00
2007 09 13  1440    54356   52800      0    2.03e+00    0    1.44e+00
2007 09 13  1445    54356   53100      0    2.01e+00    0    1.41e+00
2007 09 13  1450    54356   53400      0    2.02e+00    0    1.41e+00
2007 09 13  1455    54356   53700      0    1.97e+00    0    1.39e+00
2007 09 13  1500    54356   54000      0    1.99e+00    0    1.37e+00
2007 09 13  1505    54356   54300      0    2.03e+00    0    1.42e+00
2007 09 13  1510    54356   54600      0    1.99e+00    0    1.40e+00
2007 09 13  1515    54356   54900      0    2.02e+00    0    1.42e+00
2007 09 13  1520    54356   55200      0    1.96e+00    0    1.38e+00
2007 09 13  1525    54356   55500      0    1.97e+00    0    1.37e+00
2007 09 13  1530    54356   55800      0    2.03e+00    0    1.41e+00
2007 09 13  1535    54356   56100      0    2.02e+00    0    1.41e+00
2007 09 13  1540    54356   56400      0    1.99e+00    0    1.38e+00
2007 09 13  1545    54356   56700      0    2.00e+00    0    1.41e+00
2007 09 13  1550    54356   57000      0    2.04e+00    0    1.44e+00
2007 09 13  1555    54356   57300      0    1.97e+00    0    1.37e+00
2007 09 13  1600    54356   57600      0    1.96e+00    0    1.39e+00
2007 09 13  1605    54356   57900      0    1.97e+00    0    1.37e+00
2007 09 13  1610    54356   58200      0    1.98e+00    0    1.39e+00
2007 09 13  1615    54356   58500      0    2.03e+00    0    1.41e+00
2007 09 13  1620    54356   58800      0    1.98e+00    0    1.37e+00
2007 09 13  1625    54356   59100      0    2.02e+00    0    1.43e+00
2007 09 13  1630    54356   59400      0    1.97e+00    0    1.39e+00
2007 09 13  1635    54356   59700      0    1.97e+00    0    1.37e+00
2007 09 13  1640    54356   60000      0    2.02e+00    0    1.42e+00
2007 09 13  1645    54356   60300      0    1.97e+00    0    1.38e+00
2007 09 13  1650    54356   60600      0    1.99e+00    0    1.39e+00
2007 09 13  1655    54356   60900      0    1.98e+00    0    1.38e+00
2007 09 13  1700    54356   61200      0    1.97e+00    0    1.37e+00
2007 09 13  1705    54356   61500      0    1.99e+00    0    1.40e+00
2007 09 13  1710    54356   61800      0    1.98e+00    0    1.38e+00
2007 09 13  1715    54356   62100      0    1.99e+00    0    1.39e+00
2007 09 13  1720    54356   62400      0    1.99e+00    0    1.40e+00
2007 09 13  1725    54356   62700      0    2.03e+00    0    1.41e+00
2007 09 13  1730    54356   63000      0    1.98e+00    0    1.38e+00
2007 09 13  1735    54356   63300      0    2.01e+00    0    1.42e+00
2007 09 13  1740    54356   63600      0    2.02e+00    0    1.40e+00
2007 09 13  1745    54356   63900      0    2.01e+00    0    1.40e+00
2007 09 13  1750    54356   64200      0    1.99e+00    0    1.39e+00
2007 09 13  1755    54356   64500      0    1.98e+00    0    1.39e+00
2007 09 13  1800    54356   64800      0    2.00e+00    0    1.40e+00
2007 09 13  1805    54356   65100      0    2.00e+00    0    1.40e+00
2007 09 13  1810    54356   65400      0    2.02e+00    0    1.41e+00
2007 09 13  1815    54356   65700      0    1.95e+00    0    1.37e+00
2007 09 13  1820    54356   66000      0    1.97e+00    0    1.37e+00
2007 09 13  1825    54356   66300      9   -1.00e+05    9   -1.00e+05
2007 09 13  1830    54356   66600      9   -1.00e+05    9   -1.00e+05
2007 09 13  1835    54356   66900      0    1.96e+00    0    1.38e+00
2007 09 13  1840    54356   67200      0    1.98e+00    0    1.40e+00
2007 09 13  1845    54356   67500      0    1.99e+00    0    1.38e+00
2007 09 13  1850    54356   67800      0    1.96e+00    0    1.37e+00
2007 09 13  1855    54356   68100      0    1.99e+00    0    1.39e+00
2007 09 13  1900    54356   68400      0    1.99e+00    0    1.38e+00
2007 09 13  1905    54356   68700      0    2.01e+00    0    1.41e+00
2007 09 13  1910    54356   69000      0    2.00e+00    0    1.40e+00
2007 09 13  1915    54356   69300      0    2.01e+00    0    1.41e+00
2007 09 13  1920    54356   69600      0    1.99e+00    0    1.39e+00
2007 09 13  1925    54356   69900      0    2.02e+00    0    1.42e+00
2007 09 13  1930    54356   70200      0    2.02e+00    0    1.40e+00
2007 09 13  1935    54356   70500      0    2.01e+00    0    1.40e+00
2007 09 13  1940    54356   70800      0    1.99e+00    0    1.39e+00
2007 09 13  1945    54356   71100      0    2.01e+00    0    1.41e+00
2007 09 13  1950    54356   71400      0    2.03e+00    0    1.43e+00
2007 09 13  1955    54356   71700      0    1.99e+00    0    1.40e+00
2007 09 13  2000    54356   72000      0    1.98e+00    0    1.39e+00
2007 09 13  2005    54356   72300      0    2.05e+00    0    1.43e+00
2007 09 13  2010    54356   72600      0    2.05e+00    0    1.43e+00
2007 09 13  2015    54356   72900      0    2.00e+00    0    1.39e+00
2007 09 13  2020    54356   73200      0    1.96e+00    0    1.36e+00
2007 09 13  2025    54356   73500      0    2.01e+00    0    1.40e+00
2007 09 13  2030    54356   73800      0    2.00e+00    0    1.40e+00
2007 09 13  2035    54356   74100      0    1.98e+00    0    1.38e+00
2007 09 13  2040    54356   74400      0    2.04e+00    0    1.42e+00
2007 09 13  2045    54356   74700      0    1.98e+00    0    1.38e+00
2007 09 13  2050    54356   75000      0    1.99e+00    0    1.38e+00
2007 09 13  2055    54356   75300      0    2.04e+00    0    1.42e+00
2007 09 13  2100    54356   75600      0    1.96e+00    0    1.36e+00
2007 09 13  2105    54356   75900      0    1.99e+00    0    1.40e+00
2007 09 13  2110    54356   76200      0    2.01e+00    0    1.39e+00
2007 09 13  2115    54356   76500      0    1.95e+00    0    1.37e+00
2007 09 13  2120    54356   76800      0    1.99e+00    0    1.39e+00
2007 09 13  2125    54356   77100      0    2.01e+00    0    1.41e+00
2007 09 13  2130    54356   77400      0    1.98e+00    0    1.38e+00
2007 09 13  2135    54356   77700      0    2.01e+00    0    1.41e+00
2007 09 13  2140    54356   78000      0    1.98e+00    0    1.38e+00
2007 09 13  2145    54356   78300      0    1.98e+00    0    1.39e+00
2007 09 13  2150    54356   78600      0    2.00e+00    0    1.40e+00
2007 09 13  2155    54356   78900      0    2.01e+00    0    1.41e+00
2007 09 13  2200    54356   79200      0    1.94e+00    0    1.35e+00
2007 09 13  2205    54356   79500      0    1.95e+00    0    1.36e+00
2007 09 13  2210    54356   79800      0    1.98e+00    0    1.40e+00
2007 09 13  2215    54356   80100      0    1.94e+00    0    1.35e+00
2007 09 13  2220    54356   80400      0    1.90e+00    0    1.30e+00
2007 09 13  2225    54356   80700      9   -1.00e+05    9   -1.00e+05
2007 09 13  2230    54356   81000      9   -1.00e+05    9   -1.00e+05
2007 09 13  2235    54356   81300      9   -1.00e+05    9   -1.00e+05
2007 09 13  2240    54356   81600      0    2.01e+00    0    1.42e+00
2007 09 13  2245    54356   81900      9   -1.00e+05    9   -1.00e+05
2007 09 13  2250    54356   82200      9   -1.00e+05    9   -1.00e+05
2007 09 13  2255    54356   82500      9   -1.00e+05    9   -1.00e+05
2007 09 13  2300    54356   82800      9   -1.00e+05    9   -1.00e+05
2007 09 13  2305    54356   83100      9   -1.00e+05    9   -1.00e+05
2007 09 13  2310    54356   83400      9   -1.00e+05    9   -1.00e+05
2007 09 13  2315    54356   83700      9   -1.00e+05    9   -1.00e+05
2007 09 13  2320    54356   84000      9   -1.00e+05    9   -1.00e+05
2007 09 13  2325    54356   84300      9   -1.00e+05    9   -1.00e+05
2007 09 13  2330    54356   84600      9   -1.00e+05    9   -1.00e+05
2007 09 13  2335    54356   84900      9   -1.00e+05    9   -1.00e+05
2007 09 13  2340    54356   85200      9   -1.00e+05    9   -1.00e+05
2007 09 13  2345    54356   85500      9   -1.00e+05    9   -1.00e+05
2007 09 13  2350    54356   85800      9   -1.00e+05    9   -1.00e+05
2007 09 13  2355    54356   86100      9   -1.00e+05    9   -1.00e+05
