:Data_list: 20070426_ace_sis_5m.txt
:Created: 2007 Apr 27 0011 UT
# Prepared by the U.S. Dept. of Commerce, NOAA, Space Environment Center.
# Please send comments and suggestions to SEC.Webmaster@noaa.gov 
# 
# Units: proton flux p/cs2-sec-ster
# Status(S): 0 = nominal data, 1 to 8 = bad data record, 9 = no data
# Missing data values: -1.00e+05
# Source: ACE Satellite - Solar Isotope Spectrometer
#
# 5-minute averaged Real-time Integral Flux of High-energy Solar Protons
# 
#                 Modified Seconds
# UT Date   Time   Julian  of the      ---- Integral Proton Flux ----
# YR MO DA  HHMM     Day     Day       S    > 10 MeV    S    > 30 MeV
#--------------------------------------------------------------------
2007 04 26  0000    54216       0      0    1.82e+00    0    1.28e+00
2007 04 26  0005    54216     300      0    1.82e+00    0    1.26e+00
2007 04 26  0010    54216     600      0    1.85e+00    0    1.30e+00
2007 04 26  0015    54216     900      0    1.83e+00    0    1.28e+00
2007 04 26  0020    54216    1200      0    1.82e+00    0    1.27e+00
2007 04 26  0025    54216    1500      0    1.79e+00    0    1.25e+00
2007 04 26  0030    54216    1800      0    1.80e+00    0    1.25e+00
2007 04 26  0035    54216    2100      0    1.81e+00    0    1.26e+00
2007 04 26  0040    54216    2400      0    1.83e+00    0    1.28e+00
2007 04 26  0045    54216    2700      0    1.84e+00    0    1.28e+00
2007 04 26  0050    54216    3000      0    1.84e+00    0    1.30e+00
2007 04 26  0055    54216    3300      0    1.80e+00    0    1.26e+00
2007 04 26  0100    54216    3600      0    1.83e+00    0    1.27e+00
2007 04 26  0105    54216    3900      0    1.85e+00    0    1.29e+00
2007 04 26  0110    54216    4200      0    1.83e+00    0    1.26e+00
2007 04 26  0115    54216    4500      0    1.84e+00    0    1.29e+00
2007 04 26  0120    54216    4800      0    1.85e+00    0    1.31e+00
2007 04 26  0125    54216    5100      0    1.81e+00    0    1.27e+00
2007 04 26  0130    54216    5400      0    1.80e+00    0    1.25e+00
2007 04 26  0135    54216    5700      0    1.86e+00    0    1.30e+00
2007 04 26  0140    54216    6000      0    1.79e+00    0    1.24e+00
2007 04 26  0145    54216    6300      0    1.82e+00    0    1.27e+00
2007 04 26  0150    54216    6600      0    1.83e+00    0    1.28e+00
2007 04 26  0155    54216    6900      0    1.86e+00    0    1.31e+00
2007 04 26  0200    54216    7200      0    1.83e+00    0    1.29e+00
2007 04 26  0205    54216    7500      0    1.83e+00    0    1.27e+00
2007 04 26  0210    54216    7800      0    1.79e+00    0    1.26e+00
2007 04 26  0215    54216    8100      0    1.81e+00    0    1.27e+00
2007 04 26  0220    54216    8400      0    1.76e+00    0    1.22e+00
2007 04 26  0225    54216    8700      0    1.80e+00    0    1.25e+00
2007 04 26  0230    54216    9000      0    1.78e+00    0    1.25e+00
2007 04 26  0235    54216    9300      0    1.84e+00    0    1.29e+00
2007 04 26  0240    54216    9600      0    1.83e+00    0    1.28e+00
2007 04 26  0245    54216    9900      0    1.83e+00    0    1.29e+00
2007 04 26  0250    54216   10200      0    1.80e+00    0    1.26e+00
2007 04 26  0255    54216   10500      0    1.81e+00    0    1.26e+00
2007 04 26  0300    54216   10800      0    1.86e+00    0    1.30e+00
2007 04 26  0305    54216   11100      0    1.83e+00    0    1.28e+00
2007 04 26  0310    54216   11400      0    1.83e+00    0    1.28e+00
2007 04 26  0315    54216   11700      0    1.84e+00    0    1.29e+00
2007 04 26  0320    54216   12000      0    1.82e+00    0    1.28e+00
2007 04 26  0325    54216   12300      0    1.80e+00    0    1.25e+00
2007 04 26  0330    54216   12600      0    1.86e+00    0    1.30e+00
2007 04 26  0335    54216   12900      0    1.83e+00    0    1.27e+00
2007 04 26  0340    54216   13200      0    1.84e+00    0    1.29e+00
2007 04 26  0345    54216   13500      0    1.86e+00    0    1.30e+00
2007 04 26  0350    54216   13800      0    1.82e+00    0    1.27e+00
2007 04 26  0355    54216   14100      0    1.85e+00    0    1.29e+00
2007 04 26  0400    54216   14400      0    1.81e+00    0    1.27e+00
2007 04 26  0405    54216   14700      0    1.80e+00    0    1.25e+00
2007 04 26  0410    54216   15000      0    1.81e+00    0    1.28e+00
2007 04 26  0415    54216   15300      0    1.82e+00    0    1.27e+00
2007 04 26  0420    54216   15600      0    1.77e+00    0    1.24e+00
2007 04 26  0425    54216   15900      0    1.80e+00    0    1.25e+00
2007 04 26  0430    54216   16200      0    1.78e+00    0    1.25e+00
2007 04 26  0435    54216   16500      0    1.82e+00    0    1.27e+00
2007 04 26  0440    54216   16800      0    1.79e+00    0    1.24e+00
2007 04 26  0445    54216   17100      0    1.81e+00    0    1.27e+00
2007 04 26  0450    54216   17400      0    1.82e+00    0    1.27e+00
2007 04 26  0455    54216   17700      0    1.82e+00    0    1.27e+00
2007 04 26  0500    54216   18000      0    1.80e+00    0    1.26e+00
2007 04 26  0505    54216   18300      0    1.83e+00    0    1.30e+00
2007 04 26  0510    54216   18600      0    1.83e+00    0    1.29e+00
2007 04 26  0515    54216   18900      0    1.84e+00    0    1.28e+00
2007 04 26  0520    54216   19200      0    1.82e+00    0    1.28e+00
2007 04 26  0525    54216   19500      0    1.89e+00    0    1.33e+00
2007 04 26  0530    54216   19800      0    1.78e+00    0    1.25e+00
2007 04 26  0535    54216   20100      0    1.83e+00    0    1.28e+00
2007 04 26  0540    54216   20400      0    1.77e+00    0    1.23e+00
2007 04 26  0545    54216   20700      0    1.79e+00    0    1.25e+00
2007 04 26  0550    54216   21000      0    1.85e+00    0    1.28e+00
2007 04 26  0555    54216   21300      0    1.83e+00    0    1.29e+00
2007 04 26  0600    54216   21600      0    1.82e+00    0    1.27e+00
2007 04 26  0605    54216   21900      0    1.77e+00    0    1.24e+00
2007 04 26  0610    54216   22200      0    1.81e+00    0    1.26e+00
2007 04 26  0615    54216   22500      0    1.82e+00    0    1.26e+00
2007 04 26  0620    54216   22800      0    1.81e+00    0    1.28e+00
2007 04 26  0625    54216   23100      0    1.81e+00    0    1.27e+00
2007 04 26  0630    54216   23400      0    1.82e+00    0    1.27e+00
2007 04 26  0635    54216   23700      0    1.82e+00    0    1.27e+00
2007 04 26  0640    54216   24000      0    1.86e+00    0    1.31e+00
2007 04 26  0645    54216   24300      0    1.80e+00    0    1.26e+00
2007 04 26  0650    54216   24600      0    1.82e+00    0    1.27e+00
2007 04 26  0655    54216   24900      0    1.81e+00    0    1.28e+00
2007 04 26  0700    54216   25200      0    1.79e+00    0    1.25e+00
2007 04 26  0705    54216   25500      0    1.82e+00    0    1.28e+00
2007 04 26  0710    54216   25800      0    1.81e+00    0    1.27e+00
2007 04 26  0715    54216   26100      0    1.81e+00    0    1.28e+00
2007 04 26  0720    54216   26400      0    1.79e+00    0    1.26e+00
2007 04 26  0725    54216   26700      0    1.81e+00    0    1.27e+00
2007 04 26  0730    54216   27000      0    1.83e+00    0    1.28e+00
2007 04 26  0735    54216   27300      0    1.80e+00    0    1.27e+00
2007 04 26  0740    54216   27600      0    1.76e+00    0    1.23e+00
2007 04 26  0745    54216   27900      0    1.80e+00    0    1.26e+00
2007 04 26  0750    54216   28200      0    1.83e+00    0    1.28e+00
2007 04 26  0755    54216   28500      0    1.81e+00    0    1.27e+00
2007 04 26  0800    54216   28800      0    1.83e+00    0    1.28e+00
2007 04 26  0805    54216   29100      0    1.84e+00    0    1.31e+00
2007 04 26  0810    54216   29400      0    1.81e+00    0    1.27e+00
2007 04 26  0815    54216   29700      0    1.81e+00    0    1.27e+00
2007 04 26  0820    54216   30000      0    1.83e+00    0    1.29e+00
2007 04 26  0825    54216   30300      0    1.85e+00    0    1.29e+00
2007 04 26  0830    54216   30600      0    1.85e+00    0    1.29e+00
2007 04 26  0835    54216   30900      0    1.81e+00    0    1.26e+00
2007 04 26  0840    54216   31200      0    1.79e+00    0    1.25e+00
2007 04 26  0845    54216   31500      0    1.82e+00    0    1.28e+00
2007 04 26  0850    54216   31800      0    1.83e+00    0    1.28e+00
2007 04 26  0855    54216   32100      0    1.85e+00    0    1.30e+00
2007 04 26  0900    54216   32400      0    1.81e+00    0    1.27e+00
2007 04 26  0905    54216   32700      0    1.84e+00    0    1.29e+00
2007 04 26  0910    54216   33000      0    1.73e+00    0    1.21e+00
2007 04 26  0915    54216   33300      0    1.80e+00    0    1.27e+00
2007 04 26  0920    54216   33600      0    1.84e+00    0    1.31e+00
2007 04 26  0925    54216   33900      0    1.80e+00    0    1.27e+00
2007 04 26  0930    54216   34200      0    1.84e+00    0    1.28e+00
2007 04 26  0935    54216   34500      0    1.81e+00    0    1.27e+00
2007 04 26  0940    54216   34800      0    1.84e+00    0    1.30e+00
2007 04 26  0945    54216   35100      0    1.81e+00    0    1.26e+00
2007 04 26  0950    54216   35400      0    1.81e+00    0    1.26e+00
2007 04 26  0955    54216   35700      0    1.83e+00    0    1.29e+00
2007 04 26  1000    54216   36000      0    1.83e+00    0    1.30e+00
2007 04 26  1005    54216   36300      0    1.83e+00    0    1.27e+00
2007 04 26  1010    54216   36600      0    1.83e+00    0    1.28e+00
2007 04 26  1015    54216   36900      0    1.81e+00    0    1.26e+00
2007 04 26  1020    54216   37200      0    1.82e+00    0    1.28e+00
2007 04 26  1025    54216   37500      0    1.82e+00    0    1.27e+00
2007 04 26  1030    54216   37800      0    1.82e+00    0    1.28e+00
2007 04 26  1035    54216   38100      0    1.81e+00    0    1.25e+00
2007 04 26  1040    54216   38400      0    1.83e+00    0    1.28e+00
2007 04 26  1045    54216   38700      0    1.87e+00    0    1.30e+00
2007 04 26  1050    54216   39000      0    1.85e+00    0    1.30e+00
2007 04 26  1055    54216   39300      0    1.82e+00    0    1.27e+00
2007 04 26  1100    54216   39600      0    1.82e+00    0    1.27e+00
2007 04 26  1105    54216   39900      0    1.82e+00    0    1.27e+00
2007 04 26  1110    54216   40200      0    1.81e+00    0    1.27e+00
2007 04 26  1115    54216   40500      0    1.81e+00    0    1.27e+00
2007 04 26  1120    54216   40800      0    1.80e+00    0    1.26e+00
2007 04 26  1125    54216   41100      0    1.81e+00    0    1.27e+00
2007 04 26  1130    54216   41400      0    1.82e+00    0    1.28e+00
2007 04 26  1135    54216   41700      0    1.78e+00    0    1.25e+00
2007 04 26  1140    54216   42000      0    1.84e+00    0    1.29e+00
2007 04 26  1145    54216   42300      0    1.78e+00    0    1.23e+00
2007 04 26  1150    54216   42600      0    1.84e+00    0    1.29e+00
2007 04 26  1155    54216   42900      0    1.81e+00    0    1.27e+00
2007 04 26  1200    54216   43200      0    1.81e+00    0    1.27e+00
2007 04 26  1205    54216   43500      0    1.80e+00    0    1.25e+00
2007 04 26  1210    54216   43800      0    1.80e+00    0    1.27e+00
2007 04 26  1215    54216   44100      0    1.81e+00    0    1.27e+00
2007 04 26  1220    54216   44400      0    1.83e+00    0    1.29e+00
2007 04 26  1225    54216   44700      0    1.84e+00    0    1.29e+00
2007 04 26  1230    54216   45000      0    1.81e+00    0    1.26e+00
2007 04 26  1235    54216   45300      0    1.78e+00    0    1.25e+00
2007 04 26  1240    54216   45600      0    1.82e+00    0    1.27e+00
2007 04 26  1245    54216   45900      0    1.84e+00    0    1.29e+00
2007 04 26  1250    54216   46200      0    1.86e+00    0    1.32e+00
2007 04 26  1255    54216   46500      0    1.80e+00    0    1.25e+00
2007 04 26  1300    54216   46800      0    1.85e+00    0    1.30e+00
2007 04 26  1305    54216   47100      0    1.79e+00    0    1.26e+00
2007 04 26  1310    54216   47400      0    1.85e+00    0    1.29e+00
2007 04 26  1315    54216   47700      0    1.84e+00    0    1.29e+00
2007 04 26  1320    54216   48000      0    1.84e+00    0    1.29e+00
2007 04 26  1325    54216   48300      0    1.82e+00    0    1.27e+00
2007 04 26  1330    54216   48600      0    1.76e+00    0    1.23e+00
2007 04 26  1335    54216   48900      9   -1.00e+05    9   -1.00e+05
2007 04 26  1340    54216   49200      9   -1.00e+05    9   -1.00e+05
2007 04 26  1345    54216   49500      9   -1.00e+05    9   -1.00e+05
2007 04 26  1350    54216   49800      9   -1.00e+05    9   -1.00e+05
2007 04 26  1355    54216   50100      9   -1.00e+05    9   -1.00e+05
2007 04 26  1400    54216   50400      9   -1.00e+05    9   -1.00e+05
2007 04 26  1405    54216   50700      9   -1.00e+05    9   -1.00e+05
2007 04 26  1410    54216   51000      9   -1.00e+05    9   -1.00e+05
2007 04 26  1415    54216   51300      9   -1.00e+05    9   -1.00e+05
2007 04 26  1420    54216   51600      9   -1.00e+05    9   -1.00e+05
2007 04 26  1425    54216   51900      9   -1.00e+05    9   -1.00e+05
2007 04 26  1430    54216   52200      9   -1.00e+05    9   -1.00e+05
2007 04 26  1435    54216   52500      9   -1.00e+05    9   -1.00e+05
2007 04 26  1440    54216   52800      9   -1.00e+05    9   -1.00e+05
2007 04 26  1445    54216   53100      0    2.16e+00    0    2.40e-01
2007 04 26  1450    54216   53400      0    1.49e+00    0    1.03e+00
2007 04 26  1455    54216   53700      0    1.84e+00    0    1.29e+00
2007 04 26  1500    54216   54000      0    1.80e+00    0    1.27e+00
2007 04 26  1505    54216   54300      0    1.83e+00    0    1.27e+00
2007 04 26  1510    54216   54600      0    1.79e+00    0    1.23e+00
2007 04 26  1515    54216   54900      0    1.83e+00    0    1.28e+00
2007 04 26  1520    54216   55200      0    1.80e+00    0    1.27e+00
2007 04 26  1525    54216   55500      0    1.81e+00    0    1.27e+00
2007 04 26  1530    54216   55800      0    1.83e+00    0    1.28e+00
2007 04 26  1535    54216   56100      0    1.81e+00    0    1.27e+00
2007 04 26  1540    54216   56400      0    1.82e+00    0    1.27e+00
2007 04 26  1545    54216   56700      0    1.78e+00    0    1.25e+00
2007 04 26  1550    54216   57000      0    1.86e+00    0    1.30e+00
2007 04 26  1555    54216   57300      0    1.86e+00    0    1.30e+00
2007 04 26  1600    54216   57600      0    1.83e+00    0    1.27e+00
2007 04 26  1605    54216   57900      9   -1.00e+05    9   -1.00e+05
2007 04 26  1610    54216   58200      9   -1.00e+05    9   -1.00e+05
2007 04 26  1615    54216   58500      9   -1.00e+05    9   -1.00e+05
2007 04 26  1620    54216   58800      0    1.84e+00    0    1.29e+00
2007 04 26  1625    54216   59100      0    1.84e+00    0    1.29e+00
2007 04 26  1630    54216   59400      0    1.87e+00    0    1.31e+00
2007 04 26  1635    54216   59700      0    1.82e+00    0    1.28e+00
2007 04 26  1640    54216   60000      0    1.80e+00    0    1.26e+00
2007 04 26  1645    54216   60300      0    1.83e+00    0    1.28e+00
2007 04 26  1650    54216   60600      0    1.79e+00    0    1.26e+00
2007 04 26  1655    54216   60900      0    1.86e+00    0    1.31e+00
2007 04 26  1700    54216   61200      0    1.84e+00    0    1.30e+00
2007 04 26  1705    54216   61500      0    1.85e+00    0    1.29e+00
2007 04 26  1710    54216   61800      0    1.86e+00    0    1.31e+00
2007 04 26  1715    54216   62100      0    1.85e+00    0    1.29e+00
2007 04 26  1720    54216   62400      0    1.83e+00    0    1.28e+00
2007 04 26  1725    54216   62700      0    1.85e+00    0    1.29e+00
2007 04 26  1730    54216   63000      0    1.84e+00    0    1.28e+00
2007 04 26  1735    54216   63300      0    1.86e+00    0    1.30e+00
2007 04 26  1740    54216   63600      0    1.81e+00    0    1.26e+00
2007 04 26  1745    54216   63900      0    1.83e+00    0    1.29e+00
2007 04 26  1750    54216   64200      0    1.79e+00    0    1.25e+00
2007 04 26  1755    54216   64500      0    1.82e+00    0    1.28e+00
2007 04 26  1800    54216   64800      0    1.79e+00    0    1.25e+00
2007 04 26  1805    54216   65100      0    1.83e+00    0    1.27e+00
2007 04 26  1810    54216   65400      0    1.80e+00    0    1.25e+00
2007 04 26  1815    54216   65700      0    1.79e+00    0    1.26e+00
2007 04 26  1820    54216   66000      0    1.82e+00    0    1.26e+00
2007 04 26  1825    54216   66300      0    1.84e+00    0    1.30e+00
2007 04 26  1830    54216   66600      0    1.77e+00    0    1.23e+00
2007 04 26  1835    54216   66900      0    1.83e+00    0    1.29e+00
2007 04 26  1840    54216   67200      0    1.84e+00    0    1.28e+00
2007 04 26  1845    54216   67500      0    1.86e+00    0    1.30e+00
2007 04 26  1850    54216   67800      0    1.82e+00    0    1.28e+00
2007 04 26  1855    54216   68100      0    1.85e+00    0    1.31e+00
2007 04 26  1900    54216   68400      0    1.83e+00    0    1.29e+00
2007 04 26  1905    54216   68700      0    1.83e+00    0    1.28e+00
2007 04 26  1910    54216   69000      0    1.87e+00    0    1.31e+00
2007 04 26  1915    54216   69300      0    1.84e+00    0    1.29e+00
2007 04 26  1920    54216   69600      0    1.83e+00    0    1.29e+00
2007 04 26  1925    54216   69900      0    1.79e+00    0    1.25e+00
2007 04 26  1930    54216   70200      0    1.83e+00    0    1.29e+00
2007 04 26  1935    54216   70500      0    1.89e+00    0    1.33e+00
2007 04 26  1940    54216   70800      0    1.79e+00    0    1.25e+00
2007 04 26  1945    54216   71100      0    1.84e+00    0    1.31e+00
2007 04 26  1950    54216   71400      0    1.83e+00    0    1.28e+00
2007 04 26  1955    54216   71700      0    1.79e+00    0    1.27e+00
2007 04 26  2000    54216   72000      0    1.73e+00    0    1.21e+00
2007 04 26  2005    54216   72300      0    1.77e+00    0    1.25e+00
2007 04 26  2010    54216   72600      0    1.82e+00    0    1.27e+00
2007 04 26  2015    54216   72900      0    1.81e+00    0    1.26e+00
2007 04 26  2020    54216   73200      0    1.79e+00    0    1.24e+00
2007 04 26  2025    54216   73500      0    1.83e+00    0    1.27e+00
2007 04 26  2030    54216   73800      0    1.80e+00    0    1.25e+00
2007 04 26  2035    54216   74100      0    1.86e+00    0    1.31e+00
2007 04 26  2040    54216   74400      0    1.82e+00    0    1.27e+00
2007 04 26  2045    54216   74700      0    1.84e+00    0    1.29e+00
2007 04 26  2050    54216   75000      0    1.83e+00    0    1.28e+00
2007 04 26  2055    54216   75300      0    1.80e+00    0    1.25e+00
2007 04 26  2100    54216   75600      0    1.84e+00    0    1.30e+00
2007 04 26  2105    54216   75900      0    1.82e+00    0    1.29e+00
2007 04 26  2110    54216   76200      0    1.83e+00    0    1.28e+00
2007 04 26  2115    54216   76500      0    1.82e+00    0    1.27e+00
2007 04 26  2120    54216   76800      0    1.80e+00    0    1.25e+00
2007 04 26  2125    54216   77100      0    1.79e+00    0    1.24e+00
2007 04 26  2130    54216   77400      0    1.81e+00    0    1.26e+00
2007 04 26  2135    54216   77700      0    1.83e+00    0    1.26e+00
2007 04 26  2140    54216   78000      0    1.83e+00    0    1.27e+00
2007 04 26  2145    54216   78300      0    1.81e+00    0    1.25e+00
2007 04 26  2150    54216   78600      0    1.78e+00    0    1.25e+00
2007 04 26  2155    54216   78900      0    1.84e+00    0    1.28e+00
2007 04 26  2200    54216   79200      0    1.81e+00    0    1.26e+00
2007 04 26  2205    54216   79500      0    1.79e+00    0    1.25e+00
2007 04 26  2210    54216   79800      0    1.81e+00    0    1.27e+00
2007 04 26  2215    54216   80100      0    1.86e+00    0    1.29e+00
2007 04 26  2220    54216   80400      0    1.82e+00    0    1.28e+00
2007 04 26  2225    54216   80700      0    1.79e+00    0    1.24e+00
2007 04 26  2230    54216   81000      0    1.87e+00    0    1.30e+00
2007 04 26  2235    54216   81300      0    1.82e+00    0    1.28e+00
2007 04 26  2240    54216   81600      0    1.83e+00    0    1.27e+00
2007 04 26  2245    54216   81900      0    1.83e+00    0    1.26e+00
2007 04 26  2250    54216   82200      0    1.82e+00    0    1.29e+00
2007 04 26  2255    54216   82500      0    1.86e+00    0    1.30e+00
2007 04 26  2300    54216   82800      0    1.82e+00    0    1.27e+00
2007 04 26  2305    54216   83100      0    1.81e+00    0    1.27e+00
2007 04 26  2310    54216   83400      0    1.81e+00    0    1.27e+00
2007 04 26  2315    54216   83700      0    1.83e+00    0    1.28e+00
2007 04 26  2320    54216   84000      0    1.81e+00    0    1.27e+00
2007 04 26  2325    54216   84300      0    1.86e+00    0    1.29e+00
2007 04 26  2330    54216   84600      0    1.81e+00    0    1.28e+00
2007 04 26  2335    54216   84900      0    1.80e+00    0    1.27e+00
2007 04 26  2340    54216   85200      0    1.83e+00    0    1.28e+00
2007 04 26  2345    54216   85500      0    1.84e+00    0    1.29e+00
2007 04 26  2350    54216   85800      0    1.86e+00    0    1.31e+00
2007 04 26  2355    54216   86100      0    1.82e+00    0    1.27e+00
