:Data_list: 20070518_ace_sis_5m.txt
:Created: 2007 May 19 0011 UT
# Prepared by the U.S. Dept. of Commerce, NOAA, Space Environment Center.
# Please send comments and suggestions to SEC.Webmaster@noaa.gov 
# 
# Units: proton flux p/cs2-sec-ster
# Status(S): 0 = nominal data, 1 to 8 = bad data record, 9 = no data
# Missing data values: -1.00e+05
# Source: ACE Satellite - Solar Isotope Spectrometer
#
# 5-minute averaged Real-time Integral Flux of High-energy Solar Protons
# 
#                 Modified Seconds
# UT Date   Time   Julian  of the      ---- Integral Proton Flux ----
# YR MO DA  HHMM     Day     Day       S    > 10 MeV    S    > 30 MeV
#--------------------------------------------------------------------
2007 05 18  0000    54238       0      0    1.88e+00    0    1.31e+00
2007 05 18  0005    54238     300      0    1.91e+00    0    1.32e+00
2007 05 18  0010    54238     600      0    1.93e+00    0    1.36e+00
2007 05 18  0015    54238     900      0    1.92e+00    0    1.35e+00
2007 05 18  0020    54238    1200      0    1.90e+00    0    1.33e+00
2007 05 18  0025    54238    1500      0    1.92e+00    0    1.35e+00
2007 05 18  0030    54238    1800      0    1.90e+00    0    1.34e+00
2007 05 18  0035    54238    2100      0    1.87e+00    0    1.32e+00
2007 05 18  0040    54238    2400      0    1.89e+00    0    1.32e+00
2007 05 18  0045    54238    2700      0    1.92e+00    0    1.35e+00
2007 05 18  0050    54238    3000      0    1.91e+00    0    1.33e+00
2007 05 18  0055    54238    3300      0    1.94e+00    0    1.34e+00
2007 05 18  0100    54238    3600      0    1.94e+00    0    1.36e+00
2007 05 18  0105    54238    3900      0    1.92e+00    0    1.35e+00
2007 05 18  0110    54238    4200      0    1.96e+00    0    1.37e+00
2007 05 18  0115    54238    4500      0    1.91e+00    0    1.33e+00
2007 05 18  0120    54238    4800      0    1.94e+00    0    1.34e+00
2007 05 18  0125    54238    5100      0    1.92e+00    0    1.32e+00
2007 05 18  0130    54238    5400      0    1.91e+00    0    1.33e+00
2007 05 18  0135    54238    5700      0    1.93e+00    0    1.36e+00
2007 05 18  0140    54238    6000      0    1.92e+00    0    1.34e+00
2007 05 18  0145    54238    6300      0    1.92e+00    0    1.34e+00
2007 05 18  0150    54238    6600      0    1.92e+00    0    1.34e+00
2007 05 18  0155    54238    6900      0    1.95e+00    0    1.36e+00
2007 05 18  0200    54238    7200      0    1.92e+00    0    1.33e+00
2007 05 18  0205    54238    7500      0    1.94e+00    0    1.36e+00
2007 05 18  0210    54238    7800      0    1.90e+00    0    1.33e+00
2007 05 18  0215    54238    8100      0    1.91e+00    0    1.33e+00
2007 05 18  0220    54238    8400      0    1.91e+00    0    1.34e+00
2007 05 18  0225    54238    8700      0    1.89e+00    0    1.32e+00
2007 05 18  0230    54238    9000      0    1.92e+00    0    1.33e+00
2007 05 18  0235    54238    9300      0    1.88e+00    0    1.32e+00
2007 05 18  0240    54238    9600      0    1.91e+00    0    1.34e+00
2007 05 18  0245    54238    9900      0    1.95e+00    0    1.36e+00
2007 05 18  0250    54238   10200      0    1.92e+00    0    1.34e+00
2007 05 18  0255    54238   10500      0    1.96e+00    0    1.37e+00
2007 05 18  0300    54238   10800      0    1.94e+00    0    1.34e+00
2007 05 18  0305    54238   11100      0    1.91e+00    0    1.35e+00
2007 05 18  0310    54238   11400      0    1.86e+00    0    1.29e+00
2007 05 18  0315    54238   11700      0    1.89e+00    0    1.32e+00
2007 05 18  0320    54238   12000      0    1.88e+00    0    1.31e+00
2007 05 18  0325    54238   12300      0    1.89e+00    0    1.32e+00
2007 05 18  0330    54238   12600      0    1.92e+00    0    1.34e+00
2007 05 18  0335    54238   12900      0    1.93e+00    0    1.35e+00
2007 05 18  0340    54238   13200      0    1.90e+00    0    1.34e+00
2007 05 18  0345    54238   13500      0    1.94e+00    0    1.36e+00
2007 05 18  0350    54238   13800      0    1.91e+00    0    1.34e+00
2007 05 18  0355    54238   14100      0    1.90e+00    0    1.33e+00
2007 05 18  0400    54238   14400      0    1.92e+00    0    1.34e+00
2007 05 18  0405    54238   14700      0    1.90e+00    0    1.33e+00
2007 05 18  0410    54238   15000      0    1.87e+00    0    1.29e+00
2007 05 18  0415    54238   15300      0    1.89e+00    0    1.33e+00
2007 05 18  0420    54238   15600      0    1.92e+00    0    1.33e+00
2007 05 18  0425    54238   15900      0    1.90e+00    0    1.33e+00
2007 05 18  0430    54238   16200      0    1.89e+00    0    1.32e+00
2007 05 18  0435    54238   16500      0    1.93e+00    0    1.35e+00
2007 05 18  0440    54238   16800      0    1.93e+00    0    1.35e+00
2007 05 18  0445    54238   17100      0    1.91e+00    0    1.34e+00
2007 05 18  0450    54238   17400      0    1.94e+00    0    1.36e+00
2007 05 18  0455    54238   17700      0    1.93e+00    0    1.35e+00
2007 05 18  0500    54238   18000      0    1.92e+00    0    1.35e+00
2007 05 18  0505    54238   18300      0    1.92e+00    0    1.35e+00
2007 05 18  0510    54238   18600      0    1.92e+00    0    1.34e+00
2007 05 18  0515    54238   18900      0    1.93e+00    0    1.34e+00
2007 05 18  0520    54238   19200      0    1.94e+00    0    1.35e+00
2007 05 18  0525    54238   19500      0    1.92e+00    0    1.34e+00
2007 05 18  0530    54238   19800      0    1.93e+00    0    1.35e+00
2007 05 18  0535    54238   20100      0    1.91e+00    0    1.32e+00
2007 05 18  0540    54238   20400      0    1.91e+00    0    1.35e+00
2007 05 18  0545    54238   20700      0    1.90e+00    0    1.32e+00
2007 05 18  0550    54238   21000      0    1.91e+00    0    1.35e+00
2007 05 18  0555    54238   21300      0    1.90e+00    0    1.33e+00
2007 05 18  0600    54238   21600      0    1.89e+00    0    1.32e+00
2007 05 18  0605    54238   21900      0    1.93e+00    0    1.35e+00
2007 05 18  0610    54238   22200      0    1.94e+00    0    1.36e+00
2007 05 18  0615    54238   22500      0    1.94e+00    0    1.36e+00
2007 05 18  0620    54238   22800      0    1.89e+00    0    1.32e+00
2007 05 18  0625    54238   23100      0    1.94e+00    0    1.34e+00
2007 05 18  0630    54238   23400      0    1.93e+00    0    1.35e+00
2007 05 18  0635    54238   23700      0    1.90e+00    0    1.32e+00
2007 05 18  0640    54238   24000      0    1.91e+00    0    1.33e+00
2007 05 18  0645    54238   24300      0    1.94e+00    0    1.35e+00
2007 05 18  0650    54238   24600      0    1.88e+00    0    1.32e+00
2007 05 18  0655    54238   24900      0    1.91e+00    0    1.33e+00
2007 05 18  0700    54238   25200      0    1.88e+00    0    1.32e+00
2007 05 18  0705    54238   25500      0    1.92e+00    0    1.34e+00
2007 05 18  0710    54238   25800      0    1.93e+00    0    1.35e+00
2007 05 18  0715    54238   26100      0    1.91e+00    0    1.33e+00
2007 05 18  0720    54238   26400      0    1.94e+00    0    1.35e+00
2007 05 18  0725    54238   26700      0    1.93e+00    0    1.36e+00
2007 05 18  0730    54238   27000      0    1.94e+00    0    1.36e+00
2007 05 18  0735    54238   27300      0    1.87e+00    0    1.33e+00
2007 05 18  0740    54238   27600      0    1.94e+00    0    1.35e+00
2007 05 18  0745    54238   27900      0    1.90e+00    0    1.32e+00
2007 05 18  0750    54238   28200      0    1.78e+00    0    1.23e+00
2007 05 18  0755    54238   28500      0    1.93e+00    0    1.34e+00
2007 05 18  0800    54238   28800      0    1.90e+00    0    1.32e+00
2007 05 18  0805    54238   29100      0    1.91e+00    0    1.36e+00
2007 05 18  0810    54238   29400      0    1.94e+00    0    1.35e+00
2007 05 18  0815    54238   29700      0    1.88e+00    0    1.31e+00
2007 05 18  0820    54238   30000      0    1.95e+00    0    1.36e+00
2007 05 18  0825    54238   30300      0    1.90e+00    0    1.33e+00
2007 05 18  0830    54238   30600      0    1.97e+00    0    1.39e+00
2007 05 18  0835    54238   30900      0    1.93e+00    0    1.35e+00
2007 05 18  0840    54238   31200      0    1.96e+00    0    1.38e+00
2007 05 18  0845    54238   31500      0    1.95e+00    0    1.36e+00
2007 05 18  0850    54238   31800      0    1.94e+00    0    1.35e+00
2007 05 18  0855    54238   32100      0    1.86e+00    0    1.30e+00
2007 05 18  0900    54238   32400      0    1.92e+00    0    1.35e+00
2007 05 18  0905    54238   32700      0    1.95e+00    0    1.37e+00
2007 05 18  0910    54238   33000      0    1.94e+00    0    1.36e+00
2007 05 18  0915    54238   33300      0    1.95e+00    0    1.35e+00
2007 05 18  0920    54238   33600      0    1.93e+00    0    1.35e+00
2007 05 18  0925    54238   33900      0    1.90e+00    0    1.33e+00
2007 05 18  0930    54238   34200      0    1.92e+00    0    1.35e+00
2007 05 18  0935    54238   34500      0    1.92e+00    0    1.34e+00
2007 05 18  0940    54238   34800      0    1.95e+00    0    1.36e+00
2007 05 18  0945    54238   35100      0    1.91e+00    0    1.34e+00
2007 05 18  0950    54238   35400      0    1.86e+00    0    1.30e+00
2007 05 18  0955    54238   35700      0    1.94e+00    0    1.34e+00
2007 05 18  1000    54238   36000      0    1.92e+00    0    1.35e+00
2007 05 18  1005    54238   36300      0    1.94e+00    0    1.35e+00
2007 05 18  1010    54238   36600      0    1.81e+00    0    1.27e+00
2007 05 18  1015    54238   36900      0    1.88e+00    0    1.31e+00
2007 05 18  1020    54238   37200      0    1.88e+00    0    1.31e+00
2007 05 18  1025    54238   37500      0    1.90e+00    0    1.34e+00
2007 05 18  1030    54238   37800      0    1.90e+00    0    1.32e+00
2007 05 18  1035    54238   38100      0    1.93e+00    0    1.36e+00
2007 05 18  1040    54238   38400      0    1.92e+00    0    1.34e+00
2007 05 18  1045    54238   38700      0    1.93e+00    0    1.36e+00
2007 05 18  1050    54238   39000      0    1.95e+00    0    1.37e+00
2007 05 18  1055    54238   39300      0    1.92e+00    0    1.35e+00
2007 05 18  1100    54238   39600      0    1.92e+00    0    1.33e+00
2007 05 18  1105    54238   39900      0    1.89e+00    0    1.33e+00
2007 05 18  1110    54238   40200      0    1.87e+00    0    1.31e+00
2007 05 18  1115    54238   40500      0    1.90e+00    0    1.33e+00
2007 05 18  1120    54238   40800      0    1.93e+00    0    1.36e+00
2007 05 18  1125    54238   41100      0    1.87e+00    0    1.29e+00
2007 05 18  1130    54238   41400      0    1.87e+00    0    1.31e+00
2007 05 18  1135    54238   41700      0    1.92e+00    0    1.34e+00
2007 05 18  1140    54238   42000      0    1.95e+00    0    1.37e+00
2007 05 18  1145    54238   42300      0    1.94e+00    0    1.33e+00
2007 05 18  1150    54238   42600      0    1.90e+00    0    1.33e+00
2007 05 18  1155    54238   42900      0    1.92e+00    0    1.34e+00
2007 05 18  1200    54238   43200      0    1.94e+00    0    1.36e+00
2007 05 18  1205    54238   43500      0    1.90e+00    0    1.33e+00
2007 05 18  1210    54238   43800      0    1.90e+00    0    1.32e+00
2007 05 18  1215    54238   44100      0    1.92e+00    0    1.34e+00
2007 05 18  1220    54238   44400      0    1.85e+00    0    1.30e+00
2007 05 18  1225    54238   44700      0    1.87e+00    0    1.31e+00
2007 05 18  1230    54238   45000      0    1.89e+00    0    1.32e+00
2007 05 18  1235    54238   45300      0    1.90e+00    0    1.32e+00
2007 05 18  1240    54238   45600      0    1.88e+00    0    1.31e+00
2007 05 18  1245    54238   45900      0    1.94e+00    0    1.36e+00
2007 05 18  1250    54238   46200      0    1.89e+00    0    1.34e+00
2007 05 18  1255    54238   46500      0    1.88e+00    0    1.32e+00
2007 05 18  1300    54238   46800      0    1.90e+00    0    1.33e+00
2007 05 18  1305    54238   47100      0    1.85e+00    0    1.30e+00
2007 05 18  1310    54238   47400      0    1.89e+00    0    1.32e+00
2007 05 18  1315    54238   47700      0    1.81e+00    0    1.25e+00
2007 05 18  1320    54238   48000      0    1.86e+00    0    1.31e+00
2007 05 18  1325    54238   48300      0    1.86e+00    0    1.29e+00
2007 05 18  1330    54238   48600      0    1.87e+00    0    1.30e+00
2007 05 18  1335    54238   48900      0    1.79e+00    0    1.25e+00
2007 05 18  1340    54238   49200      0    1.85e+00    0    1.28e+00
2007 05 18  1345    54238   49500      0    1.87e+00    0    1.31e+00
2007 05 18  1350    54238   49800      0    1.89e+00    0    1.32e+00
2007 05 18  1355    54238   50100      0    1.94e+00    0    1.37e+00
2007 05 18  1400    54238   50400      0    1.91e+00    0    1.33e+00
2007 05 18  1405    54238   50700      0    1.87e+00    0    1.32e+00
2007 05 18  1410    54238   51000      0    1.87e+00    0    1.31e+00
2007 05 18  1415    54238   51300      0    1.85e+00    0    1.30e+00
2007 05 18  1420    54238   51600      0    1.88e+00    0    1.32e+00
2007 05 18  1425    54238   51900      0    1.86e+00    0    1.31e+00
2007 05 18  1430    54238   52200      0    1.90e+00    0    1.32e+00
2007 05 18  1435    54238   52500      0    1.90e+00    0    1.32e+00
2007 05 18  1440    54238   52800      0    1.86e+00    0    1.31e+00
2007 05 18  1445    54238   53100      0    1.89e+00    0    1.33e+00
2007 05 18  1450    54238   53400      0    1.90e+00    0    1.34e+00
2007 05 18  1455    54238   53700      0    1.88e+00    0    1.31e+00
2007 05 18  1500    54238   54000      0    1.88e+00    0    1.30e+00
2007 05 18  1505    54238   54300      0    1.92e+00    0    1.33e+00
2007 05 18  1510    54238   54600      0    1.86e+00    0    1.29e+00
2007 05 18  1515    54238   54900      0    1.87e+00    0    1.30e+00
2007 05 18  1520    54238   55200      0    1.88e+00    0    1.32e+00
2007 05 18  1525    54238   55500      0    1.88e+00    0    1.32e+00
2007 05 18  1530    54238   55800      0    1.87e+00    0    1.31e+00
2007 05 18  1535    54238   56100      0    1.87e+00    0    1.31e+00
2007 05 18  1540    54238   56400      0    1.88e+00    0    1.30e+00
2007 05 18  1545    54238   56700      0    1.85e+00    0    1.30e+00
2007 05 18  1550    54238   57000      0    1.87e+00    0    1.31e+00
2007 05 18  1555    54238   57300      0    1.82e+00    0    1.25e+00
2007 05 18  1600    54238   57600      0    1.86e+00    0    1.30e+00
2007 05 18  1605    54238   57900      0    1.88e+00    0    1.32e+00
2007 05 18  1610    54238   58200      0    1.88e+00    0    1.30e+00
2007 05 18  1615    54238   58500      0    1.86e+00    0    1.30e+00
2007 05 18  1620    54238   58800      0    1.85e+00    0    1.29e+00
2007 05 18  1625    54238   59100      0    1.88e+00    0    1.32e+00
2007 05 18  1630    54238   59400      0    1.89e+00    0    1.32e+00
2007 05 18  1635    54238   59700      0    1.87e+00    0    1.31e+00
2007 05 18  1640    54238   60000      0    1.88e+00    0    1.33e+00
2007 05 18  1645    54238   60300      0    1.85e+00    0    1.29e+00
2007 05 18  1650    54238   60600      0    1.85e+00    0    1.29e+00
2007 05 18  1655    54238   60900      0    1.85e+00    0    1.30e+00
2007 05 18  1700    54238   61200      0    1.83e+00    0    1.28e+00
2007 05 18  1705    54238   61500      0    1.86e+00    0    1.30e+00
2007 05 18  1710    54238   61800      0    1.87e+00    0    1.31e+00
2007 05 18  1715    54238   62100      0    1.78e+00    0    1.24e+00
2007 05 18  1720    54238   62400      0    1.90e+00    0    1.32e+00
2007 05 18  1725    54238   62700      0    1.84e+00    0    1.29e+00
2007 05 18  1730    54238   63000      0    1.83e+00    0    1.27e+00
2007 05 18  1735    54238   63300      0    1.86e+00    0    1.31e+00
2007 05 18  1740    54238   63600      0    1.84e+00    0    1.30e+00
2007 05 18  1745    54238   63900      0    1.90e+00    0    1.33e+00
2007 05 18  1750    54238   64200      0    1.82e+00    0    1.27e+00
2007 05 18  1755    54238   64500      0    1.80e+00    0    1.25e+00
2007 05 18  1800    54238   64800      0    1.83e+00    0    1.28e+00
2007 05 18  1805    54238   65100      0    1.85e+00    0    1.31e+00
2007 05 18  1810    54238   65400      0    1.86e+00    0    1.30e+00
2007 05 18  1815    54238   65700      0    1.87e+00    0    1.32e+00
2007 05 18  1820    54238   66000      0    1.81e+00    0    1.27e+00
2007 05 18  1825    54238   66300      0    1.86e+00    0    1.29e+00
2007 05 18  1830    54238   66600      0    1.88e+00    0    1.33e+00
2007 05 18  1835    54238   66900      0    1.88e+00    0    1.32e+00
2007 05 18  1840    54238   67200      0    1.89e+00    0    1.31e+00
2007 05 18  1845    54238   67500      0    1.87e+00    0    1.31e+00
2007 05 18  1850    54238   67800      0    1.84e+00    0    1.29e+00
2007 05 18  1855    54238   68100      0    1.88e+00    0    1.31e+00
2007 05 18  1900    54238   68400      0    1.87e+00    0    1.31e+00
2007 05 18  1905    54238   68700      0    1.84e+00    0    1.28e+00
2007 05 18  1910    54238   69000      0    1.85e+00    0    1.29e+00
2007 05 18  1915    54238   69300      0    1.89e+00    0    1.33e+00
2007 05 18  1920    54238   69600      0    1.82e+00    0    1.27e+00
2007 05 18  1925    54238   69900      0    1.88e+00    0    1.31e+00
2007 05 18  1930    54238   70200      0    1.85e+00    0    1.29e+00
2007 05 18  1935    54238   70500      0    1.89e+00    0    1.32e+00
2007 05 18  1940    54238   70800      0    1.88e+00    0    1.31e+00
2007 05 18  1945    54238   71100      0    1.91e+00    0    1.34e+00
2007 05 18  1950    54238   71400      0    1.80e+00    0    1.25e+00
2007 05 18  1955    54238   71700      0    1.84e+00    0    1.28e+00
2007 05 18  2000    54238   72000      0    1.86e+00    0    1.30e+00
2007 05 18  2005    54238   72300      0    1.87e+00    0    1.29e+00
2007 05 18  2010    54238   72600      0    1.83e+00    0    1.28e+00
2007 05 18  2015    54238   72900      0    1.85e+00    0    1.30e+00
2007 05 18  2020    54238   73200      0    1.89e+00    0    1.32e+00
2007 05 18  2025    54238   73500      0    1.86e+00    0    1.30e+00
2007 05 18  2030    54238   73800      0    1.84e+00    0    1.29e+00
2007 05 18  2035    54238   74100      0    1.82e+00    0    1.27e+00
2007 05 18  2040    54238   74400      0    1.87e+00    0    1.31e+00
2007 05 18  2045    54238   74700      0    1.88e+00    0    1.30e+00
2007 05 18  2050    54238   75000      0    1.91e+00    0    1.34e+00
2007 05 18  2055    54238   75300      0    1.91e+00    0    1.34e+00
2007 05 18  2100    54238   75600      0    1.86e+00    0    1.30e+00
2007 05 18  2105    54238   75900      0    1.88e+00    0    1.31e+00
2007 05 18  2110    54238   76200      0    1.85e+00    0    1.29e+00
2007 05 18  2115    54238   76500      0    1.91e+00    0    1.33e+00
2007 05 18  2120    54238   76800      0    1.84e+00    0    1.27e+00
2007 05 18  2125    54238   77100      0    1.82e+00    0    1.28e+00
2007 05 18  2130    54238   77400      0    1.86e+00    0    1.30e+00
2007 05 18  2135    54238   77700      0    1.87e+00    0    1.30e+00
2007 05 18  2140    54238   78000      0    1.87e+00    0    1.30e+00
2007 05 18  2145    54238   78300      0    1.82e+00    0    1.28e+00
2007 05 18  2150    54238   78600      0    1.84e+00    0    1.30e+00
2007 05 18  2155    54238   78900      0    1.84e+00    0    1.29e+00
2007 05 18  2200    54238   79200      0    1.83e+00    0    1.29e+00
2007 05 18  2205    54238   79500      0    1.88e+00    0    1.32e+00
2007 05 18  2210    54238   79800      0    1.86e+00    0    1.31e+00
2007 05 18  2215    54238   80100      0    1.84e+00    0    1.31e+00
2007 05 18  2220    54238   80400      0    1.85e+00    0    1.29e+00
2007 05 18  2225    54238   80700      0    1.85e+00    0    1.29e+00
2007 05 18  2230    54238   81000      0    1.87e+00    0    1.31e+00
2007 05 18  2235    54238   81300      0    1.85e+00    0    1.30e+00
2007 05 18  2240    54238   81600      0    1.83e+00    0    1.27e+00
2007 05 18  2245    54238   81900      0    1.86e+00    0    1.30e+00
2007 05 18  2250    54238   82200      0    1.90e+00    0    1.34e+00
2007 05 18  2255    54238   82500      0    1.87e+00    0    1.30e+00
2007 05 18  2300    54238   82800      0    1.82e+00    0    1.27e+00
2007 05 18  2305    54238   83100      0    1.85e+00    0    1.31e+00
2007 05 18  2310    54238   83400      0    1.88e+00    0    1.31e+00
2007 05 18  2315    54238   83700      0    1.88e+00    0    1.31e+00
2007 05 18  2320    54238   84000      0    1.92e+00    0    1.35e+00
2007 05 18  2325    54238   84300      0    1.86e+00    0    1.30e+00
2007 05 18  2330    54238   84600      0    1.86e+00    0    1.30e+00
2007 05 18  2335    54238   84900      0    1.87e+00    0    1.31e+00
2007 05 18  2340    54238   85200      0    1.86e+00    0    1.30e+00
2007 05 18  2345    54238   85500      0    1.89e+00    0    1.31e+00
2007 05 18  2350    54238   85800      0    1.84e+00    0    1.28e+00
2007 05 18  2355    54238   86100      0    1.86e+00    0    1.30e+00
