:Data_list: 20070309_ace_sis_5m.txt
:Created: 2007 Mar 10 0011 UT
# Prepared by the U.S. Dept. of Commerce, NOAA, Space Environment Center.
# Please send comments and suggestions to SEC.Webmaster@noaa.gov 
# 
# Units: proton flux p/cs2-sec-ster
# Status(S): 0 = nominal data, 1 to 8 = bad data record, 9 = no data
# Missing data values: -1.00e+05
# Source: ACE Satellite - Solar Isotope Spectrometer
#
# 5-minute averaged Real-time Integral Flux of High-energy Solar Protons
# 
#                 Modified Seconds
# UT Date   Time   Julian  of the      ---- Integral Proton Flux ----
# YR MO DA  HHMM     Day     Day       S    > 10 MeV    S    > 30 MeV
#--------------------------------------------------------------------
2007 03 09  0000    54168       0      0    1.77e+00    0    1.23e+00
2007 03 09  0005    54168     300      0    1.77e+00    0    1.24e+00
2007 03 09  0010    54168     600      0    1.77e+00    0    1.23e+00
2007 03 09  0015    54168     900      0    1.77e+00    0    1.24e+00
2007 03 09  0020    54168    1200      0    1.76e+00    0    1.22e+00
2007 03 09  0025    54168    1500      0    1.81e+00    0    1.27e+00
2007 03 09  0030    54168    1800      0    1.77e+00    0    1.24e+00
2007 03 09  0035    54168    2100      0    1.77e+00    0    1.24e+00
2007 03 09  0040    54168    2400      0    1.78e+00    0    1.25e+00
2007 03 09  0045    54168    2700      0    1.78e+00    0    1.24e+00
2007 03 09  0050    54168    3000      0    1.76e+00    0    1.23e+00
2007 03 09  0055    54168    3300      0    1.77e+00    0    1.25e+00
2007 03 09  0100    54168    3600      0    1.77e+00    0    1.23e+00
2007 03 09  0105    54168    3900      0    1.74e+00    0    1.20e+00
2007 03 09  0110    54168    4200      0    1.75e+00    0    1.22e+00
2007 03 09  0115    54168    4500      0    1.77e+00    0    1.23e+00
2007 03 09  0120    54168    4800      0    1.77e+00    0    1.24e+00
2007 03 09  0125    54168    5100      0    1.79e+00    0    1.25e+00
2007 03 09  0130    54168    5400      0    1.78e+00    0    1.25e+00
2007 03 09  0135    54168    5700      0    1.78e+00    0    1.24e+00
2007 03 09  0140    54168    6000      0    1.73e+00    0    1.21e+00
2007 03 09  0145    54168    6300      0    1.77e+00    0    1.25e+00
2007 03 09  0150    54168    6600      0    1.74e+00    0    1.21e+00
2007 03 09  0155    54168    6900      0    1.77e+00    0    1.23e+00
2007 03 09  0200    54168    7200      0    1.75e+00    0    1.22e+00
2007 03 09  0205    54168    7500      0    1.76e+00    0    1.23e+00
2007 03 09  0210    54168    7800      0    1.79e+00    0    1.25e+00
2007 03 09  0215    54168    8100      9   -1.00e+05    9   -1.00e+05
2007 03 09  0220    54168    8400      9   -1.00e+05    9   -1.00e+05
2007 03 09  0225    54168    8700      9   -1.00e+05    9   -1.00e+05
2007 03 09  0230    54168    9000      9   -1.00e+05    9   -1.00e+05
2007 03 09  0235    54168    9300      9   -1.00e+05    9   -1.00e+05
2007 03 09  0240    54168    9600      9   -1.00e+05    9   -1.00e+05
2007 03 09  0245    54168    9900      9   -1.00e+05    9   -1.00e+05
2007 03 09  0250    54168   10200      0    1.73e+00    0    1.21e+00
2007 03 09  0255    54168   10500      0    1.79e+00    0    1.25e+00
2007 03 09  0300    54168   10800      0    1.76e+00    0    1.22e+00
2007 03 09  0305    54168   11100      0    1.78e+00    0    1.25e+00
2007 03 09  0310    54168   11400      0    1.75e+00    0    1.23e+00
2007 03 09  0315    54168   11700      0    1.75e+00    0    1.22e+00
2007 03 09  0320    54168   12000      0    1.79e+00    0    1.25e+00
2007 03 09  0325    54168   12300      0    1.77e+00    0    1.23e+00
2007 03 09  0330    54168   12600      0    1.77e+00    0    1.23e+00
2007 03 09  0335    54168   12900      0    1.76e+00    0    1.23e+00
2007 03 09  0340    54168   13200      0    1.78e+00    0    1.25e+00
2007 03 09  0345    54168   13500      0    1.76e+00    0    1.23e+00
2007 03 09  0350    54168   13800      0    1.78e+00    0    1.24e+00
2007 03 09  0355    54168   14100      0    1.79e+00    0    1.27e+00
2007 03 09  0400    54168   14400      0    1.76e+00    0    1.22e+00
2007 03 09  0405    54168   14700      0    1.78e+00    0    1.26e+00
2007 03 09  0410    54168   15000      0    1.78e+00    0    1.24e+00
2007 03 09  0415    54168   15300      0    1.80e+00    0    1.27e+00
2007 03 09  0420    54168   15600      0    1.79e+00    0    1.25e+00
2007 03 09  0425    54168   15900      0    1.83e+00    0    1.28e+00
2007 03 09  0430    54168   16200      0    1.80e+00    0    1.26e+00
2007 03 09  0435    54168   16500      0    1.75e+00    0    1.23e+00
2007 03 09  0440    54168   16800      0    1.76e+00    0    1.23e+00
2007 03 09  0445    54168   17100      0    1.80e+00    0    1.27e+00
2007 03 09  0450    54168   17400      0    1.71e+00    0    1.20e+00
2007 03 09  0455    54168   17700      0    1.74e+00    0    1.22e+00
2007 03 09  0500    54168   18000      0    1.79e+00    0    1.25e+00
2007 03 09  0505    54168   18300      0    1.77e+00    0    1.24e+00
2007 03 09  0510    54168   18600      0    1.74e+00    0    1.22e+00
2007 03 09  0515    54168   18900      0    1.78e+00    0    1.25e+00
2007 03 09  0520    54168   19200      0    1.77e+00    0    1.23e+00
2007 03 09  0525    54168   19500      9   -1.00e+05    9   -1.00e+05
2007 03 09  0530    54168   19800      9   -1.00e+05    9   -1.00e+05
2007 03 09  0535    54168   20100      9   -1.00e+05    9   -1.00e+05
2007 03 09  0540    54168   20400      9   -1.00e+05    9   -1.00e+05
2007 03 09  0545    54168   20700      0    1.77e+00    0    1.23e+00
2007 03 09  0550    54168   21000      0    1.78e+00    0    1.24e+00
2007 03 09  0555    54168   21300      0    1.78e+00    0    1.25e+00
2007 03 09  0600    54168   21600      0    1.80e+00    0    1.27e+00
2007 03 09  0605    54168   21900      0    1.77e+00    0    1.25e+00
2007 03 09  0610    54168   22200      0    1.76e+00    0    1.24e+00
2007 03 09  0615    54168   22500      0    1.81e+00    0    1.27e+00
2007 03 09  0620    54168   22800      0    1.78e+00    0    1.25e+00
2007 03 09  0625    54168   23100      0    1.79e+00    0    1.26e+00
2007 03 09  0630    54168   23400      0    1.77e+00    0    1.22e+00
2007 03 09  0635    54168   23700      0    1.80e+00    0    1.27e+00
2007 03 09  0640    54168   24000      0    1.79e+00    0    1.25e+00
2007 03 09  0645    54168   24300      0    1.78e+00    0    1.25e+00
2007 03 09  0650    54168   24600      0    1.71e+00    0    1.19e+00
2007 03 09  0655    54168   24900      0    1.74e+00    0    1.22e+00
2007 03 09  0700    54168   25200      0    1.75e+00    0    1.23e+00
2007 03 09  0705    54168   25500      0    1.81e+00    0    1.27e+00
2007 03 09  0710    54168   25800      0    1.77e+00    0    1.24e+00
2007 03 09  0715    54168   26100      0    1.70e+00    0    1.20e+00
2007 03 09  0720    54168   26400      0    1.77e+00    0    1.25e+00
2007 03 09  0725    54168   26700      0    1.74e+00    0    1.20e+00
2007 03 09  0730    54168   27000      0    1.74e+00    0    1.22e+00
2007 03 09  0735    54168   27300      0    1.75e+00    0    1.23e+00
2007 03 09  0740    54168   27600      0    1.76e+00    0    1.23e+00
2007 03 09  0745    54168   27900      0    1.73e+00    0    1.22e+00
2007 03 09  0750    54168   28200      0    1.80e+00    0    1.27e+00
2007 03 09  0755    54168   28500      0    1.78e+00    0    1.25e+00
2007 03 09  0800    54168   28800      0    1.81e+00    0    1.27e+00
2007 03 09  0805    54168   29100      0    1.77e+00    0    1.24e+00
2007 03 09  0810    54168   29400      0    1.79e+00    0    1.26e+00
2007 03 09  0815    54168   29700      0    1.75e+00    0    1.23e+00
2007 03 09  0820    54168   30000      0    1.75e+00    0    1.23e+00
2007 03 09  0825    54168   30300      0    1.78e+00    0    1.25e+00
2007 03 09  0830    54168   30600      0    1.73e+00    0    1.22e+00
2007 03 09  0835    54168   30900      0    1.81e+00    0    1.27e+00
2007 03 09  0840    54168   31200      0    1.82e+00    0    1.28e+00
2007 03 09  0845    54168   31500      0    1.75e+00    0    1.23e+00
2007 03 09  0850    54168   31800      0    1.77e+00    0    1.23e+00
2007 03 09  0855    54168   32100      0    1.77e+00    0    1.23e+00
2007 03 09  0900    54168   32400      0    1.78e+00    0    1.24e+00
2007 03 09  0905    54168   32700      0    1.79e+00    0    1.25e+00
2007 03 09  0910    54168   33000      0    1.75e+00    0    1.22e+00
2007 03 09  0915    54168   33300      0    1.77e+00    0    1.23e+00
2007 03 09  0920    54168   33600      0    1.77e+00    0    1.24e+00
2007 03 09  0925    54168   33900      0    1.81e+00    0    1.28e+00
2007 03 09  0930    54168   34200      0    1.78e+00    0    1.24e+00
2007 03 09  0935    54168   34500      0    1.80e+00    0    1.26e+00
2007 03 09  0940    54168   34800      0    1.76e+00    0    1.22e+00
2007 03 09  0945    54168   35100      0    1.77e+00    0    1.24e+00
2007 03 09  0950    54168   35400      0    1.75e+00    0    1.23e+00
2007 03 09  0955    54168   35700      0    1.79e+00    0    1.25e+00
2007 03 09  1000    54168   36000      0    1.79e+00    0    1.27e+00
2007 03 09  1005    54168   36300      0    1.75e+00    0    1.23e+00
2007 03 09  1010    54168   36600      0    1.78e+00    0    1.25e+00
2007 03 09  1015    54168   36900      0    1.75e+00    0    1.22e+00
2007 03 09  1020    54168   37200      0    1.78e+00    0    1.23e+00
2007 03 09  1025    54168   37500      0    1.74e+00    0    1.21e+00
2007 03 09  1030    54168   37800      0    1.76e+00    0    1.23e+00
2007 03 09  1035    54168   38100      0    1.76e+00    0    1.23e+00
2007 03 09  1040    54168   38400      0    1.75e+00    0    1.22e+00
2007 03 09  1045    54168   38700      0    1.76e+00    0    1.22e+00
2007 03 09  1050    54168   39000      0    1.79e+00    0    1.25e+00
2007 03 09  1055    54168   39300      0    1.78e+00    0    1.25e+00
2007 03 09  1100    54168   39600      0    1.76e+00    0    1.24e+00
2007 03 09  1105    54168   39900      0    1.74e+00    0    1.20e+00
2007 03 09  1110    54168   40200      0    1.80e+00    0    1.25e+00
2007 03 09  1115    54168   40500      0    1.78e+00    0    1.25e+00
2007 03 09  1120    54168   40800      0    1.78e+00    0    1.25e+00
2007 03 09  1125    54168   41100      0    1.77e+00    0    1.24e+00
2007 03 09  1130    54168   41400      0    1.74e+00    0    1.23e+00
2007 03 09  1135    54168   41700      0    1.75e+00    0    1.21e+00
2007 03 09  1140    54168   42000      0    1.75e+00    0    1.24e+00
2007 03 09  1145    54168   42300      0    1.77e+00    0    1.24e+00
2007 03 09  1150    54168   42600      0    1.79e+00    0    1.25e+00
2007 03 09  1155    54168   42900      0    1.79e+00    0    1.25e+00
2007 03 09  1200    54168   43200      0    1.75e+00    0    1.23e+00
2007 03 09  1205    54168   43500      0    1.78e+00    0    1.25e+00
2007 03 09  1210    54168   43800      0    1.77e+00    0    1.25e+00
2007 03 09  1215    54168   44100      0    1.76e+00    0    1.23e+00
2007 03 09  1220    54168   44400      0    1.75e+00    0    1.24e+00
2007 03 09  1225    54168   44700      0    1.77e+00    0    1.23e+00
2007 03 09  1230    54168   45000      0    1.79e+00    0    1.25e+00
2007 03 09  1235    54168   45300      0    1.76e+00    0    1.23e+00
2007 03 09  1240    54168   45600      0    1.76e+00    0    1.23e+00
2007 03 09  1245    54168   45900      0    1.75e+00    0    1.24e+00
2007 03 09  1250    54168   46200      0    1.78e+00    0    1.25e+00
2007 03 09  1255    54168   46500      0    1.80e+00    0    1.27e+00
2007 03 09  1300    54168   46800      0    1.76e+00    0    1.23e+00
2007 03 09  1305    54168   47100      0    1.77e+00    0    1.25e+00
2007 03 09  1310    54168   47400      0    1.73e+00    0    1.21e+00
2007 03 09  1315    54168   47700      0    1.78e+00    0    1.24e+00
2007 03 09  1320    54168   48000      0    1.77e+00    0    1.24e+00
2007 03 09  1325    54168   48300      0    1.75e+00    0    1.22e+00
2007 03 09  1330    54168   48600      0    1.75e+00    0    1.22e+00
2007 03 09  1335    54168   48900      0    1.73e+00    0    1.20e+00
2007 03 09  1340    54168   49200      0    1.77e+00    0    1.24e+00
2007 03 09  1345    54168   49500      0    1.75e+00    0    1.22e+00
2007 03 09  1350    54168   49800      0    1.75e+00    0    1.22e+00
2007 03 09  1355    54168   50100      0    1.78e+00    0    1.24e+00
2007 03 09  1400    54168   50400      0    1.72e+00    0    1.20e+00
2007 03 09  1405    54168   50700      0    1.74e+00    0    1.21e+00
2007 03 09  1410    54168   51000      0    1.77e+00    0    1.24e+00
2007 03 09  1415    54168   51300      0    1.77e+00    0    1.23e+00
2007 03 09  1420    54168   51600      0    1.78e+00    0    1.25e+00
2007 03 09  1425    54168   51900      0    1.74e+00    0    1.21e+00
2007 03 09  1430    54168   52200      0    1.75e+00    0    1.23e+00
2007 03 09  1435    54168   52500      0    1.80e+00    0    1.28e+00
2007 03 09  1440    54168   52800      0    1.79e+00    0    1.26e+00
2007 03 09  1445    54168   53100      0    1.76e+00    0    1.25e+00
2007 03 09  1450    54168   53400      0    1.77e+00    0    1.25e+00
2007 03 09  1455    54168   53700      0    1.78e+00    0    1.25e+00
2007 03 09  1500    54168   54000      0    1.78e+00    0    1.25e+00
2007 03 09  1505    54168   54300      0    1.79e+00    0    1.25e+00
2007 03 09  1510    54168   54600      0    1.80e+00    0    1.26e+00
2007 03 09  1515    54168   54900      0    1.75e+00    0    1.22e+00
2007 03 09  1520    54168   55200      0    1.73e+00    0    1.22e+00
2007 03 09  1525    54168   55500      0    1.76e+00    0    1.24e+00
2007 03 09  1530    54168   55800      0    1.79e+00    0    1.24e+00
2007 03 09  1535    54168   56100      0    1.76e+00    0    1.23e+00
2007 03 09  1540    54168   56400      0    1.75e+00    0    1.22e+00
2007 03 09  1545    54168   56700      0    1.77e+00    0    1.25e+00
2007 03 09  1550    54168   57000      0    1.78e+00    0    1.25e+00
2007 03 09  1555    54168   57300      0    1.75e+00    0    1.23e+00
2007 03 09  1600    54168   57600      0    1.78e+00    0    1.26e+00
2007 03 09  1605    54168   57900      0    1.73e+00    0    1.22e+00
2007 03 09  1610    54168   58200      0    1.76e+00    0    1.24e+00
2007 03 09  1615    54168   58500      0    1.70e+00    0    1.20e+00
2007 03 09  1620    54168   58800      0    1.72e+00    0    1.21e+00
2007 03 09  1625    54168   59100      0    1.75e+00    0    1.22e+00
2007 03 09  1630    54168   59400      0    1.76e+00    0    1.24e+00
2007 03 09  1635    54168   59700      0    1.73e+00    0    1.22e+00
2007 03 09  1640    54168   60000      0    1.73e+00    0    1.22e+00
2007 03 09  1645    54168   60300      0    1.75e+00    0    1.23e+00
2007 03 09  1650    54168   60600      0    1.76e+00    0    1.23e+00
2007 03 09  1655    54168   60900      0    1.74e+00    0    1.21e+00
2007 03 09  1700    54168   61200      0    1.72e+00    0    1.20e+00
2007 03 09  1705    54168   61500      0    1.75e+00    0    1.23e+00
2007 03 09  1710    54168   61800      0    1.67e+00    0    1.18e+00
2007 03 09  1715    54168   62100      0    1.75e+00    0    1.23e+00
2007 03 09  1720    54168   62400      0    1.75e+00    0    1.22e+00
2007 03 09  1725    54168   62700      0    1.75e+00    0    1.22e+00
2007 03 09  1730    54168   63000      0    1.73e+00    0    1.22e+00
2007 03 09  1735    54168   63300      0    1.76e+00    0    1.23e+00
2007 03 09  1740    54168   63600      0    1.78e+00    0    1.23e+00
2007 03 09  1745    54168   63900      0    1.74e+00    0    1.23e+00
2007 03 09  1750    54168   64200      0    1.78e+00    0    1.25e+00
2007 03 09  1755    54168   64500      0    1.78e+00    0    1.24e+00
2007 03 09  1800    54168   64800      0    1.75e+00    0    1.23e+00
2007 03 09  1805    54168   65100      0    1.77e+00    0    1.25e+00
2007 03 09  1810    54168   65400      0    1.76e+00    0    1.23e+00
2007 03 09  1815    54168   65700      0    1.74e+00    0    1.21e+00
2007 03 09  1820    54168   66000      0    1.72e+00    0    1.21e+00
2007 03 09  1825    54168   66300      0    1.73e+00    0    1.21e+00
2007 03 09  1830    54168   66600      0    1.77e+00    0    1.23e+00
2007 03 09  1835    54168   66900      0    1.72e+00    0    1.21e+00
2007 03 09  1840    54168   67200      0    1.73e+00    0    1.21e+00
2007 03 09  1845    54168   67500      0    1.76e+00    0    1.23e+00
2007 03 09  1850    54168   67800      0    1.73e+00    0    1.21e+00
2007 03 09  1855    54168   68100      0    1.76e+00    0    1.24e+00
2007 03 09  1900    54168   68400      0    1.77e+00    0    1.24e+00
2007 03 09  1905    54168   68700      0    1.77e+00    0    1.25e+00
2007 03 09  1910    54168   69000      0    1.75e+00    0    1.22e+00
2007 03 09  1915    54168   69300      0    1.72e+00    0    1.20e+00
2007 03 09  1920    54168   69600      0    1.75e+00    0    1.22e+00
2007 03 09  1925    54168   69900      0    1.77e+00    0    1.24e+00
2007 03 09  1930    54168   70200      0    1.77e+00    0    1.24e+00
2007 03 09  1935    54168   70500      0    1.75e+00    0    1.23e+00
2007 03 09  1940    54168   70800      0    1.74e+00    0    1.22e+00
2007 03 09  1945    54168   71100      0    1.77e+00    0    1.24e+00
2007 03 09  1950    54168   71400      0    1.76e+00    0    1.24e+00
2007 03 09  1955    54168   71700      0    1.76e+00    0    1.25e+00
2007 03 09  2000    54168   72000      0    1.74e+00    0    1.22e+00
2007 03 09  2005    54168   72300      0    1.74e+00    0    1.21e+00
2007 03 09  2010    54168   72600      0    1.75e+00    0    1.22e+00
2007 03 09  2015    54168   72900      0    1.73e+00    0    1.21e+00
2007 03 09  2020    54168   73200      0    1.72e+00    0    1.21e+00
2007 03 09  2025    54168   73500      0    1.78e+00    0    1.24e+00
2007 03 09  2030    54168   73800      0    1.74e+00    0    1.21e+00
2007 03 09  2035    54168   74100      0    1.75e+00    0    1.22e+00
2007 03 09  2040    54168   74400      0    1.72e+00    0    1.21e+00
2007 03 09  2045    54168   74700      0    1.77e+00    0    1.24e+00
2007 03 09  2050    54168   75000      0    1.77e+00    0    1.25e+00
2007 03 09  2055    54168   75300      0    1.74e+00    0    1.22e+00
2007 03 09  2100    54168   75600      0    1.75e+00    0    1.22e+00
2007 03 09  2105    54168   75900      0    1.79e+00    0    1.25e+00
2007 03 09  2110    54168   76200      0    1.76e+00    0    1.24e+00
2007 03 09  2115    54168   76500      0    1.77e+00    0    1.24e+00
2007 03 09  2120    54168   76800      0    1.75e+00    0    1.23e+00
2007 03 09  2125    54168   77100      0    1.78e+00    0    1.26e+00
2007 03 09  2130    54168   77400      0    1.75e+00    0    1.22e+00
2007 03 09  2135    54168   77700      0    1.75e+00    0    1.24e+00
2007 03 09  2140    54168   78000      0    1.75e+00    0    1.22e+00
2007 03 09  2145    54168   78300      0    1.74e+00    0    1.22e+00
2007 03 09  2150    54168   78600      0    1.73e+00    0    1.22e+00
2007 03 09  2155    54168   78900      0    1.74e+00    0    1.21e+00
2007 03 09  2200    54168   79200      0    1.73e+00    0    1.20e+00
2007 03 09  2205    54168   79500      0    1.74e+00    0    1.22e+00
2007 03 09  2210    54168   79800      0    1.74e+00    0    1.23e+00
2007 03 09  2215    54168   80100      0    1.77e+00    0    1.24e+00
2007 03 09  2220    54168   80400      0    1.79e+00    0    1.27e+00
2007 03 09  2225    54168   80700      0    1.74e+00    0    1.22e+00
2007 03 09  2230    54168   81000      0    1.75e+00    0    1.21e+00
2007 03 09  2235    54168   81300      0    1.75e+00    0    1.21e+00
2007 03 09  2240    54168   81600      0    1.74e+00    0    1.21e+00
2007 03 09  2245    54168   81900      0    1.75e+00    0    1.23e+00
2007 03 09  2250    54168   82200      0    1.75e+00    0    1.23e+00
2007 03 09  2255    54168   82500      0    1.76e+00    0    1.24e+00
2007 03 09  2300    54168   82800      0    1.74e+00    0    1.24e+00
2007 03 09  2305    54168   83100      0    1.75e+00    0    1.23e+00
2007 03 09  2310    54168   83400      0    1.73e+00    0    1.21e+00
2007 03 09  2315    54168   83700      0    1.76e+00    0    1.23e+00
2007 03 09  2320    54168   84000      0    1.74e+00    0    1.22e+00
2007 03 09  2325    54168   84300      0    1.74e+00    0    1.22e+00
2007 03 09  2330    54168   84600      0    1.76e+00    0    1.23e+00
2007 03 09  2335    54168   84900      0    1.71e+00    0    1.19e+00
2007 03 09  2340    54168   85200      0    1.75e+00    0    1.22e+00
2007 03 09  2345    54168   85500      0    1.76e+00    0    1.24e+00
2007 03 09  2350    54168   85800      0    1.76e+00    0    1.23e+00
2007 03 09  2355    54168   86100      0    1.73e+00    0    1.22e+00
