:Data_list: 20070212_ace_sis_5m.txt
:Created: 2007 Feb 13 0011 UT
# Prepared by the U.S. Dept. of Commerce, NOAA, Space Environment Center.
# Please send comments and suggestions to SEC.Webmaster@noaa.gov 
# 
# Units: proton flux p/cs2-sec-ster
# Status(S): 0 = nominal data, 1 to 8 = bad data record, 9 = no data
# Missing data values: -1.00e+05
# Source: ACE Satellite - Solar Isotope Spectrometer
#
# 5-minute averaged Real-time Integral Flux of High-energy Solar Protons
# 
#                 Modified Seconds
# UT Date   Time   Julian  of the      ---- Integral Proton Flux ----
# YR MO DA  HHMM     Day     Day       S    > 10 MeV    S    > 30 MeV
#--------------------------------------------------------------------
2007 02 12  0000    54143       0      0    1.76e+00    0    1.23e+00
2007 02 12  0005    54143     300      0    1.76e+00    0    1.23e+00
2007 02 12  0010    54143     600      0    1.76e+00    0    1.24e+00
2007 02 12  0015    54143     900      0    1.73e+00    0    1.21e+00
2007 02 12  0020    54143    1200      0    1.76e+00    0    1.24e+00
2007 02 12  0025    54143    1500      0    1.76e+00    0    1.24e+00
2007 02 12  0030    54143    1800      0    1.71e+00    0    1.21e+00
2007 02 12  0035    54143    2100      0    1.70e+00    0    1.19e+00
2007 02 12  0040    54143    2400      0    1.73e+00    0    1.22e+00
2007 02 12  0045    54143    2700      0    1.64e+00    0    1.15e+00
2007 02 12  0050    54143    3000      0    1.77e+00    0    1.24e+00
2007 02 12  0055    54143    3300      0    1.77e+00    0    1.23e+00
2007 02 12  0100    54143    3600      0    1.77e+00    0    1.25e+00
2007 02 12  0105    54143    3900      0    1.73e+00    0    1.21e+00
2007 02 12  0110    54143    4200      0    1.75e+00    0    1.23e+00
2007 02 12  0115    54143    4500      0    1.77e+00    0    1.23e+00
2007 02 12  0120    54143    4800      0    1.73e+00    0    1.21e+00
2007 02 12  0125    54143    5100      0    1.75e+00    0    1.24e+00
2007 02 12  0130    54143    5400      0    1.74e+00    0    1.23e+00
2007 02 12  0135    54143    5700      0    1.74e+00    0    1.22e+00
2007 02 12  0140    54143    6000      0    1.75e+00    0    1.23e+00
2007 02 12  0145    54143    6300      0    1.76e+00    0    1.23e+00
2007 02 12  0150    54143    6600      0    1.73e+00    0    1.20e+00
2007 02 12  0155    54143    6900      0    1.73e+00    0    1.21e+00
2007 02 12  0200    54143    7200      0    1.74e+00    0    1.22e+00
2007 02 12  0205    54143    7500      0    1.76e+00    0    1.22e+00
2007 02 12  0210    54143    7800      0    1.73e+00    0    1.22e+00
2007 02 12  0215    54143    8100      0    1.74e+00    0    1.22e+00
2007 02 12  0220    54143    8400      0    1.74e+00    0    1.21e+00
2007 02 12  0225    54143    8700      0    1.77e+00    0    1.23e+00
2007 02 12  0230    54143    9000      0    1.75e+00    0    1.24e+00
2007 02 12  0235    54143    9300      0    1.72e+00    0    1.21e+00
2007 02 12  0240    54143    9600      0    1.75e+00    0    1.22e+00
2007 02 12  0245    54143    9900      0    1.78e+00    0    1.24e+00
2007 02 12  0250    54143   10200      0    1.77e+00    0    1.23e+00
2007 02 12  0255    54143   10500      0    1.79e+00    0    1.25e+00
2007 02 12  0300    54143   10800      0    1.82e+00    0    1.27e+00
2007 02 12  0305    54143   11100      0    1.71e+00    0    1.20e+00
2007 02 12  0310    54143   11400      0    1.76e+00    0    1.23e+00
2007 02 12  0315    54143   11700      0    1.76e+00    0    1.22e+00
2007 02 12  0320    54143   12000      0    1.78e+00    0    1.23e+00
2007 02 12  0325    54143   12300      0    1.78e+00    0    1.25e+00
2007 02 12  0330    54143   12600      0    1.78e+00    0    1.26e+00
2007 02 12  0335    54143   12900      0    1.77e+00    0    1.24e+00
2007 02 12  0340    54143   13200      0    1.77e+00    0    1.25e+00
2007 02 12  0345    54143   13500      0    1.69e+00    0    1.18e+00
2007 02 12  0350    54143   13800      0    1.78e+00    0    1.26e+00
2007 02 12  0355    54143   14100      0    1.78e+00    0    1.25e+00
2007 02 12  0400    54143   14400      0    1.75e+00    0    1.23e+00
2007 02 12  0405    54143   14700      0    1.79e+00    0    1.24e+00
2007 02 12  0410    54143   15000      0    1.76e+00    0    1.23e+00
2007 02 12  0415    54143   15300      0    1.76e+00    0    1.23e+00
2007 02 12  0420    54143   15600      0    1.74e+00    0    1.22e+00
2007 02 12  0425    54143   15900      0    1.78e+00    0    1.25e+00
2007 02 12  0430    54143   16200      0    1.75e+00    0    1.22e+00
2007 02 12  0435    54143   16500      0    1.77e+00    0    1.23e+00
2007 02 12  0440    54143   16800      0    1.76e+00    0    1.24e+00
2007 02 12  0445    54143   17100      0    1.72e+00    0    1.22e+00
2007 02 12  0450    54143   17400      0    1.77e+00    0    1.23e+00
2007 02 12  0455    54143   17700      0    1.78e+00    0    1.26e+00
2007 02 12  0500    54143   18000      0    1.76e+00    0    1.24e+00
2007 02 12  0505    54143   18300      0    1.76e+00    0    1.23e+00
2007 02 12  0510    54143   18600      0    1.76e+00    0    1.23e+00
2007 02 12  0515    54143   18900      0    1.78e+00    0    1.25e+00
2007 02 12  0520    54143   19200      0    1.74e+00    0    1.22e+00
2007 02 12  0525    54143   19500      0    1.77e+00    0    1.23e+00
2007 02 12  0530    54143   19800      0    1.80e+00    0    1.26e+00
2007 02 12  0535    54143   20100      0    1.80e+00    0    1.27e+00
2007 02 12  0540    54143   20400      0    1.75e+00    0    1.24e+00
2007 02 12  0545    54143   20700      0    1.77e+00    0    1.24e+00
2007 02 12  0550    54143   21000      0    1.81e+00    0    1.26e+00
2007 02 12  0555    54143   21300      0    1.78e+00    0    1.25e+00
2007 02 12  0600    54143   21600      0    1.75e+00    0    1.23e+00
2007 02 12  0605    54143   21900      0    1.75e+00    0    1.22e+00
2007 02 12  0610    54143   22200      0    1.78e+00    0    1.25e+00
2007 02 12  0615    54143   22500      0    1.67e+00    0    1.16e+00
2007 02 12  0620    54143   22800      0    1.78e+00    0    1.24e+00
2007 02 12  0625    54143   23100      0    1.73e+00    0    1.21e+00
2007 02 12  0630    54143   23400      0    1.77e+00    0    1.25e+00
2007 02 12  0635    54143   23700      0    1.72e+00    0    1.20e+00
2007 02 12  0640    54143   24000      0    1.74e+00    0    1.22e+00
2007 02 12  0645    54143   24300      0    1.76e+00    0    1.24e+00
2007 02 12  0650    54143   24600      0    1.75e+00    0    1.24e+00
2007 02 12  0655    54143   24900      0    1.75e+00    0    1.21e+00
2007 02 12  0700    54143   25200      0    1.78e+00    0    1.25e+00
2007 02 12  0705    54143   25500      0    1.77e+00    0    1.26e+00
2007 02 12  0710    54143   25800      0    1.77e+00    0    1.23e+00
2007 02 12  0715    54143   26100      0    1.76e+00    0    1.25e+00
2007 02 12  0720    54143   26400      0    1.77e+00    0    1.25e+00
2007 02 12  0725    54143   26700      0    1.78e+00    0    1.24e+00
2007 02 12  0730    54143   27000      0    1.74e+00    0    1.22e+00
2007 02 12  0735    54143   27300      0    1.76e+00    0    1.24e+00
2007 02 12  0740    54143   27600      0    1.75e+00    0    1.23e+00
2007 02 12  0745    54143   27900      0    1.76e+00    0    1.23e+00
2007 02 12  0750    54143   28200      0    1.73e+00    0    1.21e+00
2007 02 12  0755    54143   28500      0    1.77e+00    0    1.24e+00
2007 02 12  0800    54143   28800      0    1.76e+00    0    1.23e+00
2007 02 12  0805    54143   29100      0    1.78e+00    0    1.25e+00
2007 02 12  0810    54143   29400      0    1.76e+00    0    1.24e+00
2007 02 12  0815    54143   29700      0    1.72e+00    0    1.20e+00
2007 02 12  0820    54143   30000      0    1.75e+00    0    1.23e+00
2007 02 12  0825    54143   30300      0    1.80e+00    0    1.26e+00
2007 02 12  0830    54143   30600      0    1.78e+00    0    1.25e+00
2007 02 12  0835    54143   30900      0    1.75e+00    0    1.23e+00
2007 02 12  0840    54143   31200      0    1.65e+00    0    1.15e+00
2007 02 12  0845    54143   31500      0    1.75e+00    0    1.22e+00
2007 02 12  0850    54143   31800      0    1.79e+00    0    1.26e+00
2007 02 12  0855    54143   32100      0    1.77e+00    0    1.25e+00
2007 02 12  0900    54143   32400      0    1.75e+00    0    1.24e+00
2007 02 12  0905    54143   32700      0    1.76e+00    0    1.24e+00
2007 02 12  0910    54143   33000      0    1.77e+00    0    1.23e+00
2007 02 12  0915    54143   33300      0    1.80e+00    0    1.26e+00
2007 02 12  0920    54143   33600      0    1.80e+00    0    1.25e+00
2007 02 12  0925    54143   33900      0    1.76e+00    0    1.23e+00
2007 02 12  0930    54143   34200      0    1.73e+00    0    1.22e+00
2007 02 12  0935    54143   34500      0    1.73e+00    0    1.22e+00
2007 02 12  0940    54143   34800      0    1.72e+00    0    1.21e+00
2007 02 12  0945    54143   35100      0    1.76e+00    0    1.24e+00
2007 02 12  0950    54143   35400      0    1.76e+00    0    1.23e+00
2007 02 12  0955    54143   35700      0    1.77e+00    0    1.24e+00
2007 02 12  1000    54143   36000      0    1.77e+00    0    1.25e+00
2007 02 12  1005    54143   36300      0    1.75e+00    0    1.23e+00
2007 02 12  1010    54143   36600      0    1.75e+00    0    1.23e+00
2007 02 12  1015    54143   36900      0    1.73e+00    0    1.22e+00
2007 02 12  1020    54143   37200      0    1.71e+00    0    1.19e+00
2007 02 12  1025    54143   37500      0    1.77e+00    0    1.24e+00
2007 02 12  1030    54143   37800      0    1.74e+00    0    1.22e+00
2007 02 12  1035    54143   38100      0    1.72e+00    0    1.21e+00
2007 02 12  1040    54143   38400      0    1.79e+00    0    1.26e+00
2007 02 12  1045    54143   38700      0    1.74e+00    0    1.22e+00
2007 02 12  1050    54143   39000      0    1.76e+00    0    1.23e+00
2007 02 12  1055    54143   39300      0    1.73e+00    0    1.21e+00
2007 02 12  1100    54143   39600      0    1.72e+00    0    1.21e+00
2007 02 12  1105    54143   39900      0    1.74e+00    0    1.22e+00
2007 02 12  1110    54143   40200      0    1.75e+00    0    1.23e+00
2007 02 12  1115    54143   40500      0    1.77e+00    0    1.26e+00
2007 02 12  1120    54143   40800      0    1.73e+00    0    1.21e+00
2007 02 12  1125    54143   41100      0    1.77e+00    0    1.23e+00
2007 02 12  1130    54143   41400      0    1.74e+00    0    1.22e+00
2007 02 12  1135    54143   41700      0    1.73e+00    0    1.22e+00
2007 02 12  1140    54143   42000      0    1.76e+00    0    1.23e+00
2007 02 12  1145    54143   42300      0    1.76e+00    0    1.24e+00
2007 02 12  1150    54143   42600      0    1.76e+00    0    1.24e+00
2007 02 12  1155    54143   42900      0    1.74e+00    0    1.23e+00
2007 02 12  1200    54143   43200      0    1.72e+00    0    1.20e+00
2007 02 12  1205    54143   43500      0    1.76e+00    0    1.22e+00
2007 02 12  1210    54143   43800      0    1.72e+00    0    1.20e+00
2007 02 12  1215    54143   44100      0    1.78e+00    0    1.25e+00
2007 02 12  1220    54143   44400      0    1.71e+00    0    1.21e+00
2007 02 12  1225    54143   44700      0    1.75e+00    0    1.22e+00
2007 02 12  1230    54143   45000      0    1.76e+00    0    1.23e+00
2007 02 12  1235    54143   45300      0    1.74e+00    0    1.22e+00
2007 02 12  1240    54143   45600      0    1.76e+00    0    1.22e+00
2007 02 12  1245    54143   45900      0    1.73e+00    0    1.22e+00
2007 02 12  1250    54143   46200      0    1.72e+00    0    1.20e+00
2007 02 12  1255    54143   46500      0    1.74e+00    0    1.22e+00
2007 02 12  1300    54143   46800      0    1.75e+00    0    1.22e+00
2007 02 12  1305    54143   47100      0    1.76e+00    0    1.23e+00
2007 02 12  1310    54143   47400      0    1.73e+00    0    1.20e+00
2007 02 12  1315    54143   47700      0    1.71e+00    0    1.21e+00
2007 02 12  1320    54143   48000      0    1.71e+00    0    1.19e+00
2007 02 12  1325    54143   48300      0    1.73e+00    0    1.22e+00
2007 02 12  1330    54143   48600      0    1.73e+00    0    1.21e+00
2007 02 12  1335    54143   48900      0    1.72e+00    0    1.20e+00
2007 02 12  1340    54143   49200      0    1.71e+00    0    1.19e+00
2007 02 12  1345    54143   49500      0    1.73e+00    0    1.21e+00
2007 02 12  1350    54143   49800      0    1.75e+00    0    1.25e+00
2007 02 12  1355    54143   50100      0    1.71e+00    0    1.20e+00
2007 02 12  1400    54143   50400      0    1.73e+00    0    1.20e+00
2007 02 12  1405    54143   50700      0    1.72e+00    0    1.21e+00
2007 02 12  1410    54143   51000      0    1.73e+00    0    1.22e+00
2007 02 12  1415    54143   51300      0    1.72e+00    0    1.21e+00
2007 02 12  1420    54143   51600      0    1.74e+00    0    1.21e+00
2007 02 12  1425    54143   51900      0    1.76e+00    0    1.24e+00
2007 02 12  1430    54143   52200      0    1.71e+00    0    1.20e+00
2007 02 12  1435    54143   52500      0    1.69e+00    0    1.18e+00
2007 02 12  1440    54143   52800      0    1.71e+00    0    1.18e+00
2007 02 12  1445    54143   53100      0    1.73e+00    0    1.21e+00
2007 02 12  1450    54143   53400      0    1.73e+00    0    1.22e+00
2007 02 12  1455    54143   53700      0    1.72e+00    0    1.20e+00
2007 02 12  1500    54143   54000      0    1.76e+00    0    1.23e+00
2007 02 12  1505    54143   54300      0    1.71e+00    0    1.20e+00
2007 02 12  1510    54143   54600      0    1.69e+00    0    1.18e+00
2007 02 12  1515    54143   54900      0    1.75e+00    0    1.22e+00
2007 02 12  1520    54143   55200      0    1.78e+00    0    1.26e+00
2007 02 12  1525    54143   55500      0    1.73e+00    0    1.22e+00
2007 02 12  1530    54143   55800      0    1.73e+00    0    1.22e+00
2007 02 12  1535    54143   56100      0    1.71e+00    0    1.22e+00
2007 02 12  1540    54143   56400      0    1.73e+00    0    1.22e+00
2007 02 12  1545    54143   56700      0    1.74e+00    0    1.23e+00
2007 02 12  1550    54143   57000      0    1.72e+00    0    1.21e+00
2007 02 12  1555    54143   57300      0    1.74e+00    0    1.22e+00
2007 02 12  1600    54143   57600      0    1.73e+00    0    1.23e+00
2007 02 12  1605    54143   57900      0    1.72e+00    0    1.22e+00
2007 02 12  1610    54143   58200      0    1.75e+00    0    1.23e+00
2007 02 12  1615    54143   58500      0    1.74e+00    0    1.23e+00
2007 02 12  1620    54143   58800      0    1.78e+00    0    1.24e+00
2007 02 12  1625    54143   59100      0    1.71e+00    0    1.20e+00
2007 02 12  1630    54143   59400      0    1.73e+00    0    1.21e+00
2007 02 12  1635    54143   59700      0    1.72e+00    0    1.20e+00
2007 02 12  1640    54143   60000      0    1.69e+00    0    1.19e+00
2007 02 12  1645    54143   60300      0    1.72e+00    0    1.20e+00
2007 02 12  1650    54143   60600      0    1.72e+00    0    1.21e+00
2007 02 12  1655    54143   60900      0    1.73e+00    0    1.21e+00
2007 02 12  1700    54143   61200      0    1.69e+00    0    1.19e+00
2007 02 12  1705    54143   61500      0    1.73e+00    0    1.22e+00
2007 02 12  1710    54143   61800      0    1.72e+00    0    1.21e+00
2007 02 12  1715    54143   62100      0    1.74e+00    0    1.23e+00
2007 02 12  1720    54143   62400      0    1.63e+00    0    1.13e+00
2007 02 12  1725    54143   62700      0    1.72e+00    0    1.21e+00
2007 02 12  1730    54143   63000      0    1.71e+00    0    1.20e+00
2007 02 12  1735    54143   63300      0    1.74e+00    0    1.21e+00
2007 02 12  1740    54143   63600      0    1.72e+00    0    1.21e+00
2007 02 12  1745    54143   63900      0    1.72e+00    0    1.19e+00
2007 02 12  1750    54143   64200      0    1.73e+00    0    1.22e+00
2007 02 12  1755    54143   64500      0    1.71e+00    0    1.21e+00
2007 02 12  1800    54143   64800      0    1.72e+00    0    1.22e+00
2007 02 12  1805    54143   65100      0    1.70e+00    0    1.18e+00
2007 02 12  1810    54143   65400      0    1.71e+00    0    1.20e+00
2007 02 12  1815    54143   65700      0    1.72e+00    0    1.21e+00
2007 02 12  1820    54143   66000      0    1.73e+00    0    1.21e+00
2007 02 12  1825    54143   66300      0    1.73e+00    0    1.21e+00
2007 02 12  1830    54143   66600      0    1.73e+00    0    1.23e+00
2007 02 12  1835    54143   66900      0    1.69e+00    0    1.19e+00
2007 02 12  1840    54143   67200      0    1.71e+00    0    1.19e+00
2007 02 12  1845    54143   67500      0    1.69e+00    0    1.19e+00
2007 02 12  1850    54143   67800      0    1.75e+00    0    1.22e+00
2007 02 12  1855    54143   68100      0    1.68e+00    0    1.18e+00
2007 02 12  1900    54143   68400      0    1.72e+00    0    1.21e+00
2007 02 12  1905    54143   68700      0    1.73e+00    0    1.22e+00
2007 02 12  1910    54143   69000      0    1.73e+00    0    1.21e+00
2007 02 12  1915    54143   69300      0    1.73e+00    0    1.23e+00
2007 02 12  1920    54143   69600      0    1.72e+00    0    1.22e+00
2007 02 12  1925    54143   69900      0    1.70e+00    0    1.19e+00
2007 02 12  1930    54143   70200      0    1.68e+00    0    1.19e+00
2007 02 12  1935    54143   70500      0    1.69e+00    0    1.19e+00
2007 02 12  1940    54143   70800      0    1.73e+00    0    1.21e+00
2007 02 12  1945    54143   71100      0    1.67e+00    0    1.15e+00
2007 02 12  1950    54143   71400      0    1.72e+00    0    1.21e+00
2007 02 12  1955    54143   71700      0    1.69e+00    0    1.18e+00
2007 02 12  2000    54143   72000      0    1.71e+00    0    1.21e+00
2007 02 12  2005    54143   72300      0    1.73e+00    0    1.21e+00
2007 02 12  2010    54143   72600      0    1.71e+00    0    1.19e+00
2007 02 12  2015    54143   72900      0    1.71e+00    0    1.20e+00
2007 02 12  2020    54143   73200      0    1.68e+00    0    1.18e+00
2007 02 12  2025    54143   73500      0    1.69e+00    0    1.18e+00
2007 02 12  2030    54143   73800      0    1.58e+00    0    1.11e+00
2007 02 12  2035    54143   74100      0    1.70e+00    0    1.21e+00
2007 02 12  2040    54143   74400      0    1.71e+00    0    1.19e+00
2007 02 12  2045    54143   74700      0    1.69e+00    0    1.18e+00
2007 02 12  2050    54143   75000      0    1.64e+00    0    1.14e+00
2007 02 12  2055    54143   75300      0    1.69e+00    0    1.18e+00
2007 02 12  2100    54143   75600      0    1.69e+00    0    1.18e+00
2007 02 12  2105    54143   75900      0    1.73e+00    0    1.21e+00
2007 02 12  2110    54143   76200      0    1.66e+00    0    1.15e+00
2007 02 12  2115    54143   76500      0    1.67e+00    0    1.16e+00
2007 02 12  2120    54143   76800      0    1.68e+00    0    1.18e+00
2007 02 12  2125    54143   77100      0    1.73e+00    0    1.21e+00
2007 02 12  2130    54143   77400      0    1.73e+00    0    1.21e+00
2007 02 12  2135    54143   77700      0    1.64e+00    0    1.14e+00
2007 02 12  2140    54143   78000      0    1.70e+00    0    1.20e+00
2007 02 12  2145    54143   78300      0    1.68e+00    0    1.18e+00
2007 02 12  2150    54143   78600      0    1.72e+00    0    1.19e+00
2007 02 12  2155    54143   78900      0    1.74e+00    0    1.23e+00
2007 02 12  2200    54143   79200      0    1.71e+00    0    1.21e+00
2007 02 12  2205    54143   79500      0    1.75e+00    0    1.22e+00
2007 02 12  2210    54143   79800      0    1.73e+00    0    1.21e+00
2007 02 12  2215    54143   80100      0    1.69e+00    0    1.19e+00
2007 02 12  2220    54143   80400      0    1.69e+00    0    1.19e+00
2007 02 12  2225    54143   80700      0    1.69e+00    0    1.18e+00
2007 02 12  2230    54143   81000      0    1.72e+00    0    1.21e+00
2007 02 12  2235    54143   81300      0    1.73e+00    0    1.21e+00
2007 02 12  2240    54143   81600      0    1.76e+00    0    1.23e+00
2007 02 12  2245    54143   81900      0    1.75e+00    0    1.24e+00
2007 02 12  2250    54143   82200      0    1.73e+00    0    1.21e+00
2007 02 12  2255    54143   82500      0    1.74e+00    0    1.20e+00
2007 02 12  2300    54143   82800      0    1.70e+00    0    1.20e+00
2007 02 12  2305    54143   83100      0    1.71e+00    0    1.20e+00
2007 02 12  2310    54143   83400      0    1.70e+00    0    1.20e+00
2007 02 12  2315    54143   83700      0    1.70e+00    0    1.17e+00
2007 02 12  2320    54143   84000      0    1.75e+00    0    1.23e+00
2007 02 12  2325    54143   84300      0    1.70e+00    0    1.20e+00
2007 02 12  2330    54143   84600      0    1.69e+00    0    1.18e+00
2007 02 12  2335    54143   84900      0    1.71e+00    0    1.19e+00
2007 02 12  2340    54143   85200      0    1.70e+00    0    1.20e+00
2007 02 12  2345    54143   85500      0    1.74e+00    0    1.22e+00
2007 02 12  2350    54143   85800      0    1.73e+00    0    1.22e+00
2007 02 12  2355    54143   86100      0    1.71e+00    0    1.20e+00
