:Data_list: 20070408_ace_sis_5m.txt
:Created: 2007 Apr 09 0011 UT
# Prepared by the U.S. Dept. of Commerce, NOAA, Space Environment Center.
# Please send comments and suggestions to SEC.Webmaster@noaa.gov 
# 
# Units: proton flux p/cs2-sec-ster
# Status(S): 0 = nominal data, 1 to 8 = bad data record, 9 = no data
# Missing data values: -1.00e+05
# Source: ACE Satellite - Solar Isotope Spectrometer
#
# 5-minute averaged Real-time Integral Flux of High-energy Solar Protons
# 
#                 Modified Seconds
# UT Date   Time   Julian  of the      ---- Integral Proton Flux ----
# YR MO DA  HHMM     Day     Day       S    > 10 MeV    S    > 30 MeV
#--------------------------------------------------------------------
2007 04 08  0000    54198       0      0    1.87e+00    0    1.31e+00
2007 04 08  0005    54198     300      0    1.85e+00    0    1.30e+00
2007 04 08  0010    54198     600      0    1.81e+00    0    1.27e+00
2007 04 08  0015    54198     900      0    1.82e+00    0    1.28e+00
2007 04 08  0020    54198    1200      0    1.85e+00    0    1.31e+00
2007 04 08  0025    54198    1500      0    1.82e+00    0    1.28e+00
2007 04 08  0030    54198    1800      0    1.80e+00    0    1.27e+00
2007 04 08  0035    54198    2100      0    1.86e+00    0    1.31e+00
2007 04 08  0040    54198    2400      0    1.84e+00    0    1.30e+00
2007 04 08  0045    54198    2700      0    1.88e+00    0    1.33e+00
2007 04 08  0050    54198    3000      0    1.88e+00    0    1.32e+00
2007 04 08  0055    54198    3300      0    1.87e+00    0    1.30e+00
2007 04 08  0100    54198    3600      0    1.83e+00    0    1.28e+00
2007 04 08  0105    54198    3900      0    1.86e+00    0    1.31e+00
2007 04 08  0110    54198    4200      0    1.84e+00    0    1.28e+00
2007 04 08  0115    54198    4500      0    1.87e+00    0    1.32e+00
2007 04 08  0120    54198    4800      0    1.85e+00    0    1.29e+00
2007 04 08  0125    54198    5100      0    1.85e+00    0    1.28e+00
2007 04 08  0130    54198    5400      0    1.83e+00    0    1.27e+00
2007 04 08  0135    54198    5700      0    1.84e+00    0    1.28e+00
2007 04 08  0140    54198    6000      0    1.84e+00    0    1.28e+00
2007 04 08  0145    54198    6300      0    1.86e+00    0    1.30e+00
2007 04 08  0150    54198    6600      0    1.86e+00    0    1.29e+00
2007 04 08  0155    54198    6900      0    1.82e+00    0    1.28e+00
2007 04 08  0200    54198    7200      0    1.83e+00    0    1.28e+00
2007 04 08  0205    54198    7500      0    1.84e+00    0    1.29e+00
2007 04 08  0210    54198    7800      0    1.88e+00    0    1.32e+00
2007 04 08  0215    54198    8100      0    1.86e+00    0    1.31e+00
2007 04 08  0220    54198    8400      0    1.85e+00    0    1.28e+00
2007 04 08  0225    54198    8700      0    1.87e+00    0    1.33e+00
2007 04 08  0230    54198    9000      0    1.83e+00    0    1.29e+00
2007 04 08  0235    54198    9300      0    1.83e+00    0    1.27e+00
2007 04 08  0240    54198    9600      0    1.76e+00    0    1.23e+00
2007 04 08  0245    54198    9900      0    1.86e+00    0    1.30e+00
2007 04 08  0250    54198   10200      0    1.84e+00    0    1.27e+00
2007 04 08  0255    54198   10500      0    1.84e+00    0    1.29e+00
2007 04 08  0300    54198   10800      0    1.85e+00    0    1.30e+00
2007 04 08  0305    54198   11100      0    1.82e+00    0    1.28e+00
2007 04 08  0310    54198   11400      0    1.88e+00    0    1.32e+00
2007 04 08  0315    54198   11700      0    1.85e+00    0    1.30e+00
2007 04 08  0320    54198   12000      0    1.81e+00    0    1.25e+00
2007 04 08  0325    54198   12300      0    1.81e+00    0    1.25e+00
2007 04 08  0330    54198   12600      0    1.82e+00    0    1.27e+00
2007 04 08  0335    54198   12900      0    1.87e+00    0    1.31e+00
2007 04 08  0340    54198   13200      0    1.81e+00    0    1.26e+00
2007 04 08  0345    54198   13500      0    1.84e+00    0    1.30e+00
2007 04 08  0350    54198   13800      0    1.83e+00    0    1.29e+00
2007 04 08  0355    54198   14100      0    1.83e+00    0    1.28e+00
2007 04 08  0400    54198   14400      0    1.83e+00    0    1.28e+00
2007 04 08  0405    54198   14700      0    1.83e+00    0    1.30e+00
2007 04 08  0410    54198   15000      0    1.83e+00    0    1.28e+00
2007 04 08  0415    54198   15300      0    1.84e+00    0    1.29e+00
2007 04 08  0420    54198   15600      0    1.86e+00    0    1.30e+00
2007 04 08  0425    54198   15900      0    1.84e+00    0    1.29e+00
2007 04 08  0430    54198   16200      0    1.81e+00    0    1.27e+00
2007 04 08  0435    54198   16500      0    1.83e+00    0    1.29e+00
2007 04 08  0440    54198   16800      0    1.81e+00    0    1.28e+00
2007 04 08  0445    54198   17100      0    1.83e+00    0    1.27e+00
2007 04 08  0450    54198   17400      0    1.87e+00    0    1.31e+00
2007 04 08  0455    54198   17700      0    1.80e+00    0    1.25e+00
2007 04 08  0500    54198   18000      0    1.88e+00    0    1.31e+00
2007 04 08  0505    54198   18300      0    1.84e+00    0    1.29e+00
2007 04 08  0510    54198   18600      0    1.84e+00    0    1.28e+00
2007 04 08  0515    54198   18900      0    1.86e+00    0    1.30e+00
2007 04 08  0520    54198   19200      0    1.84e+00    0    1.29e+00
2007 04 08  0525    54198   19500      0    1.82e+00    0    1.28e+00
2007 04 08  0530    54198   19800      0    1.83e+00    0    1.27e+00
2007 04 08  0535    54198   20100      0    1.88e+00    0    1.31e+00
2007 04 08  0540    54198   20400      0    1.85e+00    0    1.31e+00
2007 04 08  0545    54198   20700      0    1.81e+00    0    1.28e+00
2007 04 08  0550    54198   21000      0    1.85e+00    0    1.30e+00
2007 04 08  0555    54198   21300      0    1.85e+00    0    1.31e+00
2007 04 08  0600    54198   21600      0    1.85e+00    0    1.29e+00
2007 04 08  0605    54198   21900      0    1.84e+00    0    1.28e+00
2007 04 08  0610    54198   22200      0    1.85e+00    0    1.29e+00
2007 04 08  0615    54198   22500      0    1.83e+00    0    1.28e+00
2007 04 08  0620    54198   22800      0    1.82e+00    0    1.29e+00
2007 04 08  0625    54198   23100      0    1.80e+00    0    1.27e+00
2007 04 08  0630    54198   23400      0    1.84e+00    0    1.28e+00
2007 04 08  0635    54198   23700      0    1.86e+00    0    1.30e+00
2007 04 08  0640    54198   24000      0    1.84e+00    0    1.29e+00
2007 04 08  0645    54198   24300      0    1.83e+00    0    1.27e+00
2007 04 08  0650    54198   24600      0    1.88e+00    0    1.31e+00
2007 04 08  0655    54198   24900      0    1.83e+00    0    1.29e+00
2007 04 08  0700    54198   25200      0    1.86e+00    0    1.30e+00
2007 04 08  0705    54198   25500      0    1.85e+00    0    1.29e+00
2007 04 08  0710    54198   25800      0    1.89e+00    0    1.33e+00
2007 04 08  0715    54198   26100      0    1.86e+00    0    1.29e+00
2007 04 08  0720    54198   26400      0    1.85e+00    0    1.29e+00
2007 04 08  0725    54198   26700      0    1.86e+00    0    1.29e+00
2007 04 08  0730    54198   27000      0    1.84e+00    0    1.29e+00
2007 04 08  0735    54198   27300      0    1.83e+00    0    1.28e+00
2007 04 08  0740    54198   27600      0    1.85e+00    0    1.30e+00
2007 04 08  0745    54198   27900      0    1.81e+00    0    1.26e+00
2007 04 08  0750    54198   28200      0    1.79e+00    0    1.25e+00
2007 04 08  0755    54198   28500      0    1.83e+00    0    1.29e+00
2007 04 08  0800    54198   28800      0    1.88e+00    0    1.31e+00
2007 04 08  0805    54198   29100      0    1.84e+00    0    1.27e+00
2007 04 08  0810    54198   29400      0    1.84e+00    0    1.29e+00
2007 04 08  0815    54198   29700      0    1.88e+00    0    1.31e+00
2007 04 08  0820    54198   30000      0    1.90e+00    0    1.32e+00
2007 04 08  0825    54198   30300      0    1.86e+00    0    1.31e+00
2007 04 08  0830    54198   30600      0    1.88e+00    0    1.32e+00
2007 04 08  0835    54198   30900      0    1.86e+00    0    1.31e+00
2007 04 08  0840    54198   31200      0    1.85e+00    0    1.28e+00
2007 04 08  0845    54198   31500      0    1.84e+00    0    1.29e+00
2007 04 08  0850    54198   31800      0    1.78e+00    0    1.25e+00
2007 04 08  0855    54198   32100      0    1.83e+00    0    1.28e+00
2007 04 08  0900    54198   32400      0    1.83e+00    0    1.27e+00
2007 04 08  0905    54198   32700      0    1.86e+00    0    1.30e+00
2007 04 08  0910    54198   33000      0    1.83e+00    0    1.28e+00
2007 04 08  0915    54198   33300      0    1.84e+00    0    1.30e+00
2007 04 08  0920    54198   33600      0    1.86e+00    0    1.30e+00
2007 04 08  0925    54198   33900      0    1.83e+00    0    1.27e+00
2007 04 08  0930    54198   34200      0    1.82e+00    0    1.28e+00
2007 04 08  0935    54198   34500      0    1.84e+00    0    1.30e+00
2007 04 08  0940    54198   34800      0    1.86e+00    0    1.30e+00
2007 04 08  0945    54198   35100      0    1.89e+00    0    1.33e+00
2007 04 08  0950    54198   35400      0    1.85e+00    0    1.31e+00
2007 04 08  0955    54198   35700      0    1.87e+00    0    1.32e+00
2007 04 08  1000    54198   36000      0    1.81e+00    0    1.26e+00
2007 04 08  1005    54198   36300      0    1.83e+00    0    1.28e+00
2007 04 08  1010    54198   36600      0    1.87e+00    0    1.32e+00
2007 04 08  1015    54198   36900      0    1.86e+00    0    1.31e+00
2007 04 08  1020    54198   37200      0    1.90e+00    0    1.32e+00
2007 04 08  1025    54198   37500      0    1.84e+00    0    1.31e+00
2007 04 08  1030    54198   37800      0    1.85e+00    0    1.29e+00
2007 04 08  1035    54198   38100      0    1.88e+00    0    1.33e+00
2007 04 08  1040    54198   38400      0    1.85e+00    0    1.29e+00
2007 04 08  1045    54198   38700      0    1.80e+00    0    1.26e+00
2007 04 08  1050    54198   39000      0    1.81e+00    0    1.27e+00
2007 04 08  1055    54198   39300      0    1.84e+00    0    1.29e+00
2007 04 08  1100    54198   39600      0    1.84e+00    0    1.28e+00
2007 04 08  1105    54198   39900      0    1.85e+00    0    1.30e+00
2007 04 08  1110    54198   40200      0    1.84e+00    0    1.28e+00
2007 04 08  1115    54198   40500      0    1.87e+00    0    1.29e+00
2007 04 08  1120    54198   40800      0    1.83e+00    0    1.27e+00
2007 04 08  1125    54198   41100      0    1.84e+00    0    1.29e+00
2007 04 08  1130    54198   41400      0    1.81e+00    0    1.26e+00
2007 04 08  1135    54198   41700      0    1.87e+00    0    1.30e+00
2007 04 08  1140    54198   42000      0    1.88e+00    0    1.31e+00
2007 04 08  1145    54198   42300      0    1.88e+00    0    1.31e+00
2007 04 08  1150    54198   42600      0    1.90e+00    0    1.33e+00
2007 04 08  1155    54198   42900      0    1.86e+00    0    1.31e+00
2007 04 08  1200    54198   43200      0    1.85e+00    0    1.30e+00
2007 04 08  1205    54198   43500      0    1.84e+00    0    1.29e+00
2007 04 08  1210    54198   43800      0    1.87e+00    0    1.32e+00
2007 04 08  1215    54198   44100      0    1.85e+00    0    1.30e+00
2007 04 08  1220    54198   44400      0    1.84e+00    0    1.28e+00
2007 04 08  1225    54198   44700      0    1.84e+00    0    1.27e+00
2007 04 08  1230    54198   45000      0    1.82e+00    0    1.28e+00
2007 04 08  1235    54198   45300      0    1.86e+00    0    1.30e+00
2007 04 08  1240    54198   45600      0    1.90e+00    0    1.33e+00
2007 04 08  1245    54198   45900      0    1.82e+00    0    1.26e+00
2007 04 08  1250    54198   46200      0    1.86e+00    0    1.29e+00
2007 04 08  1255    54198   46500      0    1.85e+00    0    1.29e+00
2007 04 08  1300    54198   46800      0    1.83e+00    0    1.29e+00
2007 04 08  1305    54198   47100      0    1.84e+00    0    1.29e+00
2007 04 08  1310    54198   47400      0    1.84e+00    0    1.29e+00
2007 04 08  1315    54198   47700      0    1.84e+00    0    1.30e+00
2007 04 08  1320    54198   48000      0    1.86e+00    0    1.30e+00
2007 04 08  1325    54198   48300      0    1.89e+00    0    1.32e+00
2007 04 08  1330    54198   48600      0    1.86e+00    0    1.31e+00
2007 04 08  1335    54198   48900      0    1.82e+00    0    1.27e+00
2007 04 08  1340    54198   49200      0    1.81e+00    0    1.27e+00
2007 04 08  1345    54198   49500      0    1.83e+00    0    1.29e+00
2007 04 08  1350    54198   49800      0    1.84e+00    0    1.29e+00
2007 04 08  1355    54198   50100      0    1.86e+00    0    1.29e+00
2007 04 08  1400    54198   50400      0    1.82e+00    0    1.28e+00
2007 04 08  1405    54198   50700      0    1.85e+00    0    1.30e+00
2007 04 08  1410    54198   51000      9   -1.00e+05    9   -1.00e+05
2007 04 08  1415    54198   51300      0    1.81e+00    0    1.29e+00
2007 04 08  1420    54198   51600      0    1.84e+00    0    1.30e+00
2007 04 08  1425    54198   51900      0    1.82e+00    0    1.28e+00
2007 04 08  1430    54198   52200      0    1.86e+00    0    1.29e+00
2007 04 08  1435    54198   52500      0    1.85e+00    0    1.29e+00
2007 04 08  1440    54198   52800      0    1.86e+00    0    1.29e+00
2007 04 08  1445    54198   53100      0    1.84e+00    0    1.29e+00
2007 04 08  1450    54198   53400      0    1.83e+00    0    1.28e+00
2007 04 08  1455    54198   53700      0    1.80e+00    0    1.26e+00
2007 04 08  1500    54198   54000      0    1.83e+00    0    1.29e+00
2007 04 08  1505    54198   54300      0    1.82e+00    0    1.27e+00
2007 04 08  1510    54198   54600      0    1.85e+00    0    1.29e+00
2007 04 08  1515    54198   54900      0    1.85e+00    0    1.28e+00
2007 04 08  1520    54198   55200      0    1.73e+00    0    1.21e+00
2007 04 08  1525    54198   55500      0    1.84e+00    0    1.29e+00
2007 04 08  1530    54198   55800      0    1.85e+00    0    1.30e+00
2007 04 08  1535    54198   56100      0    1.80e+00    0    1.25e+00
2007 04 08  1540    54198   56400      0    1.82e+00    0    1.26e+00
2007 04 08  1545    54198   56700      0    1.82e+00    0    1.28e+00
2007 04 08  1550    54198   57000      0    1.85e+00    0    1.29e+00
2007 04 08  1555    54198   57300      0    1.88e+00    0    1.33e+00
2007 04 08  1600    54198   57600      0    1.83e+00    0    1.29e+00
2007 04 08  1605    54198   57900      0    1.84e+00    0    1.29e+00
2007 04 08  1610    54198   58200      0    1.83e+00    0    1.30e+00
2007 04 08  1615    54198   58500      0    1.85e+00    0    1.29e+00
2007 04 08  1620    54198   58800      0    1.84e+00    0    1.28e+00
2007 04 08  1625    54198   59100      0    1.82e+00    0    1.27e+00
2007 04 08  1630    54198   59400      0    1.84e+00    0    1.27e+00
2007 04 08  1635    54198   59700      0    1.85e+00    0    1.31e+00
2007 04 08  1640    54198   60000      0    1.86e+00    0    1.30e+00
2007 04 08  1645    54198   60300      0    1.86e+00    0    1.31e+00
2007 04 08  1650    54198   60600      0    1.87e+00    0    1.30e+00
2007 04 08  1655    54198   60900      0    1.85e+00    0    1.30e+00
2007 04 08  1700    54198   61200      0    1.89e+00    0    1.32e+00
2007 04 08  1705    54198   61500      0    1.91e+00    0    1.34e+00
2007 04 08  1710    54198   61800      0    1.83e+00    0    1.27e+00
2007 04 08  1715    54198   62100      0    1.90e+00    0    1.33e+00
2007 04 08  1720    54198   62400      0    1.86e+00    0    1.30e+00
2007 04 08  1725    54198   62700      0    1.84e+00    0    1.29e+00
2007 04 08  1730    54198   63000      0    1.86e+00    0    1.31e+00
2007 04 08  1735    54198   63300      0    1.91e+00    0    1.34e+00
2007 04 08  1740    54198   63600      0    1.85e+00    0    1.30e+00
2007 04 08  1745    54198   63900      0    1.86e+00    0    1.30e+00
2007 04 08  1750    54198   64200      0    1.84e+00    0    1.30e+00
2007 04 08  1755    54198   64500      0    1.88e+00    0    1.30e+00
2007 04 08  1800    54198   64800      0    1.84e+00    0    1.29e+00
2007 04 08  1805    54198   65100      0    1.86e+00    0    1.30e+00
2007 04 08  1810    54198   65400      0    1.90e+00    0    1.32e+00
2007 04 08  1815    54198   65700      0    1.84e+00    0    1.28e+00
2007 04 08  1820    54198   66000      0    1.81e+00    0    1.26e+00
2007 04 08  1825    54198   66300      0    1.86e+00    0    1.30e+00
2007 04 08  1830    54198   66600      0    1.83e+00    0    1.28e+00
2007 04 08  1835    54198   66900      0    1.87e+00    0    1.32e+00
2007 04 08  1840    54198   67200      0    1.90e+00    0    1.33e+00
2007 04 08  1845    54198   67500      0    1.80e+00    0    1.27e+00
2007 04 08  1850    54198   67800      0    1.89e+00    0    1.32e+00
2007 04 08  1855    54198   68100      0    1.83e+00    0    1.28e+00
2007 04 08  1900    54198   68400      0    1.85e+00    0    1.30e+00
2007 04 08  1905    54198   68700      0    1.84e+00    0    1.29e+00
2007 04 08  1910    54198   69000      0    1.84e+00    0    1.29e+00
2007 04 08  1915    54198   69300      0    1.86e+00    0    1.32e+00
2007 04 08  1920    54198   69600      0    1.88e+00    0    1.31e+00
2007 04 08  1925    54198   69900      0    1.83e+00    0    1.27e+00
2007 04 08  1930    54198   70200      0    1.82e+00    0    1.28e+00
2007 04 08  1935    54198   70500      0    1.85e+00    0    1.30e+00
2007 04 08  1940    54198   70800      0    1.85e+00    0    1.30e+00
2007 04 08  1945    54198   71100      0    1.86e+00    0    1.31e+00
2007 04 08  1950    54198   71400      0    1.88e+00    0    1.31e+00
2007 04 08  1955    54198   71700      0    1.91e+00    0    1.34e+00
2007 04 08  2000    54198   72000      0    1.89e+00    0    1.32e+00
2007 04 08  2005    54198   72300      0    1.88e+00    0    1.32e+00
2007 04 08  2010    54198   72600      0    1.87e+00    0    1.30e+00
2007 04 08  2015    54198   72900      0    1.86e+00    0    1.30e+00
2007 04 08  2020    54198   73200      0    1.88e+00    0    1.32e+00
2007 04 08  2025    54198   73500      0    1.85e+00    0    1.30e+00
2007 04 08  2030    54198   73800      0    1.85e+00    0    1.30e+00
2007 04 08  2035    54198   74100      0    1.88e+00    0    1.32e+00
2007 04 08  2040    54198   74400      0    1.87e+00    0    1.31e+00
2007 04 08  2045    54198   74700      0    1.85e+00    0    1.29e+00
2007 04 08  2050    54198   75000      0    1.90e+00    0    1.35e+00
2007 04 08  2055    54198   75300      0    1.85e+00    0    1.31e+00
2007 04 08  2100    54198   75600      0    1.84e+00    0    1.28e+00
2007 04 08  2105    54198   75900      0    1.85e+00    0    1.29e+00
2007 04 08  2110    54198   76200      0    1.84e+00    0    1.29e+00
2007 04 08  2115    54198   76500      0    1.86e+00    0    1.30e+00
2007 04 08  2120    54198   76800      0    1.86e+00    0    1.31e+00
2007 04 08  2125    54198   77100      0    1.87e+00    0    1.31e+00
2007 04 08  2130    54198   77400      0    1.92e+00    0    1.34e+00
2007 04 08  2135    54198   77700      0    1.89e+00    0    1.33e+00
2007 04 08  2140    54198   78000      0    1.86e+00    0    1.31e+00
2007 04 08  2145    54198   78300      0    1.89e+00    0    1.32e+00
2007 04 08  2150    54198   78600      0    1.87e+00    0    1.31e+00
2007 04 08  2155    54198   78900      0    1.81e+00    0    1.27e+00
2007 04 08  2200    54198   79200      0    1.85e+00    0    1.30e+00
2007 04 08  2205    54198   79500      0    1.85e+00    0    1.30e+00
2007 04 08  2210    54198   79800      0    1.84e+00    0    1.30e+00
2007 04 08  2215    54198   80100      0    1.84e+00    0    1.29e+00
2007 04 08  2220    54198   80400      0    1.82e+00    0    1.27e+00
2007 04 08  2225    54198   80700      0    1.83e+00    0    1.29e+00
2007 04 08  2230    54198   81000      0    1.84e+00    0    1.29e+00
2007 04 08  2235    54198   81300      0    1.86e+00    0    1.31e+00
2007 04 08  2240    54198   81600      0    1.84e+00    0    1.29e+00
2007 04 08  2245    54198   81900      0    1.85e+00    0    1.28e+00
2007 04 08  2250    54198   82200      0    1.84e+00    0    1.31e+00
2007 04 08  2255    54198   82500      0    1.81e+00    0    1.26e+00
2007 04 08  2300    54198   82800      0    1.80e+00    0    1.26e+00
2007 04 08  2305    54198   83100      0    1.81e+00    0    1.27e+00
2007 04 08  2310    54198   83400      0    1.81e+00    0    1.26e+00
2007 04 08  2315    54198   83700      0    1.81e+00    0    1.27e+00
2007 04 08  2320    54198   84000      0    1.83e+00    0    1.28e+00
2007 04 08  2325    54198   84300      0    1.83e+00    0    1.27e+00
2007 04 08  2330    54198   84600      0    1.80e+00    0    1.26e+00
2007 04 08  2335    54198   84900      0    1.81e+00    0    1.26e+00
2007 04 08  2340    54198   85200      0    1.81e+00    0    1.27e+00
2007 04 08  2345    54198   85500      0    1.82e+00    0    1.27e+00
2007 04 08  2350    54198   85800      0    1.85e+00    0    1.30e+00
2007 04 08  2355    54198   86100      0    1.83e+00    0    1.28e+00
