:Data_list: 20070928_ace_sis_5m.txt
:Created: 2007 Sep 29 0011 UT
# Prepared by the U.S. Dept. of Commerce, NOAA, Space Environment Center.
# Please send comments and suggestions to SEC.Webmaster@noaa.gov 
# 
# Units: proton flux p/cs2-sec-ster
# Status(S): 0 = nominal data, 1 to 8 = bad data record, 9 = no data
# Missing data values: -1.00e+05
# Source: ACE Satellite - Solar Isotope Spectrometer
#
# 5-minute averaged Real-time Integral Flux of High-energy Solar Protons
# 
#                 Modified Seconds
# UT Date   Time   Julian  of the      ---- Integral Proton Flux ----
# YR MO DA  HHMM     Day     Day       S    > 10 MeV    S    > 30 MeV
#--------------------------------------------------------------------
2007 09 28  0000    54371       0      0    1.86e+00    0    1.31e+00
2007 09 28  0005    54371     300      0    1.91e+00    0    1.33e+00
2007 09 28  0010    54371     600      0    1.91e+00    0    1.33e+00
2007 09 28  0015    54371     900      0    1.89e+00    0    1.34e+00
2007 09 28  0020    54371    1200      0    1.91e+00    0    1.33e+00
2007 09 28  0025    54371    1500      0    1.77e+00    0    1.24e+00
2007 09 28  0030    54371    1800      0    1.91e+00    0    1.34e+00
2007 09 28  0035    54371    2100      0    1.89e+00    0    1.32e+00
2007 09 28  0040    54371    2400      0    1.91e+00    0    1.33e+00
2007 09 28  0045    54371    2700      0    1.92e+00    0    1.35e+00
2007 09 28  0050    54371    3000      0    1.90e+00    0    1.33e+00
2007 09 28  0055    54371    3300      0    1.94e+00    0    1.36e+00
2007 09 28  0100    54371    3600      0    1.88e+00    0    1.33e+00
2007 09 28  0105    54371    3900      0    1.89e+00    0    1.31e+00
2007 09 28  0110    54371    4200      0    1.87e+00    0    1.31e+00
2007 09 28  0115    54371    4500      0    1.88e+00    0    1.32e+00
2007 09 28  0120    54371    4800      0    1.92e+00    0    1.34e+00
2007 09 28  0125    54371    5100      0    1.89e+00    0    1.32e+00
2007 09 28  0130    54371    5400      0    1.88e+00    0    1.31e+00
2007 09 28  0135    54371    5700      0    1.88e+00    0    1.31e+00
2007 09 28  0140    54371    6000      0    1.91e+00    0    1.35e+00
2007 09 28  0145    54371    6300      0    1.85e+00    0    1.30e+00
2007 09 28  0150    54371    6600      0    1.90e+00    0    1.32e+00
2007 09 28  0155    54371    6900      0    1.85e+00    0    1.27e+00
2007 09 28  0200    54371    7200      0    1.92e+00    0    1.34e+00
2007 09 28  0205    54371    7500      0    1.88e+00    0    1.30e+00
2007 09 28  0210    54371    7800      0    1.86e+00    0    1.31e+00
2007 09 28  0215    54371    8100      0    1.89e+00    0    1.32e+00
2007 09 28  0220    54371    8400      0    1.91e+00    0    1.33e+00
2007 09 28  0225    54371    8700      0    1.88e+00    0    1.31e+00
2007 09 28  0230    54371    9000      0    1.86e+00    0    1.30e+00
2007 09 28  0235    54371    9300      0    1.87e+00    0    1.30e+00
2007 09 28  0240    54371    9600      0    1.88e+00    0    1.33e+00
2007 09 28  0245    54371    9900      0    1.89e+00    0    1.32e+00
2007 09 28  0250    54371   10200      0    1.91e+00    0    1.34e+00
2007 09 28  0255    54371   10500      0    1.86e+00    0    1.30e+00
2007 09 28  0300    54371   10800      0    1.90e+00    0    1.34e+00
2007 09 28  0305    54371   11100      0    1.87e+00    0    1.30e+00
2007 09 28  0310    54371   11400      0    1.90e+00    0    1.34e+00
2007 09 28  0315    54371   11700      0    1.90e+00    0    1.33e+00
2007 09 28  0320    54371   12000      0    1.86e+00    0    1.29e+00
2007 09 28  0325    54371   12300      0    1.87e+00    0    1.32e+00
2007 09 28  0330    54371   12600      0    1.87e+00    0    1.30e+00
2007 09 28  0335    54371   12900      0    1.88e+00    0    1.33e+00
2007 09 28  0340    54371   13200      0    1.91e+00    0    1.34e+00
2007 09 28  0345    54371   13500      0    1.87e+00    0    1.30e+00
2007 09 28  0350    54371   13800      0    1.86e+00    0    1.32e+00
2007 09 28  0355    54371   14100      0    1.90e+00    0    1.33e+00
2007 09 28  0400    54371   14400      0    1.92e+00    0    1.34e+00
2007 09 28  0405    54371   14700      0    1.88e+00    0    1.31e+00
2007 09 28  0410    54371   15000      0    1.86e+00    0    1.30e+00
2007 09 28  0415    54371   15300      0    1.88e+00    0    1.31e+00
2007 09 28  0420    54371   15600      0    1.90e+00    0    1.33e+00
2007 09 28  0425    54371   15900      0    1.90e+00    0    1.32e+00
2007 09 28  0430    54371   16200      0    1.91e+00    0    1.35e+00
2007 09 28  0435    54371   16500      0    1.87e+00    0    1.32e+00
2007 09 28  0440    54371   16800      0    1.90e+00    0    1.32e+00
2007 09 28  0445    54371   17100      0    1.90e+00    0    1.34e+00
2007 09 28  0450    54371   17400      0    1.86e+00    0    1.30e+00
2007 09 28  0455    54371   17700      0    1.89e+00    0    1.32e+00
2007 09 28  0500    54371   18000      0    1.88e+00    0    1.31e+00
2007 09 28  0505    54371   18300      0    1.88e+00    0    1.32e+00
2007 09 28  0510    54371   18600      0    1.90e+00    0    1.33e+00
2007 09 28  0515    54371   18900      0    1.83e+00    0    1.29e+00
2007 09 28  0520    54371   19200      0    1.88e+00    0    1.31e+00
2007 09 28  0525    54371   19500      0    1.86e+00    0    1.30e+00
2007 09 28  0530    54371   19800      0    1.87e+00    0    1.29e+00
2007 09 28  0535    54371   20100      0    1.93e+00    0    1.36e+00
2007 09 28  0540    54371   20400      0    1.87e+00    0    1.31e+00
2007 09 28  0545    54371   20700      0    1.87e+00    0    1.31e+00
2007 09 28  0550    54371   21000      0    1.88e+00    0    1.31e+00
2007 09 28  0555    54371   21300      0    1.88e+00    0    1.31e+00
2007 09 28  0600    54371   21600      0    1.89e+00    0    1.32e+00
2007 09 28  0605    54371   21900      0    1.89e+00    0    1.32e+00
2007 09 28  0610    54371   22200      0    1.88e+00    0    1.31e+00
2007 09 28  0615    54371   22500      0    1.92e+00    0    1.34e+00
2007 09 28  0620    54371   22800      0    1.87e+00    0    1.32e+00
2007 09 28  0625    54371   23100      0    1.89e+00    0    1.32e+00
2007 09 28  0630    54371   23400      0    1.86e+00    0    1.30e+00
2007 09 28  0635    54371   23700      0    1.89e+00    0    1.33e+00
2007 09 28  0640    54371   24000      0    1.88e+00    0    1.31e+00
2007 09 28  0645    54371   24300      0    1.89e+00    0    1.34e+00
2007 09 28  0650    54371   24600      0    1.84e+00    0    1.30e+00
2007 09 28  0655    54371   24900      0    1.88e+00    0    1.33e+00
2007 09 28  0700    54371   25200      0    1.86e+00    0    1.30e+00
2007 09 28  0705    54371   25500      0    1.83e+00    0    1.27e+00
2007 09 28  0710    54371   25800      0    1.87e+00    0    1.32e+00
2007 09 28  0715    54371   26100      0    1.89e+00    0    1.31e+00
2007 09 28  0720    54371   26400      0    1.92e+00    0    1.36e+00
2007 09 28  0725    54371   26700      0    1.89e+00    0    1.32e+00
2007 09 28  0730    54371   27000      0    1.89e+00    0    1.33e+00
2007 09 28  0735    54371   27300      0    1.89e+00    0    1.32e+00
2007 09 28  0740    54371   27600      0    1.89e+00    0    1.32e+00
2007 09 28  0745    54371   27900      0    1.91e+00    0    1.35e+00
2007 09 28  0750    54371   28200      0    1.92e+00    0    1.34e+00
2007 09 28  0755    54371   28500      0    1.92e+00    0    1.34e+00
2007 09 28  0800    54371   28800      0    1.89e+00    0    1.31e+00
2007 09 28  0805    54371   29100      0    1.93e+00    0    1.36e+00
2007 09 28  0810    54371   29400      0    1.86e+00    0    1.28e+00
2007 09 28  0815    54371   29700      0    1.91e+00    0    1.34e+00
2007 09 28  0820    54371   30000      0    1.90e+00    0    1.34e+00
2007 09 28  0825    54371   30300      0    1.86e+00    0    1.30e+00
2007 09 28  0830    54371   30600      0    1.90e+00    0    1.33e+00
2007 09 28  0835    54371   30900      0    1.83e+00    0    1.28e+00
2007 09 28  0840    54371   31200      0    1.86e+00    0    1.30e+00
2007 09 28  0845    54371   31500      0    1.88e+00    0    1.31e+00
2007 09 28  0850    54371   31800      0    1.91e+00    0    1.33e+00
2007 09 28  0855    54371   32100      0    1.89e+00    0    1.32e+00
2007 09 28  0900    54371   32400      0    1.89e+00    0    1.33e+00
2007 09 28  0905    54371   32700      0    1.89e+00    0    1.32e+00
2007 09 28  0910    54371   33000      0    1.87e+00    0    1.30e+00
2007 09 28  0915    54371   33300      0    1.88e+00    0    1.31e+00
2007 09 28  0920    54371   33600      0    1.87e+00    0    1.30e+00
2007 09 28  0925    54371   33900      0    1.87e+00    0    1.31e+00
2007 09 28  0930    54371   34200      0    1.92e+00    0    1.34e+00
2007 09 28  0935    54371   34500      0    1.86e+00    0    1.30e+00
2007 09 28  0940    54371   34800      0    1.87e+00    0    1.31e+00
2007 09 28  0945    54371   35100      0    1.80e+00    0    1.27e+00
2007 09 28  0950    54371   35400      0    1.84e+00    0    1.29e+00
2007 09 28  0955    54371   35700      0    1.87e+00    0    1.31e+00
2007 09 28  1000    54371   36000      0    1.87e+00    0    1.32e+00
2007 09 28  1005    54371   36300      0    1.86e+00    0    1.30e+00
2007 09 28  1010    54371   36600      0    1.86e+00    0    1.31e+00
2007 09 28  1015    54371   36900      0    1.90e+00    0    1.33e+00
2007 09 28  1020    54371   37200      0    1.86e+00    0    1.31e+00
2007 09 28  1025    54371   37500      0    1.90e+00    0    1.32e+00
2007 09 28  1030    54371   37800      0    1.85e+00    0    1.29e+00
2007 09 28  1035    54371   38100      0    1.89e+00    0    1.32e+00
2007 09 28  1040    54371   38400      0    1.89e+00    0    1.31e+00
2007 09 28  1045    54371   38700      0    1.85e+00    0    1.29e+00
2007 09 28  1050    54371   39000      0    1.84e+00    0    1.28e+00
2007 09 28  1055    54371   39300      0    1.90e+00    0    1.32e+00
2007 09 28  1100    54371   39600      0    1.87e+00    0    1.30e+00
2007 09 28  1105    54371   39900      0    1.83e+00    0    1.28e+00
2007 09 28  1110    54371   40200      0    1.86e+00    0    1.31e+00
2007 09 28  1115    54371   40500      0    1.89e+00    0    1.32e+00
2007 09 28  1120    54371   40800      0    1.87e+00    0    1.30e+00
2007 09 28  1125    54371   41100      0    1.89e+00    0    1.33e+00
2007 09 28  1130    54371   41400      0    1.88e+00    0    1.31e+00
2007 09 28  1135    54371   41700      0    1.88e+00    0    1.33e+00
2007 09 28  1140    54371   42000      0    1.91e+00    0    1.35e+00
2007 09 28  1145    54371   42300      0    1.90e+00    0    1.33e+00
2007 09 28  1150    54371   42600      0    1.87e+00    0    1.29e+00
2007 09 28  1155    54371   42900      0    1.84e+00    0    1.27e+00
2007 09 28  1200    54371   43200      0    1.89e+00    0    1.32e+00
2007 09 28  1205    54371   43500      0    1.89e+00    0    1.33e+00
2007 09 28  1210    54371   43800      0    1.87e+00    0    1.30e+00
2007 09 28  1215    54371   44100      0    1.88e+00    0    1.31e+00
2007 09 28  1220    54371   44400      0    1.84e+00    0    1.29e+00
2007 09 28  1225    54371   44700      0    1.86e+00    0    1.29e+00
2007 09 28  1230    54371   45000      0    1.91e+00    0    1.33e+00
2007 09 28  1235    54371   45300      0    1.91e+00    0    1.33e+00
2007 09 28  1240    54371   45600      0    1.91e+00    0    1.34e+00
2007 09 28  1245    54371   45900      0    1.89e+00    0    1.32e+00
2007 09 28  1250    54371   46200      0    1.88e+00    0    1.31e+00
2007 09 28  1255    54371   46500      0    1.89e+00    0    1.33e+00
2007 09 28  1300    54371   46800      0    1.88e+00    0    1.32e+00
2007 09 28  1305    54371   47100      0    1.87e+00    0    1.32e+00
2007 09 28  1310    54371   47400      0    1.89e+00    0    1.31e+00
2007 09 28  1315    54371   47700      0    1.84e+00    0    1.27e+00
2007 09 28  1320    54371   48000      0    1.90e+00    0    1.34e+00
2007 09 28  1325    54371   48300      0    1.86e+00    0    1.29e+00
2007 09 28  1330    54371   48600      0    1.86e+00    0    1.31e+00
2007 09 28  1335    54371   48900      0    1.88e+00    0    1.31e+00
2007 09 28  1340    54371   49200      0    1.88e+00    0    1.31e+00
2007 09 28  1345    54371   49500      0    1.90e+00    0    1.34e+00
2007 09 28  1350    54371   49800      0    1.88e+00    0    1.32e+00
2007 09 28  1355    54371   50100      0    1.86e+00    0    1.29e+00
2007 09 28  1400    54371   50400      0    1.89e+00    0    1.33e+00
2007 09 28  1405    54371   50700      0    1.87e+00    0    1.30e+00
2007 09 28  1410    54371   51000      0    1.92e+00    0    1.35e+00
2007 09 28  1415    54371   51300      0    1.94e+00    0    1.35e+00
2007 09 28  1420    54371   51600      0    1.87e+00    0    1.31e+00
2007 09 28  1425    54371   51900      0    1.88e+00    0    1.31e+00
2007 09 28  1430    54371   52200      0    1.86e+00    0    1.32e+00
2007 09 28  1435    54371   52500      0    1.87e+00    0    1.30e+00
2007 09 28  1440    54371   52800      0    1.87e+00    0    1.32e+00
2007 09 28  1445    54371   53100      0    1.89e+00    0    1.32e+00
2007 09 28  1450    54371   53400      0    1.88e+00    0    1.32e+00
2007 09 28  1455    54371   53700      0    1.89e+00    0    1.33e+00
2007 09 28  1500    54371   54000      0    1.88e+00    0    1.32e+00
2007 09 28  1505    54371   54300      0    1.84e+00    0    1.29e+00
2007 09 28  1510    54371   54600      0    1.86e+00    0    1.29e+00
2007 09 28  1515    54371   54900      0    1.89e+00    0    1.30e+00
2007 09 28  1520    54371   55200      0    1.87e+00    0    1.31e+00
2007 09 28  1525    54371   55500      0    1.90e+00    0    1.31e+00
2007 09 28  1530    54371   55800      0    1.88e+00    0    1.32e+00
2007 09 28  1535    54371   56100      0    1.84e+00    0    1.28e+00
2007 09 28  1540    54371   56400      0    1.91e+00    0    1.33e+00
2007 09 28  1545    54371   56700      0    1.85e+00    0    1.31e+00
2007 09 28  1550    54371   57000      0    1.88e+00    0    1.32e+00
2007 09 28  1555    54371   57300      0    1.88e+00    0    1.31e+00
2007 09 28  1600    54371   57600      0    1.90e+00    0    1.34e+00
2007 09 28  1605    54371   57900      0    1.95e+00    0    1.37e+00
2007 09 28  1610    54371   58200      0    1.90e+00    0    1.32e+00
2007 09 28  1615    54371   58500      0    1.86e+00    0    1.30e+00
2007 09 28  1620    54371   58800      0    1.88e+00    0    1.32e+00
2007 09 28  1625    54371   59100      0    1.87e+00    0    1.31e+00
2007 09 28  1630    54371   59400      0    1.85e+00    0    1.29e+00
2007 09 28  1635    54371   59700      0    1.88e+00    0    1.31e+00
2007 09 28  1640    54371   60000      0    1.86e+00    0    1.30e+00
2007 09 28  1645    54371   60300      0    1.90e+00    0    1.35e+00
2007 09 28  1650    54371   60600      0    1.90e+00    0    1.33e+00
2007 09 28  1655    54371   60900      0    1.88e+00    0    1.30e+00
2007 09 28  1700    54371   61200      0    1.90e+00    0    1.33e+00
2007 09 28  1705    54371   61500      0    1.88e+00    0    1.32e+00
2007 09 28  1710    54371   61800      0    1.86e+00    0    1.30e+00
2007 09 28  1715    54371   62100      0    1.88e+00    0    1.33e+00
2007 09 28  1720    54371   62400      0    1.90e+00    0    1.32e+00
2007 09 28  1725    54371   62700      0    1.91e+00    0    1.34e+00
2007 09 28  1730    54371   63000      0    1.86e+00    0    1.31e+00
2007 09 28  1735    54371   63300      0    1.82e+00    0    1.28e+00
2007 09 28  1740    54371   63600      0    1.83e+00    0    1.27e+00
2007 09 28  1745    54371   63900      0    1.85e+00    0    1.30e+00
2007 09 28  1750    54371   64200      0    1.84e+00    0    1.28e+00
2007 09 28  1755    54371   64500      0    1.90e+00    0    1.32e+00
2007 09 28  1800    54371   64800      0    1.90e+00    0    1.34e+00
2007 09 28  1805    54371   65100      0    1.88e+00    0    1.32e+00
2007 09 28  1810    54371   65400      0    1.86e+00    0    1.30e+00
2007 09 28  1815    54371   65700      0    1.93e+00    0    1.35e+00
2007 09 28  1820    54371   66000      0    1.90e+00    0    1.34e+00
2007 09 28  1825    54371   66300      0    1.87e+00    0    1.31e+00
2007 09 28  1830    54371   66600      0    1.88e+00    0    1.30e+00
2007 09 28  1835    54371   66900      0    1.87e+00    0    1.31e+00
2007 09 28  1840    54371   67200      0    1.88e+00    0    1.32e+00
2007 09 28  1845    54371   67500      0    1.87e+00    0    1.30e+00
2007 09 28  1850    54371   67800      0    1.81e+00    0    1.26e+00
2007 09 28  1855    54371   68100      0    1.78e+00    0    1.24e+00
2007 09 28  1900    54371   68400      0    1.88e+00    0    1.32e+00
2007 09 28  1905    54371   68700      0    1.87e+00    0    1.31e+00
2007 09 28  1910    54371   69000      0    1.88e+00    0    1.32e+00
2007 09 28  1915    54371   69300      0    1.89e+00    0    1.32e+00
2007 09 28  1920    54371   69600      0    1.90e+00    0    1.33e+00
2007 09 28  1925    54371   69900      0    1.91e+00    0    1.33e+00
2007 09 28  1930    54371   70200      0    1.87e+00    0    1.31e+00
2007 09 28  1935    54371   70500      0    1.89e+00    0    1.33e+00
2007 09 28  1940    54371   70800      0    1.86e+00    0    1.30e+00
2007 09 28  1945    54371   71100      0    1.87e+00    0    1.32e+00
2007 09 28  1950    54371   71400      0    1.87e+00    0    1.33e+00
2007 09 28  1955    54371   71700      0    1.90e+00    0    1.33e+00
2007 09 28  2000    54371   72000      0    1.87e+00    0    1.31e+00
2007 09 28  2005    54371   72300      0    2.01e+00    0    1.45e+00
2007 09 28  2010    54371   72600      9   -1.00e+05    9   -1.00e+05
2007 09 28  2015    54371   72900      9   -1.00e+05    9   -1.00e+05
2007 09 28  2020    54371   73200      0    1.86e+00    0    1.31e+00
2007 09 28  2025    54371   73500      0    1.88e+00    0    1.30e+00
2007 09 28  2030    54371   73800      0    1.91e+00    0    1.35e+00
2007 09 28  2035    54371   74100      0    1.77e+00    0    1.24e+00
2007 09 28  2040    54371   74400      0    1.83e+00    0    1.29e+00
2007 09 28  2045    54371   74700      0    1.88e+00    0    1.32e+00
2007 09 28  2050    54371   75000      0    1.89e+00    0    1.32e+00
2007 09 28  2055    54371   75300      0    1.84e+00    0    1.29e+00
2007 09 28  2100    54371   75600      0    1.83e+00    0    1.28e+00
2007 09 28  2105    54371   75900      0    1.90e+00    0    1.34e+00
2007 09 28  2110    54371   76200      0    1.86e+00    0    1.29e+00
2007 09 28  2115    54371   76500      0    1.88e+00    0    1.31e+00
2007 09 28  2120    54371   76800      0    1.87e+00    0    1.31e+00
2007 09 28  2125    54371   77100      0    1.88e+00    0    1.30e+00
2007 09 28  2130    54371   77400      0    1.88e+00    0    1.31e+00
2007 09 28  2135    54371   77700      0    1.90e+00    0    1.33e+00
2007 09 28  2140    54371   78000      0    1.90e+00    0    1.33e+00
2007 09 28  2145    54371   78300      0    1.88e+00    0    1.32e+00
2007 09 28  2150    54371   78600      0    1.87e+00    0    1.30e+00
2007 09 28  2155    54371   78900      0    1.84e+00    0    1.30e+00
2007 09 28  2200    54371   79200      0    1.68e+00    0    1.18e+00
2007 09 28  2205    54371   79500      0    1.84e+00    0    1.29e+00
2007 09 28  2210    54371   79800      0    1.83e+00    0    1.28e+00
2007 09 28  2215    54371   80100      0    1.84e+00    0    1.28e+00
2007 09 28  2220    54371   80400      0    1.85e+00    0    1.29e+00
2007 09 28  2225    54371   80700      0    1.86e+00    0    1.30e+00
2007 09 28  2230    54371   81000      0    1.88e+00    0    1.31e+00
2007 09 28  2235    54371   81300      0    1.88e+00    0    1.31e+00
2007 09 28  2240    54371   81600      0    1.84e+00    0    1.29e+00
2007 09 28  2245    54371   81900      0    1.88e+00    0    1.32e+00
2007 09 28  2250    54371   82200      0    1.87e+00    0    1.30e+00
2007 09 28  2255    54371   82500      0    1.89e+00    0    1.32e+00
2007 09 28  2300    54371   82800      0    1.88e+00    0    1.31e+00
2007 09 28  2305    54371   83100      0    1.89e+00    0    1.31e+00
2007 09 28  2310    54371   83400      0    1.88e+00    0    1.31e+00
2007 09 28  2315    54371   83700      0    1.85e+00    0    1.30e+00
2007 09 28  2320    54371   84000      0    1.87e+00    0    1.31e+00
2007 09 28  2325    54371   84300      0    1.89e+00    0    1.32e+00
2007 09 28  2330    54371   84600      0    1.86e+00    0    1.29e+00
2007 09 28  2335    54371   84900      0    1.86e+00    0    1.31e+00
2007 09 28  2340    54371   85200      0    1.87e+00    0    1.31e+00
2007 09 28  2345    54371   85500      0    1.84e+00    0    1.27e+00
2007 09 28  2350    54371   85800      0    1.86e+00    0    1.30e+00
2007 09 28  2355    54371   86100      0    1.84e+00    0    1.29e+00
