:Data_list: 20070923_ace_sis_5m.txt
:Created: 2007 Sep 24 0011 UT
# Prepared by the U.S. Dept. of Commerce, NOAA, Space Environment Center.
# Please send comments and suggestions to SEC.Webmaster@noaa.gov 
# 
# Units: proton flux p/cs2-sec-ster
# Status(S): 0 = nominal data, 1 to 8 = bad data record, 9 = no data
# Missing data values: -1.00e+05
# Source: ACE Satellite - Solar Isotope Spectrometer
#
# 5-minute averaged Real-time Integral Flux of High-energy Solar Protons
# 
#                 Modified Seconds
# UT Date   Time   Julian  of the      ---- Integral Proton Flux ----
# YR MO DA  HHMM     Day     Day       S    > 10 MeV    S    > 30 MeV
#--------------------------------------------------------------------
2007 09 23  0000    54366       0      0    1.86e+00    0    1.31e+00
2007 09 23  0005    54366     300      0    1.87e+00    0    1.30e+00
2007 09 23  0010    54366     600      0    1.86e+00    0    1.29e+00
2007 09 23  0015    54366     900      0    1.90e+00    0    1.34e+00
2007 09 23  0020    54366    1200      0    1.91e+00    0    1.34e+00
2007 09 23  0025    54366    1500      0    1.88e+00    0    1.32e+00
2007 09 23  0030    54366    1800      0    1.86e+00    0    1.30e+00
2007 09 23  0035    54366    2100      0    1.92e+00    0    1.35e+00
2007 09 23  0040    54366    2400      0    1.94e+00    0    1.34e+00
2007 09 23  0045    54366    2700      0    1.90e+00    0    1.32e+00
2007 09 23  0050    54366    3000      0    1.88e+00    0    1.31e+00
2007 09 23  0055    54366    3300      0    1.87e+00    0    1.32e+00
2007 09 23  0100    54366    3600      0    1.90e+00    0    1.33e+00
2007 09 23  0105    54366    3900      0    1.92e+00    0    1.34e+00
2007 09 23  0110    54366    4200      0    1.88e+00    0    1.31e+00
2007 09 23  0115    54366    4500      0    1.94e+00    0    1.35e+00
2007 09 23  0120    54366    4800      0    1.88e+00    0    1.31e+00
2007 09 23  0125    54366    5100      0    1.85e+00    0    1.29e+00
2007 09 23  0130    54366    5400      0    1.89e+00    0    1.33e+00
2007 09 23  0135    54366    5700      0    1.92e+00    0    1.36e+00
2007 09 23  0140    54366    6000      0    1.91e+00    0    1.33e+00
2007 09 23  0145    54366    6300      0    1.89e+00    0    1.31e+00
2007 09 23  0150    54366    6600      0    1.90e+00    0    1.33e+00
2007 09 23  0155    54366    6900      0    1.89e+00    0    1.33e+00
2007 09 23  0200    54366    7200      0    1.90e+00    0    1.35e+00
2007 09 23  0205    54366    7500      0    1.91e+00    0    1.34e+00
2007 09 23  0210    54366    7800      0    1.91e+00    0    1.33e+00
2007 09 23  0215    54366    8100      0    1.87e+00    0    1.31e+00
2007 09 23  0220    54366    8400      0    1.87e+00    0    1.32e+00
2007 09 23  0225    54366    8700      0    1.91e+00    0    1.34e+00
2007 09 23  0230    54366    9000      0    1.88e+00    0    1.33e+00
2007 09 23  0235    54366    9300      0    1.90e+00    0    1.33e+00
2007 09 23  0240    54366    9600      0    1.87e+00    0    1.30e+00
2007 09 23  0245    54366    9900      0    1.91e+00    0    1.33e+00
2007 09 23  0250    54366   10200      0    1.90e+00    0    1.34e+00
2007 09 23  0255    54366   10500      0    1.88e+00    0    1.31e+00
2007 09 23  0300    54366   10800      0    1.87e+00    0    1.30e+00
2007 09 23  0305    54366   11100      0    1.90e+00    0    1.34e+00
2007 09 23  0310    54366   11400      0    1.90e+00    0    1.33e+00
2007 09 23  0315    54366   11700      0    1.93e+00    0    1.35e+00
2007 09 23  0320    54366   12000      0    1.89e+00    0    1.30e+00
2007 09 23  0325    54366   12300      0    1.88e+00    0    1.31e+00
2007 09 23  0330    54366   12600      0    1.92e+00    0    1.34e+00
2007 09 23  0335    54366   12900      0    1.91e+00    0    1.33e+00
2007 09 23  0340    54366   13200      0    1.88e+00    0    1.30e+00
2007 09 23  0345    54366   13500      0    1.91e+00    0    1.34e+00
2007 09 23  0350    54366   13800      0    1.88e+00    0    1.32e+00
2007 09 23  0355    54366   14100      0    1.90e+00    0    1.33e+00
2007 09 23  0400    54366   14400      0    1.90e+00    0    1.34e+00
2007 09 23  0405    54366   14700      0    1.93e+00    0    1.36e+00
2007 09 23  0410    54366   15000      0    1.94e+00    0    1.35e+00
2007 09 23  0415    54366   15300      0    1.93e+00    0    1.35e+00
2007 09 23  0420    54366   15600      0    1.89e+00    0    1.32e+00
2007 09 23  0425    54366   15900      0    1.84e+00    0    1.28e+00
2007 09 23  0430    54366   16200      0    1.90e+00    0    1.33e+00
2007 09 23  0435    54366   16500      0    1.75e+00    0    1.21e+00
2007 09 23  0440    54366   16800      0    1.87e+00    0    1.30e+00
2007 09 23  0445    54366   17100      0    1.86e+00    0    1.30e+00
2007 09 23  0450    54366   17400      0    1.88e+00    0    1.31e+00
2007 09 23  0455    54366   17700      0    1.88e+00    0    1.31e+00
2007 09 23  0500    54366   18000      0    1.88e+00    0    1.31e+00
2007 09 23  0505    54366   18300      0    1.92e+00    0    1.36e+00
2007 09 23  0510    54366   18600      0    1.89e+00    0    1.33e+00
2007 09 23  0515    54366   18900      0    1.85e+00    0    1.30e+00
2007 09 23  0520    54366   19200      0    1.93e+00    0    1.36e+00
2007 09 23  0525    54366   19500      0    1.88e+00    0    1.33e+00
2007 09 23  0530    54366   19800      0    1.92e+00    0    1.35e+00
2007 09 23  0535    54366   20100      0    1.91e+00    0    1.34e+00
2007 09 23  0540    54366   20400      0    1.89e+00    0    1.32e+00
2007 09 23  0545    54366   20700      0    1.85e+00    0    1.28e+00
2007 09 23  0550    54366   21000      0    1.92e+00    0    1.34e+00
2007 09 23  0555    54366   21300      0    1.88e+00    0    1.32e+00
2007 09 23  0600    54366   21600      0    1.85e+00    0    1.29e+00
2007 09 23  0605    54366   21900      0    1.87e+00    0    1.31e+00
2007 09 23  0610    54366   22200      0    1.83e+00    0    1.28e+00
2007 09 23  0615    54366   22500      0    1.89e+00    0    1.31e+00
2007 09 23  0620    54366   22800      0    1.88e+00    0    1.31e+00
2007 09 23  0625    54366   23100      0    1.90e+00    0    1.33e+00
2007 09 23  0630    54366   23400      0    1.89e+00    0    1.33e+00
2007 09 23  0635    54366   23700      0    1.88e+00    0    1.31e+00
2007 09 23  0640    54366   24000      0    1.86e+00    0    1.30e+00
2007 09 23  0645    54366   24300      0    1.93e+00    0    1.33e+00
2007 09 23  0650    54366   24600      0    1.89e+00    0    1.31e+00
2007 09 23  0655    54366   24900      0    1.89e+00    0    1.34e+00
2007 09 23  0700    54366   25200      0    1.87e+00    0    1.31e+00
2007 09 23  0705    54366   25500      0    1.92e+00    0    1.34e+00
2007 09 23  0710    54366   25800      0    1.88e+00    0    1.32e+00
2007 09 23  0715    54366   26100      0    1.87e+00    0    1.30e+00
2007 09 23  0720    54366   26400      0    1.92e+00    0    1.34e+00
2007 09 23  0725    54366   26700      0    1.89e+00    0    1.31e+00
2007 09 23  0730    54366   27000      0    1.86e+00    0    1.29e+00
2007 09 23  0735    54366   27300      0    1.92e+00    0    1.35e+00
2007 09 23  0740    54366   27600      0    1.90e+00    0    1.33e+00
2007 09 23  0745    54366   27900      0    1.89e+00    0    1.32e+00
2007 09 23  0750    54366   28200      0    1.92e+00    0    1.34e+00
2007 09 23  0755    54366   28500      0    1.89e+00    0    1.32e+00
2007 09 23  0800    54366   28800      0    1.87e+00    0    1.31e+00
2007 09 23  0805    54366   29100      0    1.88e+00    0    1.34e+00
2007 09 23  0810    54366   29400      0    1.87e+00    0    1.29e+00
2007 09 23  0815    54366   29700      0    1.89e+00    0    1.32e+00
2007 09 23  0820    54366   30000      0    1.87e+00    0    1.30e+00
2007 09 23  0825    54366   30300      0    1.90e+00    0    1.34e+00
2007 09 23  0830    54366   30600      0    1.87e+00    0    1.31e+00
2007 09 23  0835    54366   30900      0    1.86e+00    0    1.30e+00
2007 09 23  0840    54366   31200      0    1.89e+00    0    1.32e+00
2007 09 23  0845    54366   31500      0    1.93e+00    0    1.35e+00
2007 09 23  0850    54366   31800      0    1.86e+00    0    1.30e+00
2007 09 23  0855    54366   32100      0    1.85e+00    0    1.29e+00
2007 09 23  0900    54366   32400      0    1.88e+00    0    1.32e+00
2007 09 23  0905    54366   32700      0    1.82e+00    0    1.27e+00
2007 09 23  0910    54366   33000      0    1.91e+00    0    1.35e+00
2007 09 23  0915    54366   33300      0    1.86e+00    0    1.30e+00
2007 09 23  0920    54366   33600      0    1.86e+00    0    1.30e+00
2007 09 23  0925    54366   33900      0    1.87e+00    0    1.30e+00
2007 09 23  0930    54366   34200      0    1.89e+00    0    1.32e+00
2007 09 23  0935    54366   34500      0    1.85e+00    0    1.29e+00
2007 09 23  0940    54366   34800      0    1.93e+00    0    1.35e+00
2007 09 23  0945    54366   35100      0    1.93e+00    0    1.35e+00
2007 09 23  0950    54366   35400      0    1.91e+00    0    1.35e+00
2007 09 23  0955    54366   35700      0    1.84e+00    0    1.29e+00
2007 09 23  1000    54366   36000      0    1.87e+00    0    1.31e+00
2007 09 23  1005    54366   36300      0    1.92e+00    0    1.34e+00
2007 09 23  1010    54366   36600      0    1.89e+00    0    1.33e+00
2007 09 23  1015    54366   36900      0    1.91e+00    0    1.34e+00
2007 09 23  1020    54366   37200      0    1.92e+00    0    1.36e+00
2007 09 23  1025    54366   37500      0    1.92e+00    0    1.34e+00
2007 09 23  1030    54366   37800      0    1.89e+00    0    1.32e+00
2007 09 23  1035    54366   38100      0    1.90e+00    0    1.33e+00
2007 09 23  1040    54366   38400      0    1.90e+00    0    1.33e+00
2007 09 23  1045    54366   38700      0    1.89e+00    0    1.33e+00
2007 09 23  1050    54366   39000      0    1.88e+00    0    1.32e+00
2007 09 23  1055    54366   39300      0    1.89e+00    0    1.32e+00
2007 09 23  1100    54366   39600      0    1.89e+00    0    1.33e+00
2007 09 23  1105    54366   39900      0    1.91e+00    0    1.33e+00
2007 09 23  1110    54366   40200      0    1.94e+00    0    1.36e+00
2007 09 23  1115    54366   40500      0    1.91e+00    0    1.34e+00
2007 09 23  1120    54366   40800      0    1.90e+00    0    1.34e+00
2007 09 23  1125    54366   41100      0    1.91e+00    0    1.34e+00
2007 09 23  1130    54366   41400      0    1.90e+00    0    1.33e+00
2007 09 23  1135    54366   41700      0    1.89e+00    0    1.31e+00
2007 09 23  1140    54366   42000      0    1.91e+00    0    1.33e+00
2007 09 23  1145    54366   42300      0    1.87e+00    0    1.31e+00
2007 09 23  1150    54366   42600      0    1.90e+00    0    1.33e+00
2007 09 23  1155    54366   42900      0    1.89e+00    0    1.33e+00
2007 09 23  1200    54366   43200      0    1.94e+00    0    1.37e+00
2007 09 23  1205    54366   43500      0    1.88e+00    0    1.32e+00
2007 09 23  1210    54366   43800      0    1.94e+00    0    1.35e+00
2007 09 23  1215    54366   44100      0    1.91e+00    0    1.33e+00
2007 09 23  1220    54366   44400      0    1.89e+00    0    1.31e+00
2007 09 23  1225    54366   44700      0    1.88e+00    0    1.31e+00
2007 09 23  1230    54366   45000      0    1.88e+00    0    1.31e+00
2007 09 23  1235    54366   45300      0    2.07e+00    0    1.50e+00
2007 09 23  1240    54366   45600      0    1.90e+00    0    1.34e+00
2007 09 23  1245    54366   45900      0    1.89e+00    0    1.32e+00
2007 09 23  1250    54366   46200      0    1.91e+00    0    1.33e+00
2007 09 23  1255    54366   46500      0    1.90e+00    0    1.31e+00
2007 09 23  1300    54366   46800      0    1.89e+00    0    1.33e+00
2007 09 23  1305    54366   47100      0    1.86e+00    0    1.30e+00
2007 09 23  1310    54366   47400      0    1.89e+00    0    1.33e+00
2007 09 23  1315    54366   47700      0    1.89e+00    0    1.33e+00
2007 09 23  1320    54366   48000      0    1.90e+00    0    1.34e+00
2007 09 23  1325    54366   48300      0    1.92e+00    0    1.34e+00
2007 09 23  1330    54366   48600      0    1.90e+00    0    1.32e+00
2007 09 23  1335    54366   48900      0    1.91e+00    0    1.34e+00
2007 09 23  1340    54366   49200      0    1.87e+00    0    1.32e+00
2007 09 23  1345    54366   49500      0    1.87e+00    0    1.30e+00
2007 09 23  1350    54366   49800      0    1.88e+00    0    1.33e+00
2007 09 23  1355    54366   50100      0    1.85e+00    0    1.29e+00
2007 09 23  1400    54366   50400      0    1.89e+00    0    1.31e+00
2007 09 23  1405    54366   50700      0    1.87e+00    0    1.31e+00
2007 09 23  1410    54366   51000      0    1.91e+00    0    1.34e+00
2007 09 23  1415    54366   51300      0    1.86e+00    0    1.30e+00
2007 09 23  1420    54366   51600      0    1.91e+00    0    1.34e+00
2007 09 23  1425    54366   51900      0    1.94e+00    0    1.38e+00
2007 09 23  1430    54366   52200      0    1.90e+00    0    1.32e+00
2007 09 23  1435    54366   52500      0    1.88e+00    0    1.31e+00
2007 09 23  1440    54366   52800      0    1.91e+00    0    1.34e+00
2007 09 23  1445    54366   53100      0    1.90e+00    0    1.32e+00
2007 09 23  1450    54366   53400      0    1.88e+00    0    1.32e+00
2007 09 23  1455    54366   53700      0    1.89e+00    0    1.32e+00
2007 09 23  1500    54366   54000      0    1.88e+00    0    1.31e+00
2007 09 23  1505    54366   54300      0    1.93e+00    0    1.35e+00
2007 09 23  1510    54366   54600      0    1.90e+00    0    1.34e+00
2007 09 23  1515    54366   54900      0    1.92e+00    0    1.33e+00
2007 09 23  1520    54366   55200      0    1.89e+00    0    1.31e+00
2007 09 23  1525    54366   55500      0    1.91e+00    0    1.34e+00
2007 09 23  1530    54366   55800      0    1.90e+00    0    1.33e+00
2007 09 23  1535    54366   56100      0    1.87e+00    0    1.32e+00
2007 09 23  1540    54366   56400      0    1.89e+00    0    1.31e+00
2007 09 23  1545    54366   56700      0    1.91e+00    0    1.33e+00
2007 09 23  1550    54366   57000      0    1.87e+00    0    1.32e+00
2007 09 23  1555    54366   57300      0    1.86e+00    0    1.30e+00
2007 09 23  1600    54366   57600      0    1.88e+00    0    1.31e+00
2007 09 23  1605    54366   57900      0    1.89e+00    0    1.33e+00
2007 09 23  1610    54366   58200      0    1.88e+00    0    1.32e+00
2007 09 23  1615    54366   58500      0    1.90e+00    0    1.33e+00
2007 09 23  1620    54366   58800      0    1.87e+00    0    1.31e+00
2007 09 23  1625    54366   59100      0    1.91e+00    0    1.34e+00
2007 09 23  1630    54366   59400      0    1.92e+00    0    1.35e+00
2007 09 23  1635    54366   59700      0    1.86e+00    0    1.30e+00
2007 09 23  1640    54366   60000      0    1.88e+00    0    1.31e+00
2007 09 23  1645    54366   60300      0    1.92e+00    0    1.36e+00
2007 09 23  1650    54366   60600      0    1.89e+00    0    1.32e+00
2007 09 23  1655    54366   60900      0    1.87e+00    0    1.32e+00
2007 09 23  1700    54366   61200      0    1.89e+00    0    1.33e+00
2007 09 23  1705    54366   61500      0    1.89e+00    0    1.31e+00
2007 09 23  1710    54366   61800      0    1.93e+00    0    1.35e+00
2007 09 23  1715    54366   62100      0    1.87e+00    0    1.31e+00
2007 09 23  1720    54366   62400      0    1.91e+00    0    1.35e+00
2007 09 23  1725    54366   62700      0    1.92e+00    0    1.33e+00
2007 09 23  1730    54366   63000      0    1.87e+00    0    1.31e+00
2007 09 23  1735    54366   63300      0    1.91e+00    0    1.33e+00
2007 09 23  1740    54366   63600      0    1.88e+00    0    1.32e+00
2007 09 23  1745    54366   63900      0    1.86e+00    0    1.31e+00
2007 09 23  1750    54366   64200      0    1.88e+00    0    1.33e+00
2007 09 23  1755    54366   64500      0    1.88e+00    0    1.31e+00
2007 09 23  1800    54366   64800      0    1.86e+00    0    1.31e+00
2007 09 23  1805    54366   65100      0    1.92e+00    0    1.34e+00
2007 09 23  1810    54366   65400      0    1.88e+00    0    1.30e+00
2007 09 23  1815    54366   65700      0    1.86e+00    0    1.31e+00
2007 09 23  1820    54366   66000      0    1.89e+00    0    1.33e+00
2007 09 23  1825    54366   66300      0    1.89e+00    0    1.32e+00
2007 09 23  1830    54366   66600      0    1.92e+00    0    1.32e+00
2007 09 23  1835    54366   66900      9   -1.00e+05    9   -1.00e+05
2007 09 23  1840    54366   67200      9   -1.00e+05    9   -1.00e+05
2007 09 23  1845    54366   67500      9   -1.00e+05    9   -1.00e+05
2007 09 23  1850    54366   67800      9   -1.00e+05    9   -1.00e+05
2007 09 23  1855    54366   68100      9   -1.00e+05    9   -1.00e+05
2007 09 23  1900    54366   68400      9   -1.00e+05    9   -1.00e+05
2007 09 23  1905    54366   68700      0    1.91e+00    0    1.33e+00
2007 09 23  1910    54366   69000      0    1.85e+00    0    1.30e+00
2007 09 23  1915    54366   69300      0    1.88e+00    0    1.32e+00
2007 09 23  1920    54366   69600      0    1.87e+00    0    1.31e+00
2007 09 23  1925    54366   69900      0    1.88e+00    0    1.31e+00
2007 09 23  1930    54366   70200      0    1.87e+00    0    1.30e+00
2007 09 23  1935    54366   70500      0    1.90e+00    0    1.33e+00
2007 09 23  1940    54366   70800      0    1.88e+00    0    1.32e+00
2007 09 23  1945    54366   71100      0    1.87e+00    0    1.31e+00
2007 09 23  1950    54366   71400      0    1.85e+00    0    1.29e+00
2007 09 23  1955    54366   71700      0    1.88e+00    0    1.30e+00
2007 09 23  2000    54366   72000      0    1.88e+00    0    1.32e+00
2007 09 23  2005    54366   72300      0    1.88e+00    0    1.31e+00
2007 09 23  2010    54366   72600      0    1.92e+00    0    1.34e+00
2007 09 23  2015    54366   72900      0    1.85e+00    0    1.30e+00
2007 09 23  2020    54366   73200      0    1.84e+00    0    1.29e+00
2007 09 23  2025    54366   73500      0    1.91e+00    0    1.34e+00
2007 09 23  2030    54366   73800      0    1.85e+00    0    1.29e+00
2007 09 23  2035    54366   74100      0    1.86e+00    0    1.30e+00
2007 09 23  2040    54366   74400      0    1.90e+00    0    1.33e+00
2007 09 23  2045    54366   74700      0    1.87e+00    0    1.30e+00
2007 09 23  2050    54366   75000      0    1.89e+00    0    1.33e+00
2007 09 23  2055    54366   75300      0    1.92e+00    0    1.35e+00
2007 09 23  2100    54366   75600      0    1.86e+00    0    1.31e+00
2007 09 23  2105    54366   75900      0    1.86e+00    0    1.29e+00
2007 09 23  2110    54366   76200      0    1.88e+00    0    1.32e+00
2007 09 23  2115    54366   76500      0    1.89e+00    0    1.33e+00
2007 09 23  2120    54366   76800      0    1.94e+00    0    1.36e+00
2007 09 23  2125    54366   77100      0    1.81e+00    0    1.25e+00
2007 09 23  2130    54366   77400      0    1.88e+00    0    1.32e+00
2007 09 23  2135    54366   77700      0    1.88e+00    0    1.30e+00
2007 09 23  2140    54366   78000      0    1.87e+00    0    1.30e+00
2007 09 23  2145    54366   78300      0    1.89e+00    0    1.31e+00
2007 09 23  2150    54366   78600      0    1.88e+00    0    1.32e+00
2007 09 23  2155    54366   78900      0    1.88e+00    0    1.32e+00
2007 09 23  2200    54366   79200      0    1.87e+00    0    1.30e+00
2007 09 23  2205    54366   79500      0    1.92e+00    0    1.35e+00
2007 09 23  2210    54366   79800      0    1.91e+00    0    1.35e+00
2007 09 23  2215    54366   80100      0    1.90e+00    0    1.33e+00
2007 09 23  2220    54366   80400      0    1.93e+00    0    1.34e+00
2007 09 23  2225    54366   80700      0    1.86e+00    0    1.30e+00
2007 09 23  2230    54366   81000      0    1.87e+00    0    1.30e+00
2007 09 23  2235    54366   81300      0    1.85e+00    0    1.30e+00
2007 09 23  2240    54366   81600      0    1.85e+00    0    1.29e+00
2007 09 23  2245    54366   81900      0    1.85e+00    0    1.29e+00
2007 09 23  2250    54366   82200      0    1.88e+00    0    1.32e+00
2007 09 23  2255    54366   82500      0    1.90e+00    0    1.33e+00
2007 09 23  2300    54366   82800      0    1.89e+00    0    1.32e+00
2007 09 23  2305    54366   83100      0    1.91e+00    0    1.33e+00
2007 09 23  2310    54366   83400      0    1.89e+00    0    1.31e+00
2007 09 23  2315    54366   83700      0    1.88e+00    0    1.32e+00
2007 09 23  2320    54366   84000      0    1.84e+00    0    1.29e+00
2007 09 23  2325    54366   84300      0    1.86e+00    0    1.29e+00
2007 09 23  2330    54366   84600      0    1.87e+00    0    1.31e+00
2007 09 23  2335    54366   84900      0    1.87e+00    0    1.30e+00
2007 09 23  2340    54366   85200      0    1.87e+00    0    1.30e+00
2007 09 23  2345    54366   85500      0    1.91e+00    0    1.33e+00
2007 09 23  2350    54366   85800      0    1.94e+00    0    1.36e+00
2007 09 23  2355    54366   86100      0    1.90e+00    0    1.32e+00
