:Data_list: 20070926_ace_sis_5m.txt
:Created: 2007 Sep 27 0011 UT
# Prepared by the U.S. Dept. of Commerce, NOAA, Space Environment Center.
# Please send comments and suggestions to SEC.Webmaster@noaa.gov 
# 
# Units: proton flux p/cs2-sec-ster
# Status(S): 0 = nominal data, 1 to 8 = bad data record, 9 = no data
# Missing data values: -1.00e+05
# Source: ACE Satellite - Solar Isotope Spectrometer
#
# 5-minute averaged Real-time Integral Flux of High-energy Solar Protons
# 
#                 Modified Seconds
# UT Date   Time   Julian  of the      ---- Integral Proton Flux ----
# YR MO DA  HHMM     Day     Day       S    > 10 MeV    S    > 30 MeV
#--------------------------------------------------------------------
2007 09 26  0000    54369       0      0    1.94e+00    0    1.36e+00
2007 09 26  0005    54369     300      0    1.92e+00    0    1.35e+00
2007 09 26  0010    54369     600      0    1.91e+00    0    1.35e+00
2007 09 26  0015    54369     900      0    1.90e+00    0    1.33e+00
2007 09 26  0020    54369    1200      0    1.89e+00    0    1.32e+00
2007 09 26  0025    54369    1500      0    1.87e+00    0    1.33e+00
2007 09 26  0030    54369    1800      0    1.95e+00    0    1.36e+00
2007 09 26  0035    54369    2100      0    1.91e+00    0    1.34e+00
2007 09 26  0040    54369    2400      0    1.93e+00    0    1.35e+00
2007 09 26  0045    54369    2700      0    1.92e+00    0    1.34e+00
2007 09 26  0050    54369    3000      0    1.93e+00    0    1.34e+00
2007 09 26  0055    54369    3300      0    1.91e+00    0    1.34e+00
2007 09 26  0100    54369    3600      0    1.91e+00    0    1.34e+00
2007 09 26  0105    54369    3900      0    1.90e+00    0    1.33e+00
2007 09 26  0110    54369    4200      0    1.93e+00    0    1.35e+00
2007 09 26  0115    54369    4500      0    1.96e+00    0    1.37e+00
2007 09 26  0120    54369    4800      0    1.92e+00    0    1.35e+00
2007 09 26  0125    54369    5100      0    1.93e+00    0    1.36e+00
2007 09 26  0130    54369    5400      0    1.87e+00    0    1.29e+00
2007 09 26  0135    54369    5700      0    1.93e+00    0    1.35e+00
2007 09 26  0140    54369    6000      0    1.88e+00    0    1.32e+00
2007 09 26  0145    54369    6300      0    1.94e+00    0    1.35e+00
2007 09 26  0150    54369    6600      0    1.91e+00    0    1.32e+00
2007 09 26  0155    54369    6900      0    1.97e+00    0    1.39e+00
2007 09 26  0200    54369    7200      0    1.88e+00    0    1.31e+00
2007 09 26  0205    54369    7500      0    1.94e+00    0    1.35e+00
2007 09 26  0210    54369    7800      0    1.88e+00    0    1.32e+00
2007 09 26  0215    54369    8100      0    1.92e+00    0    1.34e+00
2007 09 26  0220    54369    8400      0    1.87e+00    0    1.29e+00
2007 09 26  0225    54369    8700      0    1.87e+00    0    1.31e+00
2007 09 26  0230    54369    9000      0    1.91e+00    0    1.35e+00
2007 09 26  0235    54369    9300      0    1.88e+00    0    1.32e+00
2007 09 26  0240    54369    9600      0    1.92e+00    0    1.33e+00
2007 09 26  0245    54369    9900      0    1.91e+00    0    1.33e+00
2007 09 26  0250    54369   10200      0    1.91e+00    0    1.34e+00
2007 09 26  0255    54369   10500      0    1.90e+00    0    1.34e+00
2007 09 26  0300    54369   10800      0    1.93e+00    0    1.36e+00
2007 09 26  0305    54369   11100      0    1.93e+00    0    1.35e+00
2007 09 26  0310    54369   11400      0    1.89e+00    0    1.34e+00
2007 09 26  0315    54369   11700      0    1.93e+00    0    1.37e+00
2007 09 26  0320    54369   12000      0    1.94e+00    0    1.35e+00
2007 09 26  0325    54369   12300      0    1.88e+00    0    1.30e+00
2007 09 26  0330    54369   12600      0    1.93e+00    0    1.35e+00
2007 09 26  0335    54369   12900      0    1.91e+00    0    1.35e+00
2007 09 26  0340    54369   13200      0    1.90e+00    0    1.32e+00
2007 09 26  0345    54369   13500      0    1.88e+00    0    1.31e+00
2007 09 26  0350    54369   13800      0    1.80e+00    0    1.25e+00
2007 09 26  0355    54369   14100      0    1.87e+00    0    1.30e+00
2007 09 26  0400    54369   14400      0    1.89e+00    0    1.32e+00
2007 09 26  0405    54369   14700      0    1.91e+00    0    1.34e+00
2007 09 26  0410    54369   15000      0    1.86e+00    0    1.29e+00
2007 09 26  0415    54369   15300      0    1.90e+00    0    1.33e+00
2007 09 26  0420    54369   15600      0    1.90e+00    0    1.31e+00
2007 09 26  0425    54369   15900      0    1.93e+00    0    1.36e+00
2007 09 26  0430    54369   16200      0    1.96e+00    0    1.36e+00
2007 09 26  0435    54369   16500      0    1.93e+00    0    1.34e+00
2007 09 26  0440    54369   16800      0    1.92e+00    0    1.33e+00
2007 09 26  0445    54369   17100      0    1.91e+00    0    1.35e+00
2007 09 26  0450    54369   17400      0    1.94e+00    0    1.36e+00
2007 09 26  0455    54369   17700      0    1.87e+00    0    1.31e+00
2007 09 26  0500    54369   18000      0    1.90e+00    0    1.33e+00
2007 09 26  0505    54369   18300      0    1.90e+00    0    1.32e+00
2007 09 26  0510    54369   18600      0    1.90e+00    0    1.32e+00
2007 09 26  0515    54369   18900      0    1.89e+00    0    1.34e+00
2007 09 26  0520    54369   19200      0    1.87e+00    0    1.30e+00
2007 09 26  0525    54369   19500      0    1.90e+00    0    1.33e+00
2007 09 26  0530    54369   19800      0    1.92e+00    0    1.35e+00
2007 09 26  0535    54369   20100      0    1.92e+00    0    1.33e+00
2007 09 26  0540    54369   20400      0    1.95e+00    0    1.37e+00
2007 09 26  0545    54369   20700      0    1.92e+00    0    1.35e+00
2007 09 26  0550    54369   21000      0    1.92e+00    0    1.34e+00
2007 09 26  0555    54369   21300      0    1.88e+00    0    1.32e+00
2007 09 26  0600    54369   21600      0    1.92e+00    0    1.35e+00
2007 09 26  0605    54369   21900      0    1.85e+00    0    1.30e+00
2007 09 26  0610    54369   22200      0    1.92e+00    0    1.34e+00
2007 09 26  0615    54369   22500      0    1.91e+00    0    1.35e+00
2007 09 26  0620    54369   22800      0    1.90e+00    0    1.33e+00
2007 09 26  0625    54369   23100      0    1.93e+00    0    1.36e+00
2007 09 26  0630    54369   23400      0    1.92e+00    0    1.33e+00
2007 09 26  0635    54369   23700      0    1.89e+00    0    1.33e+00
2007 09 26  0640    54369   24000      0    1.90e+00    0    1.31e+00
2007 09 26  0645    54369   24300      0    1.90e+00    0    1.32e+00
2007 09 26  0650    54369   24600      0    1.87e+00    0    1.30e+00
2007 09 26  0655    54369   24900      0    1.91e+00    0    1.35e+00
2007 09 26  0700    54369   25200      0    1.91e+00    0    1.34e+00
2007 09 26  0705    54369   25500      0    1.91e+00    0    1.34e+00
2007 09 26  0710    54369   25800      0    1.87e+00    0    1.29e+00
2007 09 26  0715    54369   26100      0    1.89e+00    0    1.32e+00
2007 09 26  0720    54369   26400      0    1.91e+00    0    1.35e+00
2007 09 26  0725    54369   26700      0    1.88e+00    0    1.31e+00
2007 09 26  0730    54369   27000      0    1.90e+00    0    1.34e+00
2007 09 26  0735    54369   27300      0    1.90e+00    0    1.32e+00
2007 09 26  0740    54369   27600      0    1.92e+00    0    1.34e+00
2007 09 26  0745    54369   27900      0    1.90e+00    0    1.34e+00
2007 09 26  0750    54369   28200      0    1.88e+00    0    1.30e+00
2007 09 26  0755    54369   28500      0    1.89e+00    0    1.32e+00
2007 09 26  0800    54369   28800      0    1.90e+00    0    1.33e+00
2007 09 26  0805    54369   29100      0    1.92e+00    0    1.35e+00
2007 09 26  0810    54369   29400      0    1.90e+00    0    1.33e+00
2007 09 26  0815    54369   29700      0    1.91e+00    0    1.33e+00
2007 09 26  0820    54369   30000      0    1.93e+00    0    1.36e+00
2007 09 26  0825    54369   30300      0    1.94e+00    0    1.36e+00
2007 09 26  0830    54369   30600      0    1.90e+00    0    1.32e+00
2007 09 26  0835    54369   30900      0    1.89e+00    0    1.31e+00
2007 09 26  0840    54369   31200      0    1.94e+00    0    1.36e+00
2007 09 26  0845    54369   31500      0    1.90e+00    0    1.33e+00
2007 09 26  0850    54369   31800      0    1.94e+00    0    1.37e+00
2007 09 26  0855    54369   32100      0    1.89e+00    0    1.31e+00
2007 09 26  0900    54369   32400      0    1.91e+00    0    1.33e+00
2007 09 26  0905    54369   32700      0    1.88e+00    0    1.31e+00
2007 09 26  0910    54369   33000      0    1.90e+00    0    1.32e+00
2007 09 26  0915    54369   33300      0    1.91e+00    0    1.33e+00
2007 09 26  0920    54369   33600      0    1.93e+00    0    1.35e+00
2007 09 26  0925    54369   33900      0    1.95e+00    0    1.36e+00
2007 09 26  0930    54369   34200      0    1.93e+00    0    1.35e+00
2007 09 26  0935    54369   34500      0    1.95e+00    0    1.36e+00
2007 09 26  0940    54369   34800      0    1.98e+00    0    1.39e+00
2007 09 26  0945    54369   35100      0    1.91e+00    0    1.33e+00
2007 09 26  0950    54369   35400      0    1.90e+00    0    1.32e+00
2007 09 26  0955    54369   35700      0    1.91e+00    0    1.33e+00
2007 09 26  1000    54369   36000      0    1.92e+00    0    1.35e+00
2007 09 26  1005    54369   36300      0    1.93e+00    0    1.35e+00
2007 09 26  1010    54369   36600      0    1.90e+00    0    1.33e+00
2007 09 26  1015    54369   36900      0    1.91e+00    0    1.34e+00
2007 09 26  1020    54369   37200      0    1.90e+00    0    1.32e+00
2007 09 26  1025    54369   37500      0    1.93e+00    0    1.37e+00
2007 09 26  1030    54369   37800      0    1.95e+00    0    1.37e+00
2007 09 26  1035    54369   38100      0    1.89e+00    0    1.31e+00
2007 09 26  1040    54369   38400      0    1.93e+00    0    1.35e+00
2007 09 26  1045    54369   38700      0    1.86e+00    0    1.30e+00
2007 09 26  1050    54369   39000      0    1.88e+00    0    1.32e+00
2007 09 26  1055    54369   39300      0    1.91e+00    0    1.33e+00
2007 09 26  1100    54369   39600      0    1.88e+00    0    1.32e+00
2007 09 26  1105    54369   39900      0    1.89e+00    0    1.33e+00
2007 09 26  1110    54369   40200      0    1.96e+00    0    1.38e+00
2007 09 26  1115    54369   40500      0    1.91e+00    0    1.34e+00
2007 09 26  1120    54369   40800      0    1.91e+00    0    1.34e+00
2007 09 26  1125    54369   41100      0    1.86e+00    0    1.30e+00
2007 09 26  1130    54369   41400      0    1.91e+00    0    1.32e+00
2007 09 26  1135    54369   41700      0    1.95e+00    0    1.36e+00
2007 09 26  1140    54369   42000      0    1.95e+00    0    1.36e+00
2007 09 26  1145    54369   42300      0    1.91e+00    0    1.33e+00
2007 09 26  1150    54369   42600      0    1.91e+00    0    1.34e+00
2007 09 26  1155    54369   42900      0    1.89e+00    0    1.32e+00
2007 09 26  1200    54369   43200      0    1.94e+00    0    1.35e+00
2007 09 26  1205    54369   43500      0    1.86e+00    0    1.30e+00
2007 09 26  1210    54369   43800      0    1.91e+00    0    1.34e+00
2007 09 26  1215    54369   44100      0    1.96e+00    0    1.37e+00
2007 09 26  1220    54369   44400      0    1.92e+00    0    1.35e+00
2007 09 26  1225    54369   44700      0    1.88e+00    0    1.32e+00
2007 09 26  1230    54369   45000      0    1.90e+00    0    1.34e+00
2007 09 26  1235    54369   45300      0    1.91e+00    0    1.33e+00
2007 09 26  1240    54369   45600      0    1.91e+00    0    1.35e+00
2007 09 26  1245    54369   45900      0    1.92e+00    0    1.34e+00
2007 09 26  1250    54369   46200      0    1.90e+00    0    1.32e+00
2007 09 26  1255    54369   46500      0    1.92e+00    0    1.34e+00
2007 09 26  1300    54369   46800      0    1.90e+00    0    1.33e+00
2007 09 26  1305    54369   47100      0    1.91e+00    0    1.32e+00
2007 09 26  1310    54369   47400      0    1.94e+00    0    1.36e+00
2007 09 26  1315    54369   47700      0    1.91e+00    0    1.34e+00
2007 09 26  1320    54369   48000      0    1.90e+00    0    1.34e+00
2007 09 26  1325    54369   48300      0    1.89e+00    0    1.33e+00
2007 09 26  1330    54369   48600      0    1.93e+00    0    1.35e+00
2007 09 26  1335    54369   48900      0    1.90e+00    0    1.32e+00
2007 09 26  1340    54369   49200      0    1.89e+00    0    1.33e+00
2007 09 26  1345    54369   49500      0    1.90e+00    0    1.33e+00
2007 09 26  1350    54369   49800      0    1.90e+00    0    1.32e+00
2007 09 26  1355    54369   50100      0    1.90e+00    0    1.33e+00
2007 09 26  1400    54369   50400      0    1.90e+00    0    1.33e+00
2007 09 26  1405    54369   50700      0    1.91e+00    0    1.33e+00
2007 09 26  1410    54369   51000      0    1.89e+00    0    1.32e+00
2007 09 26  1415    54369   51300      0    1.91e+00    0    1.34e+00
2007 09 26  1420    54369   51600      0    1.89e+00    0    1.33e+00
2007 09 26  1425    54369   51900      0    1.88e+00    0    1.32e+00
2007 09 26  1430    54369   52200      0    1.89e+00    0    1.33e+00
2007 09 26  1435    54369   52500      0    1.90e+00    0    1.32e+00
2007 09 26  1440    54369   52800      0    1.92e+00    0    1.34e+00
2007 09 26  1445    54369   53100      0    1.91e+00    0    1.34e+00
2007 09 26  1450    54369   53400      0    1.84e+00    0    1.28e+00
2007 09 26  1455    54369   53700      0    1.91e+00    0    1.34e+00
2007 09 26  1500    54369   54000      0    1.84e+00    0    1.28e+00
2007 09 26  1505    54369   54300      0    1.89e+00    0    1.32e+00
2007 09 26  1510    54369   54600      0    1.89e+00    0    1.32e+00
2007 09 26  1515    54369   54900      0    1.86e+00    0    1.29e+00
2007 09 26  1520    54369   55200      0    1.92e+00    0    1.34e+00
2007 09 26  1525    54369   55500      0    1.90e+00    0    1.33e+00
2007 09 26  1530    54369   55800      0    1.88e+00    0    1.30e+00
2007 09 26  1535    54369   56100      0    1.90e+00    0    1.33e+00
2007 09 26  1540    54369   56400      0    1.95e+00    0    1.35e+00
2007 09 26  1545    54369   56700      0    1.87e+00    0    1.30e+00
2007 09 26  1550    54369   57000      0    1.88e+00    0    1.30e+00
2007 09 26  1555    54369   57300      0    1.90e+00    0    1.33e+00
2007 09 26  1600    54369   57600      0    1.92e+00    0    1.35e+00
2007 09 26  1605    54369   57900      0    1.88e+00    0    1.31e+00
2007 09 26  1610    54369   58200      0    1.90e+00    0    1.33e+00
2007 09 26  1615    54369   58500      0    1.93e+00    0    1.34e+00
2007 09 26  1620    54369   58800      0    1.92e+00    0    1.35e+00
2007 09 26  1625    54369   59100      0    1.91e+00    0    1.34e+00
2007 09 26  1630    54369   59400      0    1.91e+00    0    1.35e+00
2007 09 26  1635    54369   59700      0    1.90e+00    0    1.33e+00
2007 09 26  1640    54369   60000      0    1.93e+00    0    1.36e+00
2007 09 26  1645    54369   60300      0    1.90e+00    0    1.33e+00
2007 09 26  1650    54369   60600      9   -1.00e+05    9   -1.00e+05
2007 09 26  1655    54369   60900      9   -1.00e+05    9   -1.00e+05
2007 09 26  1700    54369   61200      9   -1.00e+05    9   -1.00e+05
2007 09 26  1705    54369   61500      0    1.87e+00    0    1.29e+00
2007 09 26  1710    54369   61800      0    1.91e+00    0    1.34e+00
2007 09 26  1715    54369   62100      9   -1.00e+05    9   -1.00e+05
2007 09 26  1720    54369   62400      9   -1.00e+05    9   -1.00e+05
2007 09 26  1725    54369   62700      9   -1.00e+05    9   -1.00e+05
2007 09 26  1730    54369   63000      9   -1.00e+05    9   -1.00e+05
2007 09 26  1735    54369   63300      9   -1.00e+05    9   -1.00e+05
2007 09 26  1740    54369   63600      9   -1.00e+05    9   -1.00e+05
2007 09 26  1745    54369   63900      9   -1.00e+05    9   -1.00e+05
2007 09 26  1750    54369   64200      0    1.90e+00    0    1.34e+00
2007 09 26  1755    54369   64500      0    1.87e+00    0    1.31e+00
2007 09 26  1800    54369   64800      0    1.93e+00    0    1.35e+00
2007 09 26  1805    54369   65100      0    1.92e+00    0    1.35e+00
2007 09 26  1810    54369   65400      0    1.91e+00    0    1.34e+00
2007 09 26  1815    54369   65700      0    1.90e+00    0    1.33e+00
2007 09 26  1820    54369   66000      0    1.90e+00    0    1.34e+00
2007 09 26  1825    54369   66300      0    1.92e+00    0    1.35e+00
2007 09 26  1830    54369   66600      0    1.90e+00    0    1.34e+00
2007 09 26  1835    54369   66900      0    1.94e+00    0    1.36e+00
2007 09 26  1840    54369   67200      0    1.92e+00    0    1.34e+00
2007 09 26  1845    54369   67500      0    1.90e+00    0    1.33e+00
2007 09 26  1850    54369   67800      0    1.92e+00    0    1.34e+00
2007 09 26  1855    54369   68100      0    1.92e+00    0    1.34e+00
2007 09 26  1900    54369   68400      0    1.92e+00    0    1.34e+00
2007 09 26  1905    54369   68700      0    1.91e+00    0    1.34e+00
2007 09 26  1910    54369   69000      0    1.94e+00    0    1.37e+00
2007 09 26  1915    54369   69300      0    1.91e+00    0    1.34e+00
2007 09 26  1920    54369   69600      0    1.95e+00    0    1.37e+00
2007 09 26  1925    54369   69900      0    1.90e+00    0    1.33e+00
2007 09 26  1930    54369   70200      0    1.90e+00    0    1.33e+00
2007 09 26  1935    54369   70500      0    1.88e+00    0    1.31e+00
2007 09 26  1940    54369   70800      0    1.92e+00    0    1.35e+00
2007 09 26  1945    54369   71100      0    1.90e+00    0    1.35e+00
2007 09 26  1950    54369   71400      0    1.91e+00    0    1.33e+00
2007 09 26  1955    54369   71700      0    1.91e+00    0    1.33e+00
2007 09 26  2000    54369   72000      0    1.89e+00    0    1.33e+00
2007 09 26  2005    54369   72300      0    1.88e+00    0    1.32e+00
2007 09 26  2010    54369   72600      0    1.91e+00    0    1.33e+00
2007 09 26  2015    54369   72900      0    1.90e+00    0    1.33e+00
2007 09 26  2020    54369   73200      0    1.94e+00    0    1.37e+00
2007 09 26  2025    54369   73500      0    1.92e+00    0    1.33e+00
2007 09 26  2030    54369   73800      0    1.92e+00    0    1.34e+00
2007 09 26  2035    54369   74100      0    1.93e+00    0    1.36e+00
2007 09 26  2040    54369   74400      0    1.93e+00    0    1.35e+00
2007 09 26  2045    54369   74700      0    1.89e+00    0    1.33e+00
2007 09 26  2050    54369   75000      0    1.94e+00    0    1.37e+00
2007 09 26  2055    54369   75300      0    1.88e+00    0    1.31e+00
2007 09 26  2100    54369   75600      0    1.90e+00    0    1.33e+00
2007 09 26  2105    54369   75900      0    1.92e+00    0    1.34e+00
2007 09 26  2110    54369   76200      0    1.92e+00    0    1.35e+00
2007 09 26  2115    54369   76500      0    1.92e+00    0    1.35e+00
2007 09 26  2120    54369   76800      0    1.89e+00    0    1.34e+00
2007 09 26  2125    54369   77100      0    1.88e+00    0    1.32e+00
2007 09 26  2130    54369   77400      0    1.90e+00    0    1.34e+00
2007 09 26  2135    54369   77700      0    1.91e+00    0    1.34e+00
2007 09 26  2140    54369   78000      0    1.92e+00    0    1.35e+00
2007 09 26  2145    54369   78300      0    1.91e+00    0    1.31e+00
2007 09 26  2150    54369   78600      0    1.93e+00    0    1.34e+00
2007 09 26  2155    54369   78900      0    1.92e+00    0    1.36e+00
2007 09 26  2200    54369   79200      0    1.92e+00    0    1.36e+00
2007 09 26  2205    54369   79500      0    1.89e+00    0    1.33e+00
2007 09 26  2210    54369   79800      0    1.87e+00    0    1.32e+00
2007 09 26  2215    54369   80100      0    1.92e+00    0    1.34e+00
2007 09 26  2220    54369   80400      0    1.91e+00    0    1.34e+00
2007 09 26  2225    54369   80700      0    1.91e+00    0    1.32e+00
2007 09 26  2230    54369   81000      0    1.89e+00    0    1.32e+00
2007 09 26  2235    54369   81300      0    1.93e+00    0    1.35e+00
2007 09 26  2240    54369   81600      0    1.94e+00    0    1.35e+00
2007 09 26  2245    54369   81900      0    1.90e+00    0    1.33e+00
2007 09 26  2250    54369   82200      0    1.93e+00    0    1.35e+00
2007 09 26  2255    54369   82500      0    1.95e+00    0    1.37e+00
2007 09 26  2300    54369   82800      0    1.94e+00    0    1.37e+00
2007 09 26  2305    54369   83100      0    1.92e+00    0    1.35e+00
2007 09 26  2310    54369   83400      0    1.90e+00    0    1.34e+00
2007 09 26  2315    54369   83700      0    1.95e+00    0    1.37e+00
2007 09 26  2320    54369   84000      0    1.91e+00    0    1.33e+00
2007 09 26  2325    54369   84300      0    1.90e+00    0    1.33e+00
2007 09 26  2330    54369   84600      0    1.90e+00    0    1.33e+00
2007 09 26  2335    54369   84900      0    1.88e+00    0    1.31e+00
2007 09 26  2340    54369   85200      0    1.91e+00    0    1.34e+00
2007 09 26  2345    54369   85500      0    1.95e+00    0    1.37e+00
2007 09 26  2350    54369   85800      0    1.95e+00    0    1.37e+00
2007 09 26  2355    54369   86100      0    1.90e+00    0    1.33e+00
