:Data_list: 20070220_ace_sis_5m.txt
:Created: 2007 Feb 21 0011 UT
# Prepared by the U.S. Dept. of Commerce, NOAA, Space Environment Center.
# Please send comments and suggestions to SEC.Webmaster@noaa.gov 
# 
# Units: proton flux p/cs2-sec-ster
# Status(S): 0 = nominal data, 1 to 8 = bad data record, 9 = no data
# Missing data values: -1.00e+05
# Source: ACE Satellite - Solar Isotope Spectrometer
#
# 5-minute averaged Real-time Integral Flux of High-energy Solar Protons
# 
#                 Modified Seconds
# UT Date   Time   Julian  of the      ---- Integral Proton Flux ----
# YR MO DA  HHMM     Day     Day       S    > 10 MeV    S    > 30 MeV
#--------------------------------------------------------------------
2007 02 20  0000    54151       0      0    1.72e+00    0    1.20e+00
2007 02 20  0005    54151     300      0    1.74e+00    0    1.22e+00
2007 02 20  0010    54151     600      0    1.71e+00    0    1.20e+00
2007 02 20  0015    54151     900      0    1.74e+00    0    1.22e+00
2007 02 20  0020    54151    1200      9   -1.00e+05    9   -1.00e+05
2007 02 20  0025    54151    1500      9   -1.00e+05    9   -1.00e+05
2007 02 20  0030    54151    1800      9   -1.00e+05    9   -1.00e+05
2007 02 20  0035    54151    2100      9   -1.00e+05    9   -1.00e+05
2007 02 20  0040    54151    2400      0    1.70e+00    0    1.18e+00
2007 02 20  0045    54151    2700      0    1.71e+00    0    1.21e+00
2007 02 20  0050    54151    3000      0    1.73e+00    0    1.22e+00
2007 02 20  0055    54151    3300      0    1.76e+00    0    1.23e+00
2007 02 20  0100    54151    3600      0    1.76e+00    0    1.23e+00
2007 02 20  0105    54151    3900      0    1.76e+00    0    1.25e+00
2007 02 20  0110    54151    4200      0    1.72e+00    0    1.22e+00
2007 02 20  0115    54151    4500      0    1.72e+00    0    1.21e+00
2007 02 20  0120    54151    4800      0    1.73e+00    0    1.23e+00
2007 02 20  0125    54151    5100      0    1.71e+00    0    1.19e+00
2007 02 20  0130    54151    5400      0    1.73e+00    0    1.22e+00
2007 02 20  0135    54151    5700      0    1.73e+00    0    1.21e+00
2007 02 20  0140    54151    6000      0    1.75e+00    0    1.22e+00
2007 02 20  0145    54151    6300      0    1.70e+00    0    1.18e+00
2007 02 20  0150    54151    6600      0    1.73e+00    0    1.23e+00
2007 02 20  0155    54151    6900      0    1.70e+00    0    1.18e+00
2007 02 20  0200    54151    7200      0    1.71e+00    0    1.20e+00
2007 02 20  0205    54151    7500      0    1.73e+00    0    1.21e+00
2007 02 20  0210    54151    7800      0    1.71e+00    0    1.20e+00
2007 02 20  0215    54151    8100      0    1.73e+00    0    1.22e+00
2007 02 20  0220    54151    8400      0    1.75e+00    0    1.23e+00
2007 02 20  0225    54151    8700      0    1.75e+00    0    1.24e+00
2007 02 20  0230    54151    9000      0    1.71e+00    0    1.20e+00
2007 02 20  0235    54151    9300      0    1.71e+00    0    1.21e+00
2007 02 20  0240    54151    9600      0    1.77e+00    0    1.23e+00
2007 02 20  0245    54151    9900      0    1.77e+00    0    1.24e+00
2007 02 20  0250    54151   10200      0    1.76e+00    0    1.24e+00
2007 02 20  0255    54151   10500      0    1.79e+00    0    1.25e+00
2007 02 20  0300    54151   10800      0    1.75e+00    0    1.22e+00
2007 02 20  0305    54151   11100      0    1.75e+00    0    1.23e+00
2007 02 20  0310    54151   11400      0    1.77e+00    0    1.23e+00
2007 02 20  0315    54151   11700      0    1.75e+00    0    1.23e+00
2007 02 20  0320    54151   12000      0    1.73e+00    0    1.22e+00
2007 02 20  0325    54151   12300      0    1.78e+00    0    1.25e+00
2007 02 20  0330    54151   12600      0    1.74e+00    0    1.21e+00
2007 02 20  0335    54151   12900      0    1.76e+00    0    1.23e+00
2007 02 20  0340    54151   13200      0    1.73e+00    0    1.22e+00
2007 02 20  0345    54151   13500      0    1.77e+00    0    1.24e+00
2007 02 20  0350    54151   13800      0    1.77e+00    0    1.24e+00
2007 02 20  0355    54151   14100      0    1.76e+00    0    1.24e+00
2007 02 20  0400    54151   14400      0    1.75e+00    0    1.23e+00
2007 02 20  0405    54151   14700      0    1.79e+00    0    1.24e+00
2007 02 20  0410    54151   15000      0    1.76e+00    0    1.24e+00
2007 02 20  0415    54151   15300      0    1.74e+00    0    1.22e+00
2007 02 20  0420    54151   15600      0    1.74e+00    0    1.21e+00
2007 02 20  0425    54151   15900      0    1.75e+00    0    1.23e+00
2007 02 20  0430    54151   16200      0    1.79e+00    0    1.23e+00
2007 02 20  0435    54151   16500      0    1.74e+00    0    1.21e+00
2007 02 20  0440    54151   16800      0    1.75e+00    0    1.21e+00
2007 02 20  0445    54151   17100      0    1.74e+00    0    1.22e+00
2007 02 20  0450    54151   17400      0    1.75e+00    0    1.22e+00
2007 02 20  0455    54151   17700      0    1.77e+00    0    1.23e+00
2007 02 20  0500    54151   18000      0    1.78e+00    0    1.25e+00
2007 02 20  0505    54151   18300      0    1.76e+00    0    1.23e+00
2007 02 20  0510    54151   18600      0    1.79e+00    0    1.25e+00
2007 02 20  0515    54151   18900      0    1.76e+00    0    1.23e+00
2007 02 20  0520    54151   19200      0    1.78e+00    0    1.25e+00
2007 02 20  0525    54151   19500      0    1.80e+00    0    1.26e+00
2007 02 20  0530    54151   19800      0    1.75e+00    0    1.23e+00
2007 02 20  0535    54151   20100      0    1.77e+00    0    1.24e+00
2007 02 20  0540    54151   20400      0    1.78e+00    0    1.25e+00
2007 02 20  0545    54151   20700      0    1.74e+00    0    1.22e+00
2007 02 20  0550    54151   21000      0    1.74e+00    0    1.23e+00
2007 02 20  0555    54151   21300      0    1.77e+00    0    1.24e+00
2007 02 20  0600    54151   21600      0    1.75e+00    0    1.23e+00
2007 02 20  0605    54151   21900      0    1.74e+00    0    1.21e+00
2007 02 20  0610    54151   22200      0    1.72e+00    0    1.21e+00
2007 02 20  0615    54151   22500      9   -1.00e+05    9   -1.00e+05
2007 02 20  0620    54151   22800      0    1.76e+00    0    1.23e+00
2007 02 20  0625    54151   23100      0    1.77e+00    0    1.23e+00
2007 02 20  0630    54151   23400      0    1.80e+00    0    1.27e+00
2007 02 20  0635    54151   23700      0    1.73e+00    0    1.22e+00
2007 02 20  0640    54151   24000      0    1.76e+00    0    1.23e+00
2007 02 20  0645    54151   24300      0    1.78e+00    0    1.25e+00
2007 02 20  0650    54151   24600      0    1.74e+00    0    1.22e+00
2007 02 20  0655    54151   24900      0    1.79e+00    0    1.26e+00
2007 02 20  0700    54151   25200      0    1.74e+00    0    1.21e+00
2007 02 20  0705    54151   25500      0    1.71e+00    0    1.20e+00
2007 02 20  0710    54151   25800      0    1.78e+00    0    1.25e+00
2007 02 20  0715    54151   26100      0    1.73e+00    0    1.21e+00
2007 02 20  0720    54151   26400      0    1.75e+00    0    1.24e+00
2007 02 20  0725    54151   26700      0    1.74e+00    0    1.21e+00
2007 02 20  0730    54151   27000      0    1.73e+00    0    1.20e+00
2007 02 20  0735    54151   27300      0    1.73e+00    0    1.21e+00
2007 02 20  0740    54151   27600      0    1.76e+00    0    1.23e+00
2007 02 20  0745    54151   27900      0    1.76e+00    0    1.23e+00
2007 02 20  0750    54151   28200      0    1.75e+00    0    1.25e+00
2007 02 20  0755    54151   28500      9   -1.00e+05    9   -1.00e+05
2007 02 20  0800    54151   28800      9   -1.00e+05    9   -1.00e+05
2007 02 20  0805    54151   29100      9   -1.00e+05    9   -1.00e+05
2007 02 20  0810    54151   29400      9   -1.00e+05    9   -1.00e+05
2007 02 20  0815    54151   29700      9   -1.00e+05    9   -1.00e+05
2007 02 20  0820    54151   30000      9   -1.00e+05    9   -1.00e+05
2007 02 20  0825    54151   30300      0    1.72e+00    0    1.21e+00
2007 02 20  0830    54151   30600      0    1.77e+00    0    1.25e+00
2007 02 20  0835    54151   30900      0    1.77e+00    0    1.24e+00
2007 02 20  0840    54151   31200      0    1.71e+00    0    1.21e+00
2007 02 20  0845    54151   31500      0    1.76e+00    0    1.24e+00
2007 02 20  0850    54151   31800      0    1.75e+00    0    1.23e+00
2007 02 20  0855    54151   32100      0    1.63e+00    0    1.13e+00
2007 02 20  0900    54151   32400      0    1.75e+00    0    1.22e+00
2007 02 20  0905    54151   32700      0    1.72e+00    0    1.21e+00
2007 02 20  0910    54151   33000      0    1.74e+00    0    1.23e+00
2007 02 20  0915    54151   33300      0    1.77e+00    0    1.24e+00
2007 02 20  0920    54151   33600      0    1.73e+00    0    1.21e+00
2007 02 20  0925    54151   33900      0    1.74e+00    0    1.21e+00
2007 02 20  0930    54151   34200      0    1.74e+00    0    1.21e+00
2007 02 20  0935    54151   34500      0    1.74e+00    0    1.23e+00
2007 02 20  0940    54151   34800      0    1.78e+00    0    1.27e+00
2007 02 20  0945    54151   35100      0    1.71e+00    0    1.20e+00
2007 02 20  0950    54151   35400      0    1.74e+00    0    1.21e+00
2007 02 20  0955    54151   35700      0    1.73e+00    0    1.21e+00
2007 02 20  1000    54151   36000      0    1.73e+00    0    1.21e+00
2007 02 20  1005    54151   36300      0    1.76e+00    0    1.24e+00
2007 02 20  1010    54151   36600      0    1.73e+00    0    1.22e+00
2007 02 20  1015    54151   36900      0    1.71e+00    0    1.19e+00
2007 02 20  1020    54151   37200      0    1.72e+00    0    1.19e+00
2007 02 20  1025    54151   37500      0    1.77e+00    0    1.24e+00
2007 02 20  1030    54151   37800      0    1.75e+00    0    1.23e+00
2007 02 20  1035    54151   38100      0    1.75e+00    0    1.22e+00
2007 02 20  1040    54151   38400      0    1.78e+00    0    1.23e+00
2007 02 20  1045    54151   38700      0    1.69e+00    0    1.20e+00
2007 02 20  1050    54151   39000      0    1.74e+00    0    1.22e+00
2007 02 20  1055    54151   39300      0    1.77e+00    0    1.23e+00
2007 02 20  1100    54151   39600      0    1.75e+00    0    1.23e+00
2007 02 20  1105    54151   39900      0    1.76e+00    0    1.23e+00
2007 02 20  1110    54151   40200      0    1.76e+00    0    1.24e+00
2007 02 20  1115    54151   40500      0    1.78e+00    0    1.24e+00
2007 02 20  1120    54151   40800      0    1.77e+00    0    1.23e+00
2007 02 20  1125    54151   41100      0    1.76e+00    0    1.24e+00
2007 02 20  1130    54151   41400      0    1.73e+00    0    1.21e+00
2007 02 20  1135    54151   41700      0    1.74e+00    0    1.23e+00
2007 02 20  1140    54151   42000      0    1.75e+00    0    1.24e+00
2007 02 20  1145    54151   42300      0    1.76e+00    0    1.24e+00
2007 02 20  1150    54151   42600      0    1.75e+00    0    1.25e+00
2007 02 20  1155    54151   42900      0    1.77e+00    0    1.24e+00
2007 02 20  1200    54151   43200      0    1.77e+00    0    1.25e+00
2007 02 20  1205    54151   43500      0    1.80e+00    0    1.26e+00
2007 02 20  1210    54151   43800      0    1.75e+00    0    1.23e+00
2007 02 20  1215    54151   44100      0    1.74e+00    0    1.23e+00
2007 02 20  1220    54151   44400      0    1.72e+00    0    1.20e+00
2007 02 20  1225    54151   44700      0    1.75e+00    0    1.21e+00
2007 02 20  1230    54151   45000      0    1.73e+00    0    1.21e+00
2007 02 20  1235    54151   45300      0    1.74e+00    0    1.23e+00
2007 02 20  1240    54151   45600      0    1.82e+00    0    1.27e+00
2007 02 20  1245    54151   45900      0    1.72e+00    0    1.22e+00
2007 02 20  1250    54151   46200      0    1.75e+00    0    1.22e+00
2007 02 20  1255    54151   46500      0    1.69e+00    0    1.18e+00
2007 02 20  1300    54151   46800      0    1.76e+00    0    1.24e+00
2007 02 20  1305    54151   47100      0    1.74e+00    0    1.21e+00
2007 02 20  1310    54151   47400      0    1.77e+00    0    1.24e+00
2007 02 20  1315    54151   47700      0    1.73e+00    0    1.22e+00
2007 02 20  1320    54151   48000      0    1.71e+00    0    1.20e+00
2007 02 20  1325    54151   48300      0    1.79e+00    0    1.25e+00
2007 02 20  1330    54151   48600      0    1.75e+00    0    1.22e+00
2007 02 20  1335    54151   48900      0    1.75e+00    0    1.23e+00
2007 02 20  1340    54151   49200      0    1.70e+00    0    1.19e+00
2007 02 20  1345    54151   49500      0    1.75e+00    0    1.22e+00
2007 02 20  1350    54151   49800      0    1.77e+00    0    1.25e+00
2007 02 20  1355    54151   50100      0    1.77e+00    0    1.23e+00
2007 02 20  1400    54151   50400      0    1.75e+00    0    1.23e+00
2007 02 20  1405    54151   50700      0    1.72e+00    0    1.22e+00
2007 02 20  1410    54151   51000      0    1.72e+00    0    1.20e+00
2007 02 20  1415    54151   51300      0    1.76e+00    0    1.23e+00
2007 02 20  1420    54151   51600      0    1.79e+00    0    1.26e+00
2007 02 20  1425    54151   51900      0    1.74e+00    0    1.22e+00
2007 02 20  1430    54151   52200      0    1.76e+00    0    1.24e+00
2007 02 20  1435    54151   52500      0    1.75e+00    0    1.21e+00
2007 02 20  1440    54151   52800      0    1.75e+00    0    1.23e+00
2007 02 20  1445    54151   53100      0    1.73e+00    0    1.22e+00
2007 02 20  1450    54151   53400      0    1.77e+00    0    1.24e+00
2007 02 20  1455    54151   53700      0    1.79e+00    0    1.25e+00
2007 02 20  1500    54151   54000      0    1.72e+00    0    1.21e+00
2007 02 20  1505    54151   54300      0    1.70e+00    0    1.17e+00
2007 02 20  1510    54151   54600      0    1.76e+00    0    1.24e+00
2007 02 20  1515    54151   54900      0    1.76e+00    0    1.21e+00
2007 02 20  1520    54151   55200      0    1.76e+00    0    1.23e+00
2007 02 20  1525    54151   55500      0    1.76e+00    0    1.22e+00
2007 02 20  1530    54151   55800      0    1.69e+00    0    1.18e+00
2007 02 20  1535    54151   56100      0    1.75e+00    0    1.22e+00
2007 02 20  1540    54151   56400      0    1.77e+00    0    1.24e+00
2007 02 20  1545    54151   56700      0    1.73e+00    0    1.21e+00
2007 02 20  1550    54151   57000      0    1.77e+00    0    1.24e+00
2007 02 20  1555    54151   57300      0    1.70e+00    0    1.19e+00
2007 02 20  1600    54151   57600      0    1.76e+00    0    1.23e+00
2007 02 20  1605    54151   57900      0    1.79e+00    0    1.25e+00
2007 02 20  1610    54151   58200      0    1.77e+00    0    1.23e+00
2007 02 20  1615    54151   58500      0    1.78e+00    0    1.25e+00
2007 02 20  1620    54151   58800      0    1.75e+00    0    1.23e+00
2007 02 20  1625    54151   59100      0    1.75e+00    0    1.23e+00
2007 02 20  1630    54151   59400      0    1.79e+00    0    1.25e+00
2007 02 20  1635    54151   59700      0    1.75e+00    0    1.22e+00
2007 02 20  1640    54151   60000      0    1.78e+00    0    1.24e+00
2007 02 20  1645    54151   60300      0    1.77e+00    0    1.26e+00
2007 02 20  1650    54151   60600      0    1.74e+00    0    1.23e+00
2007 02 20  1655    54151   60900      0    1.75e+00    0    1.24e+00
2007 02 20  1700    54151   61200      0    1.74e+00    0    1.23e+00
2007 02 20  1705    54151   61500      0    1.71e+00    0    1.20e+00
2007 02 20  1710    54151   61800      0    1.75e+00    0    1.24e+00
2007 02 20  1715    54151   62100      0    1.76e+00    0    1.24e+00
2007 02 20  1720    54151   62400      0    1.74e+00    0    1.22e+00
2007 02 20  1725    54151   62700      0    1.75e+00    0    1.23e+00
2007 02 20  1730    54151   63000      0    1.76e+00    0    1.23e+00
2007 02 20  1735    54151   63300      0    1.77e+00    0    1.24e+00
2007 02 20  1740    54151   63600      0    1.75e+00    0    1.22e+00
2007 02 20  1745    54151   63900      0    1.72e+00    0    1.20e+00
2007 02 20  1750    54151   64200      0    1.78e+00    0    1.25e+00
2007 02 20  1755    54151   64500      0    1.75e+00    0    1.22e+00
2007 02 20  1800    54151   64800      0    1.77e+00    0    1.24e+00
2007 02 20  1805    54151   65100      0    1.72e+00    0    1.20e+00
2007 02 20  1810    54151   65400      0    1.77e+00    0    1.25e+00
2007 02 20  1815    54151   65700      0    1.74e+00    0    1.23e+00
2007 02 20  1820    54151   66000      0    1.73e+00    0    1.22e+00
2007 02 20  1825    54151   66300      0    1.77e+00    0    1.24e+00
2007 02 20  1830    54151   66600      0    1.76e+00    0    1.23e+00
2007 02 20  1835    54151   66900      0    1.74e+00    0    1.22e+00
2007 02 20  1840    54151   67200      0    1.76e+00    0    1.24e+00
2007 02 20  1845    54151   67500      0    1.74e+00    0    1.23e+00
2007 02 20  1850    54151   67800      0    1.77e+00    0    1.25e+00
2007 02 20  1855    54151   68100      0    1.78e+00    0    1.24e+00
2007 02 20  1900    54151   68400      0    1.68e+00    0    1.18e+00
2007 02 20  1905    54151   68700      0    1.75e+00    0    1.23e+00
2007 02 20  1910    54151   69000      0    1.77e+00    0    1.24e+00
2007 02 20  1915    54151   69300      0    1.78e+00    0    1.25e+00
2007 02 20  1920    54151   69600      0    1.74e+00    0    1.22e+00
2007 02 20  1925    54151   69900      0    1.79e+00    0    1.25e+00
2007 02 20  1930    54151   70200      0    1.75e+00    0    1.23e+00
2007 02 20  1935    54151   70500      0    1.74e+00    0    1.21e+00
2007 02 20  1940    54151   70800      0    1.79e+00    0    1.26e+00
2007 02 20  1945    54151   71100      0    1.74e+00    0    1.22e+00
2007 02 20  1950    54151   71400      0    1.80e+00    0    1.27e+00
2007 02 20  1955    54151   71700      0    1.73e+00    0    1.20e+00
2007 02 20  2000    54151   72000      0    1.76e+00    0    1.22e+00
2007 02 20  2005    54151   72300      0    1.78e+00    0    1.24e+00
2007 02 20  2010    54151   72600      0    1.74e+00    0    1.21e+00
2007 02 20  2015    54151   72900      0    1.77e+00    0    1.26e+00
2007 02 20  2020    54151   73200      0    1.78e+00    0    1.27e+00
2007 02 20  2025    54151   73500      0    1.75e+00    0    1.22e+00
2007 02 20  2030    54151   73800      0    1.75e+00    0    1.22e+00
2007 02 20  2035    54151   74100      0    1.77e+00    0    1.25e+00
2007 02 20  2040    54151   74400      0    1.73e+00    0    1.21e+00
2007 02 20  2045    54151   74700      0    1.75e+00    0    1.23e+00
2007 02 20  2050    54151   75000      0    1.80e+00    0    1.27e+00
2007 02 20  2055    54151   75300      0    1.79e+00    0    1.27e+00
2007 02 20  2100    54151   75600      0    1.80e+00    0    1.26e+00
2007 02 20  2105    54151   75900      0    1.81e+00    0    1.26e+00
2007 02 20  2110    54151   76200      0    1.78e+00    0    1.25e+00
2007 02 20  2115    54151   76500      0    1.77e+00    0    1.24e+00
2007 02 20  2120    54151   76800      0    1.79e+00    0    1.25e+00
2007 02 20  2125    54151   77100      0    1.74e+00    0    1.22e+00
2007 02 20  2130    54151   77400      0    1.75e+00    0    1.23e+00
2007 02 20  2135    54151   77700      0    1.73e+00    0    1.21e+00
2007 02 20  2140    54151   78000      0    1.72e+00    0    1.20e+00
2007 02 20  2145    54151   78300      0    1.76e+00    0    1.23e+00
2007 02 20  2150    54151   78600      0    1.76e+00    0    1.24e+00
2007 02 20  2155    54151   78900      0    1.75e+00    0    1.22e+00
2007 02 20  2200    54151   79200      0    1.71e+00    0    1.21e+00
2007 02 20  2205    54151   79500      0    1.74e+00    0    1.23e+00
2007 02 20  2210    54151   79800      0    1.74e+00    0    1.22e+00
2007 02 20  2215    54151   80100      0    1.74e+00    0    1.22e+00
2007 02 20  2220    54151   80400      0    1.72e+00    0    1.20e+00
2007 02 20  2225    54151   80700      0    1.73e+00    0    1.19e+00
2007 02 20  2230    54151   81000      0    1.76e+00    0    1.24e+00
2007 02 20  2235    54151   81300      0    1.74e+00    0    1.21e+00
2007 02 20  2240    54151   81600      0    1.74e+00    0    1.21e+00
2007 02 20  2245    54151   81900      0    1.74e+00    0    1.22e+00
2007 02 20  2250    54151   82200      0    1.73e+00    0    1.20e+00
2007 02 20  2255    54151   82500      0    1.76e+00    0    1.24e+00
2007 02 20  2300    54151   82800      0    1.76e+00    0    1.22e+00
2007 02 20  2305    54151   83100      0    1.74e+00    0    1.22e+00
2007 02 20  2310    54151   83400      0    1.76e+00    0    1.23e+00
2007 02 20  2315    54151   83700      0    1.73e+00    0    1.22e+00
2007 02 20  2320    54151   84000      0    1.74e+00    0    1.22e+00
2007 02 20  2325    54151   84300      0    1.78e+00    0    1.24e+00
2007 02 20  2330    54151   84600      0    1.76e+00    0    1.23e+00
2007 02 20  2335    54151   84900      0    1.76e+00    0    1.23e+00
2007 02 20  2340    54151   85200      0    1.75e+00    0    1.23e+00
2007 02 20  2345    54151   85500      0    1.76e+00    0    1.23e+00
2007 02 20  2350    54151   85800      0    1.76e+00    0    1.24e+00
2007 02 20  2355    54151   86100      0    1.73e+00    0    1.22e+00
