:Data_list: 20070510_ace_sis_5m.txt
:Created: 2007 May 11 0006 UT
# Prepared by the U.S. Dept. of Commerce, NOAA, Space Environment Center.
# Please send comments and suggestions to SEC.Webmaster@noaa.gov 
# 
# Units: proton flux p/cs2-sec-ster
# Status(S): 0 = nominal data, 1 to 8 = bad data record, 9 = no data
# Missing data values: -1.00e+05
# Source: ACE Satellite - Solar Isotope Spectrometer
#
# 5-minute averaged Real-time Integral Flux of High-energy Solar Protons
# 
#                 Modified Seconds
# UT Date   Time   Julian  of the      ---- Integral Proton Flux ----
# YR MO DA  HHMM     Day     Day       S    > 10 MeV    S    > 30 MeV
#--------------------------------------------------------------------
2007 05 10  0000    54230       0      0    1.90e+00    0    1.33e+00
2007 05 10  0005    54230     300      0    1.87e+00    0    1.30e+00
2007 05 10  0010    54230     600      0    1.76e+00    0    1.22e+00
2007 05 10  0015    54230     900      0    1.89e+00    0    1.33e+00
2007 05 10  0020    54230    1200      0    1.88e+00    0    1.33e+00
2007 05 10  0025    54230    1500      0    1.85e+00    0    1.29e+00
2007 05 10  0030    54230    1800      0    1.88e+00    0    1.31e+00
2007 05 10  0035    54230    2100      0    1.86e+00    0    1.30e+00
2007 05 10  0040    54230    2400      0    1.85e+00    0    1.29e+00
2007 05 10  0045    54230    2700      0    1.82e+00    0    1.28e+00
2007 05 10  0050    54230    3000      0    1.84e+00    0    1.28e+00
2007 05 10  0055    54230    3300      0    1.87e+00    0    1.31e+00
2007 05 10  0100    54230    3600      0    1.84e+00    0    1.29e+00
2007 05 10  0105    54230    3900      0    1.85e+00    0    1.29e+00
2007 05 10  0110    54230    4200      0    1.88e+00    0    1.33e+00
2007 05 10  0115    54230    4500      0    1.83e+00    0    1.28e+00
2007 05 10  0120    54230    4800      0    1.90e+00    0    1.33e+00
2007 05 10  0125    54230    5100      0    1.87e+00    0    1.32e+00
2007 05 10  0130    54230    5400      0    1.83e+00    0    1.28e+00
2007 05 10  0135    54230    5700      0    1.84e+00    0    1.29e+00
2007 05 10  0140    54230    6000      0    1.85e+00    0    1.28e+00
2007 05 10  0145    54230    6300      0    1.84e+00    0    1.27e+00
2007 05 10  0150    54230    6600      0    1.79e+00    0    1.25e+00
2007 05 10  0155    54230    6900      0    1.86e+00    0    1.31e+00
2007 05 10  0200    54230    7200      0    1.80e+00    0    1.25e+00
2007 05 10  0205    54230    7500      0    1.83e+00    0    1.29e+00
2007 05 10  0210    54230    7800      0    1.85e+00    0    1.30e+00
2007 05 10  0215    54230    8100      0    1.88e+00    0    1.30e+00
2007 05 10  0220    54230    8400      0    1.87e+00    0    1.30e+00
2007 05 10  0225    54230    8700      0    1.85e+00    0    1.29e+00
2007 05 10  0230    54230    9000      0    1.86e+00    0    1.29e+00
2007 05 10  0235    54230    9300      0    1.87e+00    0    1.30e+00
2007 05 10  0240    54230    9600      0    1.89e+00    0    1.33e+00
2007 05 10  0245    54230    9900      0    1.84e+00    0    1.29e+00
2007 05 10  0250    54230   10200      0    1.85e+00    0    1.29e+00
2007 05 10  0255    54230   10500      0    1.83e+00    0    1.28e+00
2007 05 10  0300    54230   10800      0    1.85e+00    0    1.30e+00
2007 05 10  0305    54230   11100      0    1.88e+00    0    1.31e+00
2007 05 10  0310    54230   11400      0    1.85e+00    0    1.29e+00
2007 05 10  0315    54230   11700      0    1.81e+00    0    1.26e+00
2007 05 10  0320    54230   12000      0    1.87e+00    0    1.31e+00
2007 05 10  0325    54230   12300      0    1.82e+00    0    1.27e+00
2007 05 10  0330    54230   12600      0    1.87e+00    0    1.30e+00
2007 05 10  0335    54230   12900      0    1.88e+00    0    1.31e+00
2007 05 10  0340    54230   13200      0    1.87e+00    0    1.30e+00
2007 05 10  0345    54230   13500      0    1.82e+00    0    1.27e+00
2007 05 10  0350    54230   13800      0    1.86e+00    0    1.29e+00
2007 05 10  0355    54230   14100      0    1.88e+00    0    1.32e+00
2007 05 10  0400    54230   14400      0    1.85e+00    0    1.28e+00
2007 05 10  0405    54230   14700      0    1.86e+00    0    1.30e+00
2007 05 10  0410    54230   15000      0    1.83e+00    0    1.28e+00
2007 05 10  0415    54230   15300      0    1.85e+00    0    1.29e+00
2007 05 10  0420    54230   15600      0    1.85e+00    0    1.31e+00
2007 05 10  0425    54230   15900      0    1.89e+00    0    1.34e+00
2007 05 10  0430    54230   16200      0    1.86e+00    0    1.31e+00
2007 05 10  0435    54230   16500      0    1.77e+00    0    1.24e+00
2007 05 10  0440    54230   16800      0    1.84e+00    0    1.29e+00
2007 05 10  0445    54230   17100      0    1.85e+00    0    1.30e+00
2007 05 10  0450    54230   17400      0    1.87e+00    0    1.31e+00
2007 05 10  0455    54230   17700      0    1.85e+00    0    1.29e+00
2007 05 10  0500    54230   18000      0    1.80e+00    0    1.26e+00
2007 05 10  0505    54230   18300      0    1.83e+00    0    1.27e+00
2007 05 10  0510    54230   18600      0    1.85e+00    0    1.29e+00
2007 05 10  0515    54230   18900      0    1.89e+00    0    1.32e+00
2007 05 10  0520    54230   19200      0    1.84e+00    0    1.29e+00
2007 05 10  0525    54230   19500      0    1.85e+00    0    1.31e+00
2007 05 10  0530    54230   19800      0    1.85e+00    0    1.29e+00
2007 05 10  0535    54230   20100      0    1.85e+00    0    1.29e+00
2007 05 10  0540    54230   20400      0    1.88e+00    0    1.33e+00
2007 05 10  0545    54230   20700      0    1.87e+00    0    1.32e+00
2007 05 10  0550    54230   21000      0    1.84e+00    0    1.29e+00
2007 05 10  0555    54230   21300      0    1.88e+00    0    1.31e+00
2007 05 10  0600    54230   21600      0    1.84e+00    0    1.29e+00
2007 05 10  0605    54230   21900      0    1.85e+00    0    1.30e+00
2007 05 10  0610    54230   22200      0    1.83e+00    0    1.27e+00
2007 05 10  0615    54230   22500      0    1.82e+00    0    1.28e+00
2007 05 10  0620    54230   22800      0    1.88e+00    0    1.31e+00
2007 05 10  0625    54230   23100      0    1.84e+00    0    1.29e+00
2007 05 10  0630    54230   23400      0    1.92e+00    0    1.34e+00
2007 05 10  0635    54230   23700      0    1.83e+00    0    1.28e+00
2007 05 10  0640    54230   24000      0    1.85e+00    0    1.30e+00
2007 05 10  0645    54230   24300      0    1.88e+00    0    1.32e+00
2007 05 10  0650    54230   24600      0    1.87e+00    0    1.32e+00
2007 05 10  0655    54230   24900      0    1.88e+00    0    1.32e+00
2007 05 10  0700    54230   25200      0    1.85e+00    0    1.29e+00
2007 05 10  0705    54230   25500      0    1.83e+00    0    1.28e+00
2007 05 10  0710    54230   25800      0    1.87e+00    0    1.32e+00
2007 05 10  0715    54230   26100      0    1.86e+00    0    1.30e+00
2007 05 10  0720    54230   26400      0    1.91e+00    0    1.33e+00
2007 05 10  0725    54230   26700      0    1.83e+00    0    1.29e+00
2007 05 10  0730    54230   27000      0    1.83e+00    0    1.28e+00
2007 05 10  0735    54230   27300      0    1.86e+00    0    1.31e+00
2007 05 10  0740    54230   27600      0    1.85e+00    0    1.30e+00
2007 05 10  0745    54230   27900      0    1.89e+00    0    1.32e+00
2007 05 10  0750    54230   28200      0    1.91e+00    0    1.33e+00
2007 05 10  0755    54230   28500      0    1.91e+00    0    1.34e+00
2007 05 10  0800    54230   28800      0    1.88e+00    0    1.33e+00
2007 05 10  0805    54230   29100      0    1.89e+00    0    1.30e+00
2007 05 10  0810    54230   29400      0    1.93e+00    0    1.35e+00
2007 05 10  0815    54230   29700      0    1.90e+00    0    1.33e+00
2007 05 10  0820    54230   30000      0    1.87e+00    0    1.30e+00
2007 05 10  0825    54230   30300      0    1.91e+00    0    1.33e+00
2007 05 10  0830    54230   30600      0    1.87e+00    0    1.31e+00
2007 05 10  0835    54230   30900      0    1.87e+00    0    1.32e+00
2007 05 10  0840    54230   31200      0    1.87e+00    0    1.30e+00
2007 05 10  0845    54230   31500      0    1.83e+00    0    1.28e+00
2007 05 10  0850    54230   31800      0    1.88e+00    0    1.31e+00
2007 05 10  0855    54230   32100      0    1.88e+00    0    1.31e+00
2007 05 10  0900    54230   32400      0    1.91e+00    0    1.33e+00
2007 05 10  0905    54230   32700      0    1.91e+00    0    1.34e+00
2007 05 10  0910    54230   33000      0    1.87e+00    0    1.31e+00
2007 05 10  0915    54230   33300      0    1.90e+00    0    1.33e+00
2007 05 10  0920    54230   33600      0    1.87e+00    0    1.31e+00
2007 05 10  0925    54230   33900      0    1.91e+00    0    1.33e+00
2007 05 10  0930    54230   34200      0    1.87e+00    0    1.31e+00
2007 05 10  0935    54230   34500      0    1.86e+00    0    1.29e+00
2007 05 10  0940    54230   34800      0    1.86e+00    0    1.29e+00
2007 05 10  0945    54230   35100      0    1.90e+00    0    1.33e+00
2007 05 10  0950    54230   35400      0    1.86e+00    0    1.29e+00
2007 05 10  0955    54230   35700      0    1.89e+00    0    1.32e+00
2007 05 10  1000    54230   36000      0    1.85e+00    0    1.28e+00
2007 05 10  1005    54230   36300      0    1.86e+00    0    1.31e+00
2007 05 10  1010    54230   36600      0    1.91e+00    0    1.34e+00
2007 05 10  1015    54230   36900      0    1.88e+00    0    1.31e+00
2007 05 10  1020    54230   37200      0    1.91e+00    0    1.33e+00
2007 05 10  1025    54230   37500      0    1.93e+00    0    1.36e+00
2007 05 10  1030    54230   37800      0    1.87e+00    0    1.30e+00
2007 05 10  1035    54230   38100      0    1.87e+00    0    1.31e+00
2007 05 10  1040    54230   38400      0    1.94e+00    0    1.35e+00
2007 05 10  1045    54230   38700      0    1.88e+00    0    1.33e+00
2007 05 10  1050    54230   39000      0    1.90e+00    0    1.33e+00
2007 05 10  1055    54230   39300      0    1.92e+00    0    1.35e+00
2007 05 10  1100    54230   39600      0    1.89e+00    0    1.31e+00
2007 05 10  1105    54230   39900      0    1.85e+00    0    1.31e+00
2007 05 10  1110    54230   40200      0    1.90e+00    0    1.32e+00
2007 05 10  1115    54230   40500      0    1.86e+00    0    1.31e+00
2007 05 10  1120    54230   40800      0    1.90e+00    0    1.33e+00
2007 05 10  1125    54230   41100      0    1.90e+00    0    1.33e+00
2007 05 10  1130    54230   41400      0    1.86e+00    0    1.30e+00
2007 05 10  1135    54230   41700      0    1.89e+00    0    1.31e+00
2007 05 10  1140    54230   42000      0    1.90e+00    0    1.33e+00
2007 05 10  1145    54230   42300      0    1.88e+00    0    1.32e+00
2007 05 10  1150    54230   42600      0    1.91e+00    0    1.34e+00
2007 05 10  1155    54230   42900      0    1.87e+00    0    1.30e+00
2007 05 10  1200    54230   43200      0    1.90e+00    0    1.32e+00
2007 05 10  1205    54230   43500      0    1.89e+00    0    1.32e+00
2007 05 10  1210    54230   43800      0    1.89e+00    0    1.34e+00
2007 05 10  1215    54230   44100      0    1.86e+00    0    1.30e+00
2007 05 10  1220    54230   44400      0    1.93e+00    0    1.34e+00
2007 05 10  1225    54230   44700      0    1.91e+00    0    1.34e+00
2007 05 10  1230    54230   45000      0    1.90e+00    0    1.33e+00
2007 05 10  1235    54230   45300      0    1.89e+00    0    1.33e+00
2007 05 10  1240    54230   45600      0    1.87e+00    0    1.29e+00
2007 05 10  1245    54230   45900      0    1.88e+00    0    1.32e+00
2007 05 10  1250    54230   46200      0    1.88e+00    0    1.32e+00
2007 05 10  1255    54230   46500      0    1.86e+00    0    1.31e+00
2007 05 10  1300    54230   46800      0    1.87e+00    0    1.32e+00
2007 05 10  1305    54230   47100      0    1.91e+00    0    1.34e+00
2007 05 10  1310    54230   47400      0    1.88e+00    0    1.32e+00
2007 05 10  1315    54230   47700      0    1.91e+00    0    1.33e+00
2007 05 10  1320    54230   48000      0    1.90e+00    0    1.32e+00
2007 05 10  1325    54230   48300      0    1.89e+00    0    1.31e+00
2007 05 10  1330    54230   48600      0    1.88e+00    0    1.32e+00
2007 05 10  1335    54230   48900      0    1.89e+00    0    1.33e+00
2007 05 10  1340    54230   49200      0    1.93e+00    0    1.36e+00
2007 05 10  1345    54230   49500      0    1.89e+00    0    1.32e+00
2007 05 10  1350    54230   49800      0    1.90e+00    0    1.33e+00
2007 05 10  1355    54230   50100      0    1.92e+00    0    1.34e+00
2007 05 10  1400    54230   50400      0    1.86e+00    0    1.30e+00
2007 05 10  1405    54230   50700      0    1.91e+00    0    1.33e+00
2007 05 10  1410    54230   51000      0    1.87e+00    0    1.30e+00
2007 05 10  1415    54230   51300      0    1.91e+00    0    1.32e+00
2007 05 10  1420    54230   51600      0    1.87e+00    0    1.31e+00
2007 05 10  1425    54230   51900      0    1.94e+00    0    1.35e+00
2007 05 10  1430    54230   52200      0    1.85e+00    0    1.29e+00
2007 05 10  1435    54230   52500      0    1.90e+00    0    1.34e+00
2007 05 10  1440    54230   52800      0    1.90e+00    0    1.33e+00
2007 05 10  1445    54230   53100      0    1.88e+00    0    1.31e+00
2007 05 10  1450    54230   53400      0    1.90e+00    0    1.32e+00
2007 05 10  1455    54230   53700      0    1.92e+00    0    1.35e+00
2007 05 10  1500    54230   54000      0    1.89e+00    0    1.31e+00
2007 05 10  1505    54230   54300      0    1.85e+00    0    1.29e+00
2007 05 10  1510    54230   54600      0    1.91e+00    0    1.33e+00
2007 05 10  1515    54230   54900      0    1.84e+00    0    1.29e+00
2007 05 10  1520    54230   55200      0    1.85e+00    0    1.30e+00
2007 05 10  1525    54230   55500      0    1.88e+00    0    1.32e+00
2007 05 10  1530    54230   55800      0    1.84e+00    0    1.28e+00
2007 05 10  1535    54230   56100      0    1.78e+00    0    1.25e+00
2007 05 10  1540    54230   56400      0    1.89e+00    0    1.31e+00
2007 05 10  1545    54230   56700      0    1.90e+00    0    1.33e+00
2007 05 10  1550    54230   57000      0    1.86e+00    0    1.29e+00
2007 05 10  1555    54230   57300      0    1.86e+00    0    1.29e+00
2007 05 10  1600    54230   57600      0    1.83e+00    0    1.26e+00
2007 05 10  1605    54230   57900      0    1.82e+00    0    1.28e+00
2007 05 10  1610    54230   58200      0    1.82e+00    0    1.27e+00
2007 05 10  1615    54230   58500      0    1.83e+00    0    1.28e+00
2007 05 10  1620    54230   58800      0    1.81e+00    0    1.27e+00
2007 05 10  1625    54230   59100      0    1.86e+00    0    1.29e+00
2007 05 10  1630    54230   59400      0    1.82e+00    0    1.28e+00
2007 05 10  1635    54230   59700      0    1.81e+00    0    1.27e+00
2007 05 10  1640    54230   60000      0    1.81e+00    0    1.27e+00
2007 05 10  1645    54230   60300      0    1.82e+00    0    1.28e+00
2007 05 10  1650    54230   60600      0    1.83e+00    0    1.27e+00
2007 05 10  1655    54230   60900      0    1.88e+00    0    1.32e+00
2007 05 10  1700    54230   61200      0    2.21e+00    0    1.39e+00
2007 05 10  1705    54230   61500      0    1.81e+00    0    1.27e+00
2007 05 10  1710    54230   61800      0    1.79e+00    0    1.25e+00
2007 05 10  1715    54230   62100      0    1.81e+00    0    1.27e+00
2007 05 10  1720    54230   62400      0    1.81e+00    0    1.25e+00
2007 05 10  1725    54230   62700      0    1.81e+00    0    1.28e+00
2007 05 10  1730    54230   63000      0    1.82e+00    0    1.27e+00
2007 05 10  1735    54230   63300      0    1.80e+00    0    1.26e+00
2007 05 10  1740    54230   63600      0    1.80e+00    0    1.25e+00
2007 05 10  1745    54230   63900      0    1.86e+00    0    1.30e+00
2007 05 10  1750    54230   64200      0    1.89e+00    0    1.31e+00
2007 05 10  1755    54230   64500      0    1.82e+00    0    1.26e+00
2007 05 10  1800    54230   64800      0    1.85e+00    0    1.30e+00
2007 05 10  1805    54230   65100      0    1.85e+00    0    1.29e+00
2007 05 10  1810    54230   65400      0    1.91e+00    0    1.35e+00
2007 05 10  1815    54230   65700      0    1.84e+00    0    1.28e+00
2007 05 10  1820    54230   66000      0    1.83e+00    0    1.28e+00
2007 05 10  1825    54230   66300      0    1.88e+00    0    1.32e+00
2007 05 10  1830    54230   66600      0    1.83e+00    0    1.27e+00
2007 05 10  1835    54230   66900      0    1.82e+00    0    1.28e+00
2007 05 10  1840    54230   67200      0    1.81e+00    0    1.26e+00
2007 05 10  1845    54230   67500      0    1.83e+00    0    1.28e+00
2007 05 10  1850    54230   67800      0    1.83e+00    0    1.27e+00
2007 05 10  1855    54230   68100      0    1.82e+00    0    1.29e+00
2007 05 10  1900    54230   68400      0    1.86e+00    0    1.30e+00
2007 05 10  1905    54230   68700      0    1.84e+00    0    1.27e+00
2007 05 10  1910    54230   69000      0    1.75e+00    0    1.21e+00
2007 05 10  1915    54230   69300      0    1.90e+00    0    1.33e+00
2007 05 10  1920    54230   69600      0    1.86e+00    0    1.31e+00
2007 05 10  1925    54230   69900      0    1.85e+00    0    1.29e+00
2007 05 10  1930    54230   70200      0    1.87e+00    0    1.31e+00
2007 05 10  1935    54230   70500      0    1.87e+00    0    1.31e+00
2007 05 10  1940    54230   70800      0    1.84e+00    0    1.28e+00
2007 05 10  1945    54230   71100      0    1.86e+00    0    1.31e+00
2007 05 10  1950    54230   71400      0    1.86e+00    0    1.31e+00
2007 05 10  1955    54230   71700      0    1.84e+00    0    1.29e+00
2007 05 10  2000    54230   72000      0    1.86e+00    0    1.29e+00
2007 05 10  2005    54230   72300      0    1.87e+00    0    1.30e+00
2007 05 10  2010    54230   72600      0    1.85e+00    0    1.31e+00
2007 05 10  2015    54230   72900      0    1.86e+00    0    1.31e+00
2007 05 10  2020    54230   73200      0    1.87e+00    0    1.32e+00
2007 05 10  2025    54230   73500      0    1.87e+00    0    1.32e+00
2007 05 10  2030    54230   73800      0    1.86e+00    0    1.30e+00
2007 05 10  2035    54230   74100      0    1.87e+00    0    1.30e+00
2007 05 10  2040    54230   74400      0    1.86e+00    0    1.30e+00
2007 05 10  2045    54230   74700      0    1.93e+00    0    1.35e+00
2007 05 10  2050    54230   75000      0    1.83e+00    0    1.29e+00
2007 05 10  2055    54230   75300      0    1.89e+00    0    1.32e+00
2007 05 10  2100    54230   75600      0    1.85e+00    0    1.29e+00
2007 05 10  2105    54230   75900      0    1.82e+00    0    1.29e+00
2007 05 10  2110    54230   76200      0    1.84e+00    0    1.29e+00
2007 05 10  2115    54230   76500      0    1.89e+00    0    1.33e+00
2007 05 10  2120    54230   76800      0    1.83e+00    0    1.28e+00
2007 05 10  2125    54230   77100      0    1.88e+00    0    1.31e+00
2007 05 10  2130    54230   77400      0    1.87e+00    0    1.30e+00
2007 05 10  2135    54230   77700      0    1.87e+00    0    1.30e+00
2007 05 10  2140    54230   78000      0    1.90e+00    0    1.33e+00
2007 05 10  2145    54230   78300      0    1.87e+00    0    1.31e+00
2007 05 10  2150    54230   78600      0    1.85e+00    0    1.30e+00
2007 05 10  2155    54230   78900      0    1.82e+00    0    1.27e+00
2007 05 10  2200    54230   79200      0    1.86e+00    0    1.31e+00
2007 05 10  2205    54230   79500      0    1.88e+00    0    1.32e+00
2007 05 10  2210    54230   79800      0    1.90e+00    0    1.33e+00
2007 05 10  2215    54230   80100      0    1.89e+00    0    1.31e+00
2007 05 10  2220    54230   80400      0    1.88e+00    0    1.29e+00
2007 05 10  2225    54230   80700      0    1.87e+00    0    1.31e+00
2007 05 10  2230    54230   81000      0    1.85e+00    0    1.29e+00
2007 05 10  2235    54230   81300      0    1.93e+00    0    1.35e+00
2007 05 10  2240    54230   81600      0    1.89e+00    0    1.32e+00
2007 05 10  2245    54230   81900      0    1.94e+00    0    1.36e+00
2007 05 10  2250    54230   82200      0    1.87e+00    0    1.31e+00
2007 05 10  2255    54230   82500      0    1.89e+00    0    1.32e+00
2007 05 10  2300    54230   82800      0    1.86e+00    0    1.31e+00
2007 05 10  2305    54230   83100      0    1.86e+00    0    1.29e+00
2007 05 10  2310    54230   83400      0    1.89e+00    0    1.33e+00
2007 05 10  2315    54230   83700      0    1.89e+00    0    1.33e+00
2007 05 10  2320    54230   84000      0    1.88e+00    0    1.32e+00
2007 05 10  2325    54230   84300      0    1.89e+00    0    1.32e+00
2007 05 10  2330    54230   84600      0    1.86e+00    0    1.29e+00
2007 05 10  2335    54230   84900      0    1.87e+00    0    1.30e+00
2007 05 10  2340    54230   85200      0    1.92e+00    0    1.34e+00
2007 05 10  2345    54230   85500      0    1.87e+00    0    1.30e+00
2007 05 10  2350    54230   85800      0    1.90e+00    0    1.32e+00
2007 05 10  2355    54230   86100      0    1.85e+00    0    1.29e+00
