:Data_list: 20070925_ace_sis_5m.txt
:Created: 2007 Sep 26 0011 UT
# Prepared by the U.S. Dept. of Commerce, NOAA, Space Environment Center.
# Please send comments and suggestions to SEC.Webmaster@noaa.gov 
# 
# Units: proton flux p/cs2-sec-ster
# Status(S): 0 = nominal data, 1 to 8 = bad data record, 9 = no data
# Missing data values: -1.00e+05
# Source: ACE Satellite - Solar Isotope Spectrometer
#
# 5-minute averaged Real-time Integral Flux of High-energy Solar Protons
# 
#                 Modified Seconds
# UT Date   Time   Julian  of the      ---- Integral Proton Flux ----
# YR MO DA  HHMM     Day     Day       S    > 10 MeV    S    > 30 MeV
#--------------------------------------------------------------------
2007 09 25  0000    54368       0      0    1.89e+00    0    1.32e+00
2007 09 25  0005    54368     300      0    1.90e+00    0    1.32e+00
2007 09 25  0010    54368     600      0    1.87e+00    0    1.30e+00
2007 09 25  0015    54368     900      0    1.89e+00    0    1.32e+00
2007 09 25  0020    54368    1200      0    1.93e+00    0    1.36e+00
2007 09 25  0025    54368    1500      0    1.87e+00    0    1.30e+00
2007 09 25  0030    54368    1800      0    1.90e+00    0    1.34e+00
2007 09 25  0035    54368    2100      0    1.87e+00    0    1.30e+00
2007 09 25  0040    54368    2400      0    1.89e+00    0    1.33e+00
2007 09 25  0045    54368    2700      0    1.88e+00    0    1.32e+00
2007 09 25  0050    54368    3000      0    1.92e+00    0    1.35e+00
2007 09 25  0055    54368    3300      0    1.91e+00    0    1.34e+00
2007 09 25  0100    54368    3600      0    1.91e+00    0    1.34e+00
2007 09 25  0105    54368    3900      0    1.94e+00    0    1.36e+00
2007 09 25  0110    54368    4200      0    1.88e+00    0    1.32e+00
2007 09 25  0115    54368    4500      0    1.89e+00    0    1.32e+00
2007 09 25  0120    54368    4800      0    1.92e+00    0    1.35e+00
2007 09 25  0125    54368    5100      0    1.85e+00    0    1.30e+00
2007 09 25  0130    54368    5400      0    1.90e+00    0    1.34e+00
2007 09 25  0135    54368    5700      0    1.89e+00    0    1.31e+00
2007 09 25  0140    54368    6000      0    1.87e+00    0    1.30e+00
2007 09 25  0145    54368    6300      0    1.87e+00    0    1.31e+00
2007 09 25  0150    54368    6600      0    1.91e+00    0    1.34e+00
2007 09 25  0155    54368    6900      0    1.91e+00    0    1.33e+00
2007 09 25  0200    54368    7200      0    1.90e+00    0    1.33e+00
2007 09 25  0205    54368    7500      0    1.88e+00    0    1.31e+00
2007 09 25  0210    54368    7800      0    1.85e+00    0    1.29e+00
2007 09 25  0215    54368    8100      0    1.90e+00    0    1.33e+00
2007 09 25  0220    54368    8400      0    1.90e+00    0    1.34e+00
2007 09 25  0225    54368    8700      0    1.92e+00    0    1.35e+00
2007 09 25  0230    54368    9000      0    1.88e+00    0    1.32e+00
2007 09 25  0235    54368    9300      0    1.88e+00    0    1.31e+00
2007 09 25  0240    54368    9600      0    1.93e+00    0    1.36e+00
2007 09 25  0245    54368    9900      0    1.91e+00    0    1.34e+00
2007 09 25  0250    54368   10200      0    1.89e+00    0    1.33e+00
2007 09 25  0255    54368   10500      0    1.90e+00    0    1.34e+00
2007 09 25  0300    54368   10800      0    1.93e+00    0    1.36e+00
2007 09 25  0305    54368   11100      0    1.91e+00    0    1.35e+00
2007 09 25  0310    54368   11400      0    1.89e+00    0    1.32e+00
2007 09 25  0315    54368   11700      0    1.90e+00    0    1.34e+00
2007 09 25  0320    54368   12000      0    1.88e+00    0    1.30e+00
2007 09 25  0325    54368   12300      0    1.89e+00    0    1.32e+00
2007 09 25  0330    54368   12600      0    1.87e+00    0    1.31e+00
2007 09 25  0335    54368   12900      0    1.88e+00    0    1.31e+00
2007 09 25  0340    54368   13200      0    1.89e+00    0    1.31e+00
2007 09 25  0345    54368   13500      0    1.89e+00    0    1.33e+00
2007 09 25  0350    54368   13800      0    1.91e+00    0    1.33e+00
2007 09 25  0355    54368   14100      0    1.91e+00    0    1.34e+00
2007 09 25  0400    54368   14400      0    1.86e+00    0    1.31e+00
2007 09 25  0405    54368   14700      0    1.91e+00    0    1.34e+00
2007 09 25  0410    54368   15000      0    1.92e+00    0    1.33e+00
2007 09 25  0415    54368   15300      0    1.89e+00    0    1.32e+00
2007 09 25  0420    54368   15600      0    1.90e+00    0    1.32e+00
2007 09 25  0425    54368   15900      0    1.90e+00    0    1.33e+00
2007 09 25  0430    54368   16200      0    1.89e+00    0    1.32e+00
2007 09 25  0435    54368   16500      0    1.87e+00    0    1.32e+00
2007 09 25  0440    54368   16800      0    1.91e+00    0    1.35e+00
2007 09 25  0445    54368   17100      0    1.95e+00    0    1.37e+00
2007 09 25  0450    54368   17400      0    1.92e+00    0    1.34e+00
2007 09 25  0455    54368   17700      0    1.91e+00    0    1.34e+00
2007 09 25  0500    54368   18000      0    1.89e+00    0    1.32e+00
2007 09 25  0505    54368   18300      0    1.86e+00    0    1.31e+00
2007 09 25  0510    54368   18600      0    1.88e+00    0    1.31e+00
2007 09 25  0515    54368   18900      0    1.88e+00    0    1.31e+00
2007 09 25  0520    54368   19200      0    1.90e+00    0    1.32e+00
2007 09 25  0525    54368   19500      0    1.93e+00    0    1.35e+00
2007 09 25  0530    54368   19800      0    1.87e+00    0    1.30e+00
2007 09 25  0535    54368   20100      0    1.87e+00    0    1.32e+00
2007 09 25  0540    54368   20400      0    1.86e+00    0    1.29e+00
2007 09 25  0545    54368   20700      0    1.91e+00    0    1.33e+00
2007 09 25  0550    54368   21000      0    1.89e+00    0    1.32e+00
2007 09 25  0555    54368   21300      0    1.91e+00    0    1.35e+00
2007 09 25  0600    54368   21600      0    1.89e+00    0    1.33e+00
2007 09 25  0605    54368   21900      0    1.86e+00    0    1.27e+00
2007 09 25  0610    54368   22200      0    1.90e+00    0    1.32e+00
2007 09 25  0615    54368   22500      0    1.90e+00    0    1.33e+00
2007 09 25  0620    54368   22800      0    1.91e+00    0    1.34e+00
2007 09 25  0625    54368   23100      0    1.93e+00    0    1.34e+00
2007 09 25  0630    54368   23400      0    1.88e+00    0    1.31e+00
2007 09 25  0635    54368   23700      0    1.86e+00    0    1.29e+00
2007 09 25  0640    54368   24000      0    1.87e+00    0    1.30e+00
2007 09 25  0645    54368   24300      0    1.91e+00    0    1.34e+00
2007 09 25  0650    54368   24600      0    1.90e+00    0    1.32e+00
2007 09 25  0655    54368   24900      0    1.87e+00    0    1.32e+00
2007 09 25  0700    54368   25200      0    1.85e+00    0    1.29e+00
2007 09 25  0705    54368   25500      0    1.90e+00    0    1.33e+00
2007 09 25  0710    54368   25800      0    1.92e+00    0    1.34e+00
2007 09 25  0715    54368   26100      0    1.88e+00    0    1.32e+00
2007 09 25  0720    54368   26400      0    1.89e+00    0    1.33e+00
2007 09 25  0725    54368   26700      0    1.90e+00    0    1.33e+00
2007 09 25  0730    54368   27000      0    1.89e+00    0    1.32e+00
2007 09 25  0735    54368   27300      0    1.88e+00    0    1.31e+00
2007 09 25  0740    54368   27600      0    1.91e+00    0    1.34e+00
2007 09 25  0745    54368   27900      0    1.92e+00    0    1.35e+00
2007 09 25  0750    54368   28200      0    1.91e+00    0    1.33e+00
2007 09 25  0755    54368   28500      0    1.88e+00    0    1.31e+00
2007 09 25  0800    54368   28800      0    1.92e+00    0    1.33e+00
2007 09 25  0805    54368   29100      0    1.89e+00    0    1.33e+00
2007 09 25  0810    54368   29400      0    1.89e+00    0    1.33e+00
2007 09 25  0815    54368   29700      0    1.95e+00    0    1.37e+00
2007 09 25  0820    54368   30000      0    1.88e+00    0    1.31e+00
2007 09 25  0825    54368   30300      0    1.87e+00    0    1.32e+00
2007 09 25  0830    54368   30600      0    1.86e+00    0    1.30e+00
2007 09 25  0835    54368   30900      0    1.92e+00    0    1.35e+00
2007 09 25  0840    54368   31200      0    1.86e+00    0    1.31e+00
2007 09 25  0845    54368   31500      0    1.88e+00    0    1.31e+00
2007 09 25  0850    54368   31800      0    1.87e+00    0    1.31e+00
2007 09 25  0855    54368   32100      0    1.86e+00    0    1.29e+00
2007 09 25  0900    54368   32400      0    1.89e+00    0    1.31e+00
2007 09 25  0905    54368   32700      0    1.89e+00    0    1.32e+00
2007 09 25  0910    54368   33000      0    1.88e+00    0    1.31e+00
2007 09 25  0915    54368   33300      0    1.92e+00    0    1.35e+00
2007 09 25  0920    54368   33600      0    1.89e+00    0    1.32e+00
2007 09 25  0925    54368   33900      0    1.88e+00    0    1.30e+00
2007 09 25  0930    54368   34200      0    1.92e+00    0    1.34e+00
2007 09 25  0935    54368   34500      0    1.87e+00    0    1.29e+00
2007 09 25  0940    54368   34800      0    1.89e+00    0    1.32e+00
2007 09 25  0945    54368   35100      0    1.89e+00    0    1.33e+00
2007 09 25  0950    54368   35400      0    1.92e+00    0    1.35e+00
2007 09 25  0955    54368   35700      0    1.94e+00    0    1.36e+00
2007 09 25  1000    54368   36000      0    1.91e+00    0    1.34e+00
2007 09 25  1005    54368   36300      0    1.90e+00    0    1.32e+00
2007 09 25  1010    54368   36600      0    1.89e+00    0    1.31e+00
2007 09 25  1015    54368   36900      0    1.93e+00    0    1.36e+00
2007 09 25  1020    54368   37200      0    1.90e+00    0    1.33e+00
2007 09 25  1025    54368   37500      0    1.92e+00    0    1.33e+00
2007 09 25  1030    54368   37800      0    1.89e+00    0    1.32e+00
2007 09 25  1035    54368   38100      0    1.94e+00    0    1.36e+00
2007 09 25  1040    54368   38400      0    1.92e+00    0    1.35e+00
2007 09 25  1045    54368   38700      0    1.88e+00    0    1.33e+00
2007 09 25  1050    54368   39000      0    1.91e+00    0    1.34e+00
2007 09 25  1055    54368   39300      0    1.86e+00    0    1.32e+00
2007 09 25  1100    54368   39600      0    1.85e+00    0    1.30e+00
2007 09 25  1105    54368   39900      0    1.89e+00    0    1.33e+00
2007 09 25  1110    54368   40200      0    1.89e+00    0    1.32e+00
2007 09 25  1115    54368   40500      0    1.94e+00    0    1.36e+00
2007 09 25  1120    54368   40800      0    1.91e+00    0    1.34e+00
2007 09 25  1125    54368   41100      0    1.91e+00    0    1.34e+00
2007 09 25  1130    54368   41400      0    1.92e+00    0    1.36e+00
2007 09 25  1135    54368   41700      0    1.90e+00    0    1.34e+00
2007 09 25  1140    54368   42000      0    1.92e+00    0    1.35e+00
2007 09 25  1145    54368   42300      0    1.88e+00    0    1.31e+00
2007 09 25  1150    54368   42600      0    1.86e+00    0    1.31e+00
2007 09 25  1155    54368   42900      0    1.91e+00    0    1.34e+00
2007 09 25  1200    54368   43200      0    1.93e+00    0    1.35e+00
2007 09 25  1205    54368   43500      0    1.91e+00    0    1.33e+00
2007 09 25  1210    54368   43800      0    1.87e+00    0    1.32e+00
2007 09 25  1215    54368   44100      0    1.95e+00    0    1.35e+00
2007 09 25  1220    54368   44400      0    1.88e+00    0    1.32e+00
2007 09 25  1225    54368   44700      0    1.93e+00    0    1.36e+00
2007 09 25  1230    54368   45000      0    1.92e+00    0    1.35e+00
2007 09 25  1235    54368   45300      0    1.91e+00    0    1.33e+00
2007 09 25  1240    54368   45600      0    1.93e+00    0    1.36e+00
2007 09 25  1245    54368   45900      0    1.87e+00    0    1.28e+00
2007 09 25  1250    54368   46200      0    1.89e+00    0    1.34e+00
2007 09 25  1255    54368   46500      0    1.91e+00    0    1.35e+00
2007 09 25  1300    54368   46800      0    1.88e+00    0    1.34e+00
2007 09 25  1305    54368   47100      0    1.87e+00    0    1.30e+00
2007 09 25  1310    54368   47400      0    1.89e+00    0    1.32e+00
2007 09 25  1315    54368   47700      0    1.89e+00    0    1.33e+00
2007 09 25  1320    54368   48000      0    1.90e+00    0    1.33e+00
2007 09 25  1325    54368   48300      0    1.89e+00    0    1.32e+00
2007 09 25  1330    54368   48600      0    1.90e+00    0    1.32e+00
2007 09 25  1335    54368   48900      0    1.91e+00    0    1.34e+00
2007 09 25  1340    54368   49200      0    1.87e+00    0    1.30e+00
2007 09 25  1345    54368   49500      0    1.92e+00    0    1.35e+00
2007 09 25  1350    54368   49800      0    1.88e+00    0    1.33e+00
2007 09 25  1355    54368   50100      0    1.78e+00    0    1.25e+00
2007 09 25  1400    54368   50400      0    1.88e+00    0    1.32e+00
2007 09 25  1405    54368   50700      0    1.90e+00    0    1.32e+00
2007 09 25  1410    54368   51000      0    1.91e+00    0    1.34e+00
2007 09 25  1415    54368   51300      0    1.90e+00    0    1.32e+00
2007 09 25  1420    54368   51600      0    1.91e+00    0    1.34e+00
2007 09 25  1425    54368   51900      0    1.85e+00    0    1.27e+00
2007 09 25  1430    54368   52200      0    1.91e+00    0    1.34e+00
2007 09 25  1435    54368   52500      0    1.90e+00    0    1.33e+00
2007 09 25  1440    54368   52800      0    1.87e+00    0    1.31e+00
2007 09 25  1445    54368   53100      0    1.91e+00    0    1.34e+00
2007 09 25  1450    54368   53400      0    1.90e+00    0    1.32e+00
2007 09 25  1455    54368   53700      0    1.87e+00    0    1.29e+00
2007 09 25  1500    54368   54000      0    1.90e+00    0    1.33e+00
2007 09 25  1505    54368   54300      0    1.90e+00    0    1.33e+00
2007 09 25  1510    54368   54600      0    1.88e+00    0    1.31e+00
2007 09 25  1515    54368   54900      0    1.89e+00    0    1.33e+00
2007 09 25  1520    54368   55200      0    1.93e+00    0    1.34e+00
2007 09 25  1525    54368   55500      0    1.89e+00    0    1.32e+00
2007 09 25  1530    54368   55800      0    1.91e+00    0    1.34e+00
2007 09 25  1535    54368   56100      0    1.89e+00    0    1.30e+00
2007 09 25  1540    54368   56400      0    1.93e+00    0    1.36e+00
2007 09 25  1545    54368   56700      0    1.91e+00    0    1.33e+00
2007 09 25  1550    54368   57000      0    1.89e+00    0    1.33e+00
2007 09 25  1555    54368   57300      0    1.92e+00    0    1.35e+00
2007 09 25  1600    54368   57600      0    1.89e+00    0    1.32e+00
2007 09 25  1605    54368   57900      0    1.88e+00    0    1.33e+00
2007 09 25  1610    54368   58200      0    1.86e+00    0    1.31e+00
2007 09 25  1615    54368   58500      0    1.89e+00    0    1.33e+00
2007 09 25  1620    54368   58800      0    1.89e+00    0    1.31e+00
2007 09 25  1625    54368   59100      0    1.90e+00    0    1.33e+00
2007 09 25  1630    54368   59400      0    1.91e+00    0    1.32e+00
2007 09 25  1635    54368   59700      0    1.90e+00    0    1.32e+00
2007 09 25  1640    54368   60000      0    1.86e+00    0    1.31e+00
2007 09 25  1645    54368   60300      0    1.89e+00    0    1.32e+00
2007 09 25  1650    54368   60600      0    1.92e+00    0    1.34e+00
2007 09 25  1655    54368   60900      0    1.91e+00    0    1.33e+00
2007 09 25  1700    54368   61200      0    1.91e+00    0    1.33e+00
2007 09 25  1705    54368   61500      0    1.90e+00    0    1.33e+00
2007 09 25  1710    54368   61800      0    1.89e+00    0    1.32e+00
2007 09 25  1715    54368   62100      0    1.90e+00    0    1.33e+00
2007 09 25  1720    54368   62400      0    1.90e+00    0    1.31e+00
2007 09 25  1725    54368   62700      0    1.91e+00    0    1.34e+00
2007 09 25  1730    54368   63000      0    1.87e+00    0    1.30e+00
2007 09 25  1735    54368   63300      0    1.90e+00    0    1.32e+00
2007 09 25  1740    54368   63600      0    1.96e+00    0    1.38e+00
2007 09 25  1745    54368   63900      0    1.90e+00    0    1.34e+00
2007 09 25  1750    54368   64200      0    1.90e+00    0    1.32e+00
2007 09 25  1755    54368   64500      0    1.89e+00    0    1.32e+00
2007 09 25  1800    54368   64800      0    1.91e+00    0    1.33e+00
2007 09 25  1805    54368   65100      0    1.88e+00    0    1.31e+00
2007 09 25  1810    54368   65400      0    1.90e+00    0    1.33e+00
2007 09 25  1815    54368   65700      0    1.92e+00    0    1.35e+00
2007 09 25  1820    54368   66000      0    1.88e+00    0    1.31e+00
2007 09 25  1825    54368   66300      0    1.91e+00    0    1.34e+00
2007 09 25  1830    54368   66600      0    1.89e+00    0    1.33e+00
2007 09 25  1835    54368   66900      0    1.94e+00    0    1.36e+00
2007 09 25  1840    54368   67200      0    1.86e+00    0    1.30e+00
2007 09 25  1845    54368   67500      0    1.91e+00    0    1.34e+00
2007 09 25  1850    54368   67800      0    1.92e+00    0    1.35e+00
2007 09 25  1855    54368   68100      0    1.89e+00    0    1.31e+00
2007 09 25  1900    54368   68400      0    1.91e+00    0    1.35e+00
2007 09 25  1905    54368   68700      0    1.90e+00    0    1.33e+00
2007 09 25  1910    54368   69000      0    1.92e+00    0    1.35e+00
2007 09 25  1915    54368   69300      0    1.92e+00    0    1.33e+00
2007 09 25  1920    54368   69600      0    1.92e+00    0    1.33e+00
2007 09 25  1925    54368   69900      0    1.94e+00    0    1.37e+00
2007 09 25  1930    54368   70200      0    1.97e+00    0    1.38e+00
2007 09 25  1935    54368   70500      0    1.90e+00    0    1.34e+00
2007 09 25  1940    54368   70800      0    1.91e+00    0    1.33e+00
2007 09 25  1945    54368   71100      0    1.91e+00    0    1.35e+00
2007 09 25  1950    54368   71400      0    1.92e+00    0    1.33e+00
2007 09 25  1955    54368   71700      0    1.87e+00    0    1.32e+00
2007 09 25  2000    54368   72000      0    1.93e+00    0    1.34e+00
2007 09 25  2005    54368   72300      0    1.93e+00    0    1.35e+00
2007 09 25  2010    54368   72600      0    1.99e+00    0    1.40e+00
2007 09 25  2015    54368   72900      0    1.87e+00    0    1.30e+00
2007 09 25  2020    54368   73200      0    1.91e+00    0    1.34e+00
2007 09 25  2025    54368   73500      0    1.89e+00    0    1.33e+00
2007 09 25  2030    54368   73800      0    1.90e+00    0    1.34e+00
2007 09 25  2035    54368   74100      0    1.93e+00    0    1.35e+00
2007 09 25  2040    54368   74400      0    1.92e+00    0    1.34e+00
2007 09 25  2045    54368   74700      0    1.85e+00    0    1.29e+00
2007 09 25  2050    54368   75000      0    1.90e+00    0    1.34e+00
2007 09 25  2055    54368   75300      0    1.92e+00    0    1.35e+00
2007 09 25  2100    54368   75600      0    1.92e+00    0    1.33e+00
2007 09 25  2105    54368   75900      0    1.88e+00    0    1.31e+00
2007 09 25  2110    54368   76200      0    1.89e+00    0    1.32e+00
2007 09 25  2115    54368   76500      0    1.89e+00    0    1.33e+00
2007 09 25  2120    54368   76800      0    1.89e+00    0    1.32e+00
2007 09 25  2125    54368   77100      0    1.89e+00    0    1.34e+00
2007 09 25  2130    54368   77400      0    1.89e+00    0    1.32e+00
2007 09 25  2135    54368   77700      0    1.90e+00    0    1.34e+00
2007 09 25  2140    54368   78000      0    1.91e+00    0    1.32e+00
2007 09 25  2145    54368   78300      0    1.91e+00    0    1.34e+00
2007 09 25  2150    54368   78600      0    1.92e+00    0    1.34e+00
2007 09 25  2155    54368   78900      0    1.91e+00    0    1.35e+00
2007 09 25  2200    54368   79200      0    1.91e+00    0    1.33e+00
2007 09 25  2205    54368   79500      0    1.88e+00    0    1.31e+00
2007 09 25  2210    54368   79800      0    1.90e+00    0    1.33e+00
2007 09 25  2215    54368   80100      0    1.92e+00    0    1.34e+00
2007 09 25  2220    54368   80400      0    1.89e+00    0    1.33e+00
2007 09 25  2225    54368   80700      0    1.89e+00    0    1.32e+00
2007 09 25  2230    54368   81000      0    1.87e+00    0    1.31e+00
2007 09 25  2235    54368   81300      0    1.91e+00    0    1.34e+00
2007 09 25  2240    54368   81600      0    1.89e+00    0    1.32e+00
2007 09 25  2245    54368   81900      0    1.90e+00    0    1.32e+00
2007 09 25  2250    54368   82200      0    1.90e+00    0    1.34e+00
2007 09 25  2255    54368   82500      0    1.93e+00    0    1.35e+00
2007 09 25  2300    54368   82800      0    1.96e+00    0    1.38e+00
2007 09 25  2305    54368   83100      0    1.91e+00    0    1.33e+00
2007 09 25  2310    54368   83400      0    1.90e+00    0    1.33e+00
2007 09 25  2315    54368   83700      0    1.91e+00    0    1.34e+00
2007 09 25  2320    54368   84000      0    1.89e+00    0    1.32e+00
2007 09 25  2325    54368   84300      0    1.89e+00    0    1.33e+00
2007 09 25  2330    54368   84600      0    1.91e+00    0    1.34e+00
2007 09 25  2335    54368   84900      0    1.92e+00    0    1.34e+00
2007 09 25  2340    54368   85200      0    1.94e+00    0    1.36e+00
2007 09 25  2345    54368   85500      0    1.92e+00    0    1.34e+00
2007 09 25  2350    54368   85800      0    1.90e+00    0    1.34e+00
2007 09 25  2355    54368   86100      0    1.89e+00    0    1.32e+00
