:Data_list: 20070228_ace_sis_5m.txt
:Created: 2007 Mar 01 0011 UT
# Prepared by the U.S. Dept. of Commerce, NOAA, Space Environment Center.
# Please send comments and suggestions to SEC.Webmaster@noaa.gov 
# 
# Units: proton flux p/cs2-sec-ster
# Status(S): 0 = nominal data, 1 to 8 = bad data record, 9 = no data
# Missing data values: -1.00e+05
# Source: ACE Satellite - Solar Isotope Spectrometer
#
# 5-minute averaged Real-time Integral Flux of High-energy Solar Protons
# 
#                 Modified Seconds
# UT Date   Time   Julian  of the      ---- Integral Proton Flux ----
# YR MO DA  HHMM     Day     Day       S    > 10 MeV    S    > 30 MeV
#--------------------------------------------------------------------
2007 02 28  0000    54159       0      0    1.71e+00    0    1.20e+00
2007 02 28  0005    54159     300      0    1.71e+00    0    1.20e+00
2007 02 28  0010    54159     600      0    1.71e+00    0    1.20e+00
2007 02 28  0015    54159     900      0    1.71e+00    0    1.20e+00
2007 02 28  0020    54159    1200      0    1.70e+00    0    1.19e+00
2007 02 28  0025    54159    1500      0    1.69e+00    0    1.19e+00
2007 02 28  0030    54159    1800      0    1.72e+00    0    1.21e+00
2007 02 28  0035    54159    2100      0    1.71e+00    0    1.19e+00
2007 02 28  0040    54159    2400      0    1.70e+00    0    1.18e+00
2007 02 28  0045    54159    2700      0    1.70e+00    0    1.19e+00
2007 02 28  0050    54159    3000      0    1.73e+00    0    1.20e+00
2007 02 28  0055    54159    3300      0    1.71e+00    0    1.19e+00
2007 02 28  0100    54159    3600      0    1.73e+00    0    1.22e+00
2007 02 28  0105    54159    3900      0    1.73e+00    0    1.20e+00
2007 02 28  0110    54159    4200      0    1.70e+00    0    1.19e+00
2007 02 28  0115    54159    4500      0    1.70e+00    0    1.19e+00
2007 02 28  0120    54159    4800      0    1.73e+00    0    1.21e+00
2007 02 28  0125    54159    5100      0    1.70e+00    0    1.19e+00
2007 02 28  0130    54159    5400      0    1.76e+00    0    1.24e+00
2007 02 28  0135    54159    5700      0    1.75e+00    0    1.24e+00
2007 02 28  0140    54159    6000      0    1.73e+00    0    1.20e+00
2007 02 28  0145    54159    6300      0    1.75e+00    0    1.23e+00
2007 02 28  0150    54159    6600      0    1.77e+00    0    1.24e+00
2007 02 28  0155    54159    6900      0    1.73e+00    0    1.22e+00
2007 02 28  0200    54159    7200      0    1.73e+00    0    1.21e+00
2007 02 28  0205    54159    7500      0    1.75e+00    0    1.24e+00
2007 02 28  0210    54159    7800      0    1.72e+00    0    1.21e+00
2007 02 28  0215    54159    8100      0    1.71e+00    0    1.21e+00
2007 02 28  0220    54159    8400      0    1.71e+00    0    1.21e+00
2007 02 28  0225    54159    8700      0    1.72e+00    0    1.21e+00
2007 02 28  0230    54159    9000      0    1.72e+00    0    1.21e+00
2007 02 28  0235    54159    9300      0    1.75e+00    0    1.23e+00
2007 02 28  0240    54159    9600      0    1.70e+00    0    1.20e+00
2007 02 28  0245    54159    9900      0    1.71e+00    0    1.19e+00
2007 02 28  0250    54159   10200      0    1.70e+00    0    1.19e+00
2007 02 28  0255    54159   10500      0    1.71e+00    0    1.19e+00
2007 02 28  0300    54159   10800      0    1.66e+00    0    1.15e+00
2007 02 28  0305    54159   11100      0    1.72e+00    0    1.21e+00
2007 02 28  0310    54159   11400      0    1.73e+00    0    1.20e+00
2007 02 28  0315    54159   11700      0    1.70e+00    0    1.19e+00
2007 02 28  0320    54159   12000      0    1.71e+00    0    1.19e+00
2007 02 28  0325    54159   12300      0    1.73e+00    0    1.20e+00
2007 02 28  0330    54159   12600      0    1.73e+00    0    1.21e+00
2007 02 28  0335    54159   12900      0    1.71e+00    0    1.21e+00
2007 02 28  0340    54159   13200      0    1.74e+00    0    1.22e+00
2007 02 28  0345    54159   13500      0    1.74e+00    0    1.21e+00
2007 02 28  0350    54159   13800      0    1.72e+00    0    1.21e+00
2007 02 28  0355    54159   14100      0    1.72e+00    0    1.20e+00
2007 02 28  0400    54159   14400      0    1.73e+00    0    1.22e+00
2007 02 28  0405    54159   14700      0    1.73e+00    0    1.21e+00
2007 02 28  0410    54159   15000      0    1.76e+00    0    1.23e+00
2007 02 28  0415    54159   15300      0    1.74e+00    0    1.23e+00
2007 02 28  0420    54159   15600      0    1.75e+00    0    1.21e+00
2007 02 28  0425    54159   15900      0    1.69e+00    0    1.19e+00
2007 02 28  0430    54159   16200      0    1.71e+00    0    1.21e+00
2007 02 28  0435    54159   16500      0    1.75e+00    0    1.23e+00
2007 02 28  0440    54159   16800      0    1.68e+00    0    1.17e+00
2007 02 28  0445    54159   17100      0    1.75e+00    0    1.21e+00
2007 02 28  0450    54159   17400      0    1.73e+00    0    1.23e+00
2007 02 28  0455    54159   17700      0    1.73e+00    0    1.22e+00
2007 02 28  0500    54159   18000      0    1.73e+00    0    1.20e+00
2007 02 28  0505    54159   18300      0    1.73e+00    0    1.22e+00
2007 02 28  0510    54159   18600      0    1.71e+00    0    1.20e+00
2007 02 28  0515    54159   18900      0    1.75e+00    0    1.22e+00
2007 02 28  0520    54159   19200      0    1.75e+00    0    1.23e+00
2007 02 28  0525    54159   19500      0    1.70e+00    0    1.19e+00
2007 02 28  0530    54159   19800      0    1.71e+00    0    1.19e+00
2007 02 28  0535    54159   20100      0    1.70e+00    0    1.18e+00
2007 02 28  0540    54159   20400      0    1.67e+00    0    1.17e+00
2007 02 28  0545    54159   20700      0    1.71e+00    0    1.19e+00
2007 02 28  0550    54159   21000      0    1.73e+00    0    1.20e+00
2007 02 28  0555    54159   21300      0    1.72e+00    0    1.20e+00
2007 02 28  0600    54159   21600      0    1.72e+00    0    1.22e+00
2007 02 28  0605    54159   21900      0    1.72e+00    0    1.22e+00
2007 02 28  0610    54159   22200      0    1.77e+00    0    1.23e+00
2007 02 28  0615    54159   22500      0    1.75e+00    0    1.23e+00
2007 02 28  0620    54159   22800      0    1.78e+00    0    1.24e+00
2007 02 28  0625    54159   23100      0    1.75e+00    0    1.23e+00
2007 02 28  0630    54159   23400      0    1.75e+00    0    1.23e+00
2007 02 28  0635    54159   23700      0    1.75e+00    0    1.22e+00
2007 02 28  0640    54159   24000      0    1.73e+00    0    1.21e+00
2007 02 28  0645    54159   24300      0    1.73e+00    0    1.23e+00
2007 02 28  0650    54159   24600      0    1.73e+00    0    1.21e+00
2007 02 28  0655    54159   24900      9   -1.00e+05    9   -1.00e+05
2007 02 28  0700    54159   25200      9   -1.00e+05    9   -1.00e+05
2007 02 28  0705    54159   25500      9   -1.00e+05    9   -1.00e+05
2007 02 28  0710    54159   25800      9   -1.00e+05    9   -1.00e+05
2007 02 28  0715    54159   26100      0    1.71e+00    0    1.20e+00
2007 02 28  0720    54159   26400      0    1.74e+00    0    1.22e+00
2007 02 28  0725    54159   26700      0    1.71e+00    0    1.20e+00
2007 02 28  0730    54159   27000      0    1.75e+00    0    1.23e+00
2007 02 28  0735    54159   27300      0    1.74e+00    0    1.22e+00
2007 02 28  0740    54159   27600      0    1.77e+00    0    1.24e+00
2007 02 28  0745    54159   27900      0    1.75e+00    0    1.23e+00
2007 02 28  0750    54159   28200      0    1.74e+00    0    1.22e+00
2007 02 28  0755    54159   28500      0    1.72e+00    0    1.21e+00
2007 02 28  0800    54159   28800      0    1.73e+00    0    1.22e+00
2007 02 28  0805    54159   29100      0    1.71e+00    0    1.19e+00
2007 02 28  0810    54159   29400      0    1.72e+00    0    1.19e+00
2007 02 28  0815    54159   29700      0    1.77e+00    0    1.24e+00
2007 02 28  0820    54159   30000      0    1.73e+00    0    1.21e+00
2007 02 28  0825    54159   30300      0    1.71e+00    0    1.20e+00
2007 02 28  0830    54159   30600      0    1.73e+00    0    1.20e+00
2007 02 28  0835    54159   30900      0    1.71e+00    0    1.19e+00
2007 02 28  0840    54159   31200      0    1.74e+00    0    1.22e+00
2007 02 28  0845    54159   31500      0    1.75e+00    0    1.22e+00
2007 02 28  0850    54159   31800      0    1.71e+00    0    1.20e+00
2007 02 28  0855    54159   32100      0    1.72e+00    0    1.21e+00
2007 02 28  0900    54159   32400      0    1.73e+00    0    1.22e+00
2007 02 28  0905    54159   32700      0    1.71e+00    0    1.19e+00
2007 02 28  0910    54159   33000      0    1.75e+00    0    1.23e+00
2007 02 28  0915    54159   33300      0    1.71e+00    0    1.20e+00
2007 02 28  0920    54159   33600      0    1.72e+00    0    1.21e+00
2007 02 28  0925    54159   33900      0    1.74e+00    0    1.22e+00
2007 02 28  0930    54159   34200      0    1.75e+00    0    1.22e+00
2007 02 28  0935    54159   34500      0    1.78e+00    0    1.25e+00
2007 02 28  0940    54159   34800      0    1.75e+00    0    1.22e+00
2007 02 28  0945    54159   35100      0    1.72e+00    0    1.21e+00
2007 02 28  0950    54159   35400      0    1.71e+00    0    1.19e+00
2007 02 28  0955    54159   35700      0    1.73e+00    0    1.22e+00
2007 02 28  1000    54159   36000      0    1.74e+00    0    1.21e+00
2007 02 28  1005    54159   36300      0    1.74e+00    0    1.23e+00
2007 02 28  1010    54159   36600      0    1.73e+00    0    1.20e+00
2007 02 28  1015    54159   36900      0    1.76e+00    0    1.24e+00
2007 02 28  1020    54159   37200      0    1.72e+00    0    1.21e+00
2007 02 28  1025    54159   37500      0    1.68e+00    0    1.18e+00
2007 02 28  1030    54159   37800      0    1.74e+00    0    1.23e+00
2007 02 28  1035    54159   38100      0    1.74e+00    0    1.22e+00
2007 02 28  1040    54159   38400      0    1.74e+00    0    1.23e+00
2007 02 28  1045    54159   38700      0    1.73e+00    0    1.21e+00
2007 02 28  1050    54159   39000      0    1.76e+00    0    1.23e+00
2007 02 28  1055    54159   39300      0    1.73e+00    0    1.22e+00
2007 02 28  1100    54159   39600      0    1.74e+00    0    1.21e+00
2007 02 28  1105    54159   39900      0    1.72e+00    0    1.22e+00
2007 02 28  1110    54159   40200      0    1.69e+00    0    1.18e+00
2007 02 28  1115    54159   40500      0    1.74e+00    0    1.21e+00
2007 02 28  1120    54159   40800      0    1.73e+00    0    1.23e+00
2007 02 28  1125    54159   41100      0    1.72e+00    0    1.20e+00
2007 02 28  1130    54159   41400      0    1.73e+00    0    1.21e+00
2007 02 28  1135    54159   41700      0    1.71e+00    0    1.19e+00
2007 02 28  1140    54159   42000      0    1.72e+00    0    1.21e+00
2007 02 28  1145    54159   42300      0    1.73e+00    0    1.21e+00
2007 02 28  1150    54159   42600      0    1.72e+00    0    1.19e+00
2007 02 28  1155    54159   42900      0    1.71e+00    0    1.20e+00
2007 02 28  1200    54159   43200      0    1.71e+00    0    1.19e+00
2007 02 28  1205    54159   43500      0    1.70e+00    0    1.19e+00
2007 02 28  1210    54159   43800      0    1.73e+00    0    1.22e+00
2007 02 28  1215    54159   44100      0    1.71e+00    0    1.20e+00
2007 02 28  1220    54159   44400      0    1.63e+00    0    1.14e+00
2007 02 28  1225    54159   44700      0    1.69e+00    0    1.19e+00
2007 02 28  1230    54159   45000      0    1.74e+00    0    1.22e+00
2007 02 28  1235    54159   45300      0    1.71e+00    0    1.20e+00
2007 02 28  1240    54159   45600      0    1.69e+00    0    1.17e+00
2007 02 28  1245    54159   45900      0    1.73e+00    0    1.22e+00
2007 02 28  1250    54159   46200      0    1.76e+00    0    1.23e+00
2007 02 28  1255    54159   46500      0    1.72e+00    0    1.18e+00
2007 02 28  1300    54159   46800      0    1.68e+00    0    1.17e+00
2007 02 28  1305    54159   47100      0    1.68e+00    0    1.18e+00
2007 02 28  1310    54159   47400      0    1.69e+00    0    1.18e+00
2007 02 28  1315    54159   47700      0    1.71e+00    0    1.19e+00
2007 02 28  1320    54159   48000      0    1.74e+00    0    1.23e+00
2007 02 28  1325    54159   48300      0    1.72e+00    0    1.20e+00
2007 02 28  1330    54159   48600      0    1.71e+00    0    1.21e+00
2007 02 28  1335    54159   48900      0    1.74e+00    0    1.23e+00
2007 02 28  1340    54159   49200      0    1.69e+00    0    1.19e+00
2007 02 28  1345    54159   49500      0    1.68e+00    0    1.17e+00
2007 02 28  1350    54159   49800      0    1.76e+00    0    1.23e+00
2007 02 28  1355    54159   50100      0    1.71e+00    0    1.20e+00
2007 02 28  1400    54159   50400      0    1.72e+00    0    1.20e+00
2007 02 28  1405    54159   50700      0    1.69e+00    0    1.19e+00
2007 02 28  1410    54159   51000      0    1.69e+00    0    1.19e+00
2007 02 28  1415    54159   51300      0    1.68e+00    0    1.18e+00
2007 02 28  1420    54159   51600      0    1.64e+00    0    1.15e+00
2007 02 28  1425    54159   51900      0    2.06e+00    0    1.09e+00
2007 02 28  1430    54159   52200      0    1.67e+00    0    1.15e+00
2007 02 28  1435    54159   52500      0    1.66e+00    0    1.16e+00
2007 02 28  1440    54159   52800      0    1.67e+00    0    1.17e+00
2007 02 28  1445    54159   53100      0    1.71e+00    0    1.21e+00
2007 02 28  1450    54159   53400      0    1.69e+00    0    1.19e+00
2007 02 28  1455    54159   53700      0    1.71e+00    0    1.20e+00
2007 02 28  1500    54159   54000      0    1.71e+00    0    1.19e+00
2007 02 28  1505    54159   54300      0    1.73e+00    0    1.21e+00
2007 02 28  1510    54159   54600      0    1.80e+00    0    1.26e+00
2007 02 28  1515    54159   54900      9   -1.00e+05    9   -1.00e+05
2007 02 28  1520    54159   55200      0    1.70e+00    0    1.19e+00
2007 02 28  1525    54159   55500      0    1.75e+00    0    1.23e+00
2007 02 28  1530    54159   55800      0    1.73e+00    0    1.22e+00
2007 02 28  1535    54159   56100      0    1.73e+00    0    1.21e+00
2007 02 28  1540    54159   56400      0    1.70e+00    0    1.19e+00
2007 02 28  1545    54159   56700      0    1.69e+00    0    1.20e+00
2007 02 28  1550    54159   57000      0    1.74e+00    0    1.22e+00
2007 02 28  1555    54159   57300      0    1.72e+00    0    1.20e+00
2007 02 28  1600    54159   57600      0    1.69e+00    0    1.18e+00
2007 02 28  1605    54159   57900      0    1.71e+00    0    1.20e+00
2007 02 28  1610    54159   58200      0    1.74e+00    0    1.22e+00
2007 02 28  1615    54159   58500      0    1.72e+00    0    1.19e+00
2007 02 28  1620    54159   58800      0    1.77e+00    0    1.23e+00
2007 02 28  1625    54159   59100      0    1.73e+00    0    1.21e+00
2007 02 28  1630    54159   59400      0    1.75e+00    0    1.23e+00
2007 02 28  1635    54159   59700      0    1.71e+00    0    1.20e+00
2007 02 28  1640    54159   60000      0    1.72e+00    0    1.21e+00
2007 02 28  1645    54159   60300      0    1.73e+00    0    1.22e+00
2007 02 28  1650    54159   60600      0    1.72e+00    0    1.20e+00
2007 02 28  1655    54159   60900      0    1.71e+00    0    1.19e+00
2007 02 28  1700    54159   61200      0    1.74e+00    0    1.21e+00
2007 02 28  1705    54159   61500      0    1.71e+00    0    1.21e+00
2007 02 28  1710    54159   61800      0    1.71e+00    0    1.20e+00
2007 02 28  1715    54159   62100      0    1.75e+00    0    1.22e+00
2007 02 28  1720    54159   62400      0    1.71e+00    0    1.20e+00
2007 02 28  1725    54159   62700      0    1.74e+00    0    1.22e+00
2007 02 28  1730    54159   63000      0    1.76e+00    0    1.24e+00
2007 02 28  1735    54159   63300      0    1.75e+00    0    1.23e+00
2007 02 28  1740    54159   63600      0    1.72e+00    0    1.21e+00
2007 02 28  1745    54159   63900      0    1.70e+00    0    1.19e+00
2007 02 28  1750    54159   64200      0    1.72e+00    0    1.21e+00
2007 02 28  1755    54159   64500      0    1.70e+00    0    1.18e+00
2007 02 28  1800    54159   64800      0    1.75e+00    0    1.23e+00
2007 02 28  1805    54159   65100      0    1.71e+00    0    1.20e+00
2007 02 28  1810    54159   65400      0    1.74e+00    0    1.21e+00
2007 02 28  1815    54159   65700      0    1.73e+00    0    1.21e+00
2007 02 28  1820    54159   66000      0    1.71e+00    0    1.20e+00
2007 02 28  1825    54159   66300      0    1.72e+00    0    1.20e+00
2007 02 28  1830    54159   66600      0    1.73e+00    0    1.21e+00
2007 02 28  1835    54159   66900      0    1.74e+00    0    1.22e+00
2007 02 28  1840    54159   67200      0    1.71e+00    0    1.21e+00
2007 02 28  1845    54159   67500      0    1.74e+00    0    1.23e+00
2007 02 28  1850    54159   67800      0    1.75e+00    0    1.22e+00
2007 02 28  1855    54159   68100      0    1.70e+00    0    1.20e+00
2007 02 28  1900    54159   68400      0    1.73e+00    0    1.21e+00
2007 02 28  1905    54159   68700      0    1.73e+00    0    1.21e+00
2007 02 28  1910    54159   69000      0    1.75e+00    0    1.22e+00
2007 02 28  1915    54159   69300      0    1.74e+00    0    1.21e+00
2007 02 28  1920    54159   69600      0    1.73e+00    0    1.21e+00
2007 02 28  1925    54159   69900      0    1.70e+00    0    1.20e+00
2007 02 28  1930    54159   70200      0    1.71e+00    0    1.19e+00
2007 02 28  1935    54159   70500      0    1.74e+00    0    1.21e+00
2007 02 28  1940    54159   70800      0    1.74e+00    0    1.23e+00
2007 02 28  1945    54159   71100      0    1.70e+00    0    1.19e+00
2007 02 28  1950    54159   71400      0    1.73e+00    0    1.21e+00
2007 02 28  1955    54159   71700      0    1.74e+00    0    1.22e+00
2007 02 28  2000    54159   72000      0    1.71e+00    0    1.19e+00
2007 02 28  2005    54159   72300      0    1.74e+00    0    1.22e+00
2007 02 28  2010    54159   72600      0    1.77e+00    0    1.25e+00
2007 02 28  2015    54159   72900      0    1.73e+00    0    1.20e+00
2007 02 28  2020    54159   73200      0    1.75e+00    0    1.23e+00
2007 02 28  2025    54159   73500      0    1.75e+00    0    1.23e+00
2007 02 28  2030    54159   73800      0    1.71e+00    0    1.20e+00
2007 02 28  2035    54159   74100      0    1.70e+00    0    1.19e+00
2007 02 28  2040    54159   74400      0    1.75e+00    0    1.24e+00
2007 02 28  2045    54159   74700      0    1.69e+00    0    1.18e+00
2007 02 28  2050    54159   75000      0    1.70e+00    0    1.19e+00
2007 02 28  2055    54159   75300      0    1.70e+00    0    1.19e+00
2007 02 28  2100    54159   75600      0    1.72e+00    0    1.20e+00
2007 02 28  2105    54159   75900      0    1.75e+00    0    1.25e+00
2007 02 28  2110    54159   76200      0    1.70e+00    0    1.18e+00
2007 02 28  2115    54159   76500      0    1.71e+00    0    1.20e+00
2007 02 28  2120    54159   76800      0    1.72e+00    0    1.22e+00
2007 02 28  2125    54159   77100      0    1.71e+00    0    1.20e+00
2007 02 28  2130    54159   77400      0    1.73e+00    0    1.21e+00
2007 02 28  2135    54159   77700      0    1.75e+00    0    1.23e+00
2007 02 28  2140    54159   78000      0    1.73e+00    0    1.21e+00
2007 02 28  2145    54159   78300      0    1.74e+00    0    1.22e+00
2007 02 28  2150    54159   78600      0    1.74e+00    0    1.21e+00
2007 02 28  2155    54159   78900      0    1.72e+00    0    1.20e+00
2007 02 28  2200    54159   79200      0    1.69e+00    0    1.19e+00
2007 02 28  2205    54159   79500      0    1.71e+00    0    1.21e+00
2007 02 28  2210    54159   79800      0    1.70e+00    0    1.18e+00
2007 02 28  2215    54159   80100      0    1.66e+00    0    1.17e+00
2007 02 28  2220    54159   80400      0    1.69e+00    0    1.19e+00
2007 02 28  2225    54159   80700      0    1.71e+00    0    1.20e+00
2007 02 28  2230    54159   81000      0    1.71e+00    0    1.20e+00
2007 02 28  2235    54159   81300      0    1.72e+00    0    1.20e+00
2007 02 28  2240    54159   81600      0    1.74e+00    0    1.23e+00
2007 02 28  2245    54159   81900      0    1.73e+00    0    1.21e+00
2007 02 28  2250    54159   82200      0    1.72e+00    0    1.21e+00
2007 02 28  2255    54159   82500      0    1.68e+00    0    1.18e+00
2007 02 28  2300    54159   82800      0    1.69e+00    0    1.19e+00
2007 02 28  2305    54159   83100      0    1.72e+00    0    1.18e+00
2007 02 28  2310    54159   83400      0    1.74e+00    0    1.23e+00
2007 02 28  2315    54159   83700      0    1.73e+00    0    1.22e+00
2007 02 28  2320    54159   84000      0    1.75e+00    0    1.23e+00
2007 02 28  2325    54159   84300      0    1.71e+00    0    1.21e+00
2007 02 28  2330    54159   84600      0    1.72e+00    0    1.21e+00
2007 02 28  2335    54159   84900      0    1.70e+00    0    1.19e+00
2007 02 28  2340    54159   85200      0    1.71e+00    0    1.20e+00
2007 02 28  2345    54159   85500      0    1.72e+00    0    1.20e+00
2007 02 28  2350    54159   85800      0    1.69e+00    0    1.19e+00
2007 02 28  2355    54159   86100      0    1.73e+00    0    1.21e+00
