:Data_list: 20070508_ace_sis_5m.txt
:Created: 2007 May 08 2101 UT
# Prepared by the U.S. Dept. of Commerce, NOAA, Space Environment Center.
# Please send comments and suggestions to SEC.Webmaster@noaa.gov 
# 
# Units: proton flux p/cs2-sec-ster
# Status(S): 0 = nominal data, 1 to 8 = bad data record, 9 = no data
# Missing data values: -1.00e+05
# Source: ACE Satellite - Solar Isotope Spectrometer
#
# 5-minute averaged Real-time Integral Flux of High-energy Solar Protons
# 
#                 Modified Seconds
# UT Date   Time   Julian  of the      ---- Integral Proton Flux ----
# YR MO DA  HHMM     Day     Day       S    > 10 MeV    S    > 30 MeV
#--------------------------------------------------------------------
2007 05 08  0000    54228       0      0    1.82e+00    0    1.27e+00
2007 05 08  0005    54228     300      0    1.81e+00    0    1.28e+00
2007 05 08  0010    54228     600      0    1.85e+00    0    1.29e+00
2007 05 08  0015    54228     900      0    1.85e+00    0    1.28e+00
2007 05 08  0020    54228    1200      0    1.84e+00    0    1.28e+00
2007 05 08  0025    54228    1500      0    1.78e+00    0    1.24e+00
2007 05 08  0030    54228    1800      0    1.79e+00    0    1.26e+00
2007 05 08  0035    54228    2100      0    1.81e+00    0    1.26e+00
2007 05 08  0040    54228    2400      0    1.81e+00    0    1.26e+00
2007 05 08  0045    54228    2700      0    1.79e+00    0    1.25e+00
2007 05 08  0050    54228    3000      0    1.79e+00    0    1.27e+00
2007 05 08  0055    54228    3300      9   -1.00e+05    9   -1.00e+05
2007 05 08  0100    54228    3600      0    1.90e+00    0    1.36e+00
2007 05 08  0105    54228    3900      0    1.83e+00    0    1.28e+00
2007 05 08  0110    54228    4200      0    1.81e+00    0    1.27e+00
2007 05 08  0115    54228    4500      0    1.81e+00    0    1.27e+00
2007 05 08  0120    54228    4800      0    1.78e+00    0    1.26e+00
2007 05 08  0125    54228    5100      0    1.79e+00    0    1.25e+00
2007 05 08  0130    54228    5400      0    1.80e+00    0    1.26e+00
2007 05 08  0135    54228    5700      0    1.80e+00    0    1.27e+00
2007 05 08  0140    54228    6000      0    1.85e+00    0    1.30e+00
2007 05 08  0145    54228    6300      0    1.80e+00    0    1.27e+00
2007 05 08  0150    54228    6600      0    1.84e+00    0    1.29e+00
2007 05 08  0155    54228    6900      0    1.80e+00    0    1.26e+00
2007 05 08  0200    54228    7200      0    1.81e+00    0    1.27e+00
2007 05 08  0205    54228    7500      0    1.82e+00    0    1.28e+00
2007 05 08  0210    54228    7800      0    1.80e+00    0    1.25e+00
2007 05 08  0215    54228    8100      0    1.75e+00    0    1.23e+00
2007 05 08  0220    54228    8400      0    1.82e+00    0    1.27e+00
2007 05 08  0225    54228    8700      0    1.82e+00    0    1.27e+00
2007 05 08  0230    54228    9000      0    1.80e+00    0    1.24e+00
2007 05 08  0235    54228    9300      0    1.82e+00    0    1.27e+00
2007 05 08  0240    54228    9600      0    1.82e+00    0    1.27e+00
2007 05 08  0245    54228    9900      0    1.83e+00    0    1.28e+00
2007 05 08  0250    54228   10200      0    1.81e+00    0    1.26e+00
2007 05 08  0255    54228   10500      0    1.80e+00    0    1.27e+00
2007 05 08  0300    54228   10800      0    1.81e+00    0    1.27e+00
2007 05 08  0305    54228   11100      0    1.84e+00    0    1.30e+00
2007 05 08  0310    54228   11400      0    1.78e+00    0    1.24e+00
2007 05 08  0315    54228   11700      0    1.80e+00    0    1.28e+00
2007 05 08  0320    54228   12000      0    1.80e+00    0    1.25e+00
2007 05 08  0325    54228   12300      0    1.81e+00    0    1.26e+00
2007 05 08  0330    54228   12600      0    1.84e+00    0    1.29e+00
2007 05 08  0335    54228   12900      0    1.83e+00    0    1.27e+00
2007 05 08  0340    54228   13200      0    1.83e+00    0    1.28e+00
2007 05 08  0345    54228   13500      0    1.79e+00    0    1.27e+00
2007 05 08  0350    54228   13800      0    1.85e+00    0    1.30e+00
2007 05 08  0355    54228   14100      0    1.79e+00    0    1.25e+00
2007 05 08  0400    54228   14400      0    1.81e+00    0    1.26e+00
2007 05 08  0405    54228   14700      0    1.80e+00    0    1.27e+00
2007 05 08  0410    54228   15000      0    1.78e+00    0    1.24e+00
2007 05 08  0415    54228   15300      0    1.81e+00    0    1.27e+00
2007 05 08  0420    54228   15600      0    1.81e+00    0    1.27e+00
2007 05 08  0425    54228   15900      0    1.85e+00    0    1.29e+00
2007 05 08  0430    54228   16200      0    1.83e+00    0    1.27e+00
2007 05 08  0435    54228   16500      0    1.81e+00    0    1.29e+00
2007 05 08  0440    54228   16800      0    1.81e+00    0    1.27e+00
2007 05 08  0445    54228   17100      0    1.84e+00    0    1.28e+00
2007 05 08  0450    54228   17400      0    1.81e+00    0    1.28e+00
2007 05 08  0455    54228   17700      0    1.81e+00    0    1.27e+00
2007 05 08  0500    54228   18000      0    1.84e+00    0    1.28e+00
2007 05 08  0505    54228   18300      0    1.81e+00    0    1.27e+00
2007 05 08  0510    54228   18600      0    1.87e+00    0    1.30e+00
2007 05 08  0515    54228   18900      0    1.82e+00    0    1.27e+00
2007 05 08  0520    54228   19200      0    1.86e+00    0    1.31e+00
2007 05 08  0525    54228   19500      0    1.79e+00    0    1.24e+00
2007 05 08  0530    54228   19800      0    1.80e+00    0    1.27e+00
2007 05 08  0535    54228   20100      0    1.84e+00    0    1.31e+00
2007 05 08  0540    54228   20400      0    1.83e+00    0    1.28e+00
2007 05 08  0545    54228   20700      0    1.80e+00    0    1.26e+00
2007 05 08  0550    54228   21000      0    1.83e+00    0    1.27e+00
2007 05 08  0555    54228   21300      0    1.78e+00    0    1.24e+00
2007 05 08  0600    54228   21600      0    1.80e+00    0    1.25e+00
2007 05 08  0605    54228   21900      0    1.82e+00    0    1.27e+00
2007 05 08  0610    54228   22200      0    1.83e+00    0    1.28e+00
2007 05 08  0615    54228   22500      0    1.79e+00    0    1.25e+00
2007 05 08  0620    54228   22800      0    1.79e+00    0    1.25e+00
2007 05 08  0625    54228   23100      0    1.81e+00    0    1.28e+00
2007 05 08  0630    54228   23400      0    1.79e+00    0    1.26e+00
2007 05 08  0635    54228   23700      0    1.82e+00    0    1.29e+00
2007 05 08  0640    54228   24000      0    1.83e+00    0    1.28e+00
2007 05 08  0645    54228   24300      0    1.79e+00    0    1.25e+00
2007 05 08  0650    54228   24600      0    1.77e+00    0    1.23e+00
2007 05 08  0655    54228   24900      0    1.80e+00    0    1.25e+00
2007 05 08  0700    54228   25200      0    1.85e+00    0    1.30e+00
2007 05 08  0705    54228   25500      0    1.80e+00    0    1.26e+00
2007 05 08  0710    54228   25800      0    1.85e+00    0    1.29e+00
2007 05 08  0715    54228   26100      0    1.82e+00    0    1.29e+00
2007 05 08  0720    54228   26400      0    1.80e+00    0    1.25e+00
2007 05 08  0725    54228   26700      0    1.79e+00    0    1.26e+00
2007 05 08  0730    54228   27000      0    1.81e+00    0    1.26e+00
2007 05 08  0735    54228   27300      0    1.83e+00    0    1.28e+00
2007 05 08  0740    54228   27600      0    1.79e+00    0    1.25e+00
2007 05 08  0745    54228   27900      0    1.81e+00    0    1.26e+00
2007 05 08  0750    54228   28200      0    1.82e+00    0    1.27e+00
2007 05 08  0755    54228   28500      0    1.79e+00    0    1.25e+00
2007 05 08  0800    54228   28800      0    1.79e+00    0    1.26e+00
2007 05 08  0805    54228   29100      0    1.80e+00    0    1.26e+00
2007 05 08  0810    54228   29400      0    1.81e+00    0    1.26e+00
2007 05 08  0815    54228   29700      0    1.79e+00    0    1.24e+00
2007 05 08  0820    54228   30000      0    1.81e+00    0    1.25e+00
2007 05 08  0825    54228   30300      0    1.79e+00    0    1.25e+00
2007 05 08  0830    54228   30600      0    1.83e+00    0    1.27e+00
2007 05 08  0835    54228   30900      0    1.77e+00    0    1.25e+00
2007 05 08  0840    54228   31200      0    1.82e+00    0    1.25e+00
2007 05 08  0845    54228   31500      0    1.80e+00    0    1.25e+00
2007 05 08  0850    54228   31800      0    1.90e+00    0    1.32e+00
2007 05 08  0855    54228   32100      0    1.81e+00    0    1.27e+00
2007 05 08  0900    54228   32400      0    1.86e+00    0    1.28e+00
2007 05 08  0905    54228   32700      0    1.78e+00    0    1.23e+00
2007 05 08  0910    54228   33000      0    1.81e+00    0    1.27e+00
2007 05 08  0915    54228   33300      0    1.81e+00    0    1.26e+00
2007 05 08  0920    54228   33600      0    1.84e+00    0    1.29e+00
2007 05 08  0925    54228   33900      0    1.72e+00    0    1.20e+00
2007 05 08  0930    54228   34200      0    1.86e+00    0    1.31e+00
2007 05 08  0935    54228   34500      0    1.80e+00    0    1.26e+00
2007 05 08  0940    54228   34800      0    1.78e+00    0    1.24e+00
2007 05 08  0945    54228   35100      0    1.77e+00    0    1.22e+00
2007 05 08  0950    54228   35400      0    1.78e+00    0    1.24e+00
2007 05 08  0955    54228   35700      0    1.84e+00    0    1.28e+00
2007 05 08  1000    54228   36000      0    1.81e+00    0    1.28e+00
2007 05 08  1005    54228   36300      0    1.83e+00    0    1.28e+00
2007 05 08  1010    54228   36600      0    1.87e+00    0    1.32e+00
2007 05 08  1015    54228   36900      0    1.75e+00    0    1.22e+00
2007 05 08  1020    54228   37200      0    1.79e+00    0    1.28e+00
2007 05 08  1025    54228   37500      0    1.83e+00    0    1.28e+00
2007 05 08  1030    54228   37800      0    1.85e+00    0    1.29e+00
2007 05 08  1035    54228   38100      0    1.80e+00    0    1.26e+00
2007 05 08  1040    54228   38400      0    1.79e+00    0    1.27e+00
2007 05 08  1045    54228   38700      0    1.80e+00    0    1.27e+00
2007 05 08  1050    54228   39000      0    1.83e+00    0    1.28e+00
2007 05 08  1055    54228   39300      0    1.87e+00    0    1.32e+00
2007 05 08  1100    54228   39600      0    1.82e+00    0    1.27e+00
2007 05 08  1105    54228   39900      0    1.83e+00    0    1.27e+00
2007 05 08  1110    54228   40200      0    1.85e+00    0    1.29e+00
2007 05 08  1115    54228   40500      0    1.82e+00    0    1.26e+00
2007 05 08  1120    54228   40800      0    1.81e+00    0    1.28e+00
2007 05 08  1125    54228   41100      0    1.77e+00    0    1.22e+00
2007 05 08  1130    54228   41400      0    1.84e+00    0    1.28e+00
2007 05 08  1135    54228   41700      0    1.81e+00    0    1.26e+00
2007 05 08  1140    54228   42000      0    1.83e+00    0    1.27e+00
2007 05 08  1145    54228   42300      0    1.81e+00    0    1.25e+00
2007 05 08  1150    54228   42600      0    1.82e+00    0    1.29e+00
2007 05 08  1155    54228   42900      0    1.81e+00    0    1.28e+00
2007 05 08  1200    54228   43200      0    1.82e+00    0    1.27e+00
2007 05 08  1205    54228   43500      0    1.83e+00    0    1.27e+00
2007 05 08  1210    54228   43800      0    1.80e+00    0    1.25e+00
2007 05 08  1215    54228   44100      0    1.79e+00    0    1.25e+00
2007 05 08  1220    54228   44400      0    1.80e+00    0    1.25e+00
2007 05 08  1225    54228   44700      0    1.77e+00    0    1.23e+00
2007 05 08  1230    54228   45000      0    1.85e+00    0    1.28e+00
2007 05 08  1235    54228   45300      0    1.85e+00    0    1.29e+00
2007 05 08  1240    54228   45600      0    1.83e+00    0    1.28e+00
2007 05 08  1245    54228   45900      0    1.83e+00    0    1.28e+00
2007 05 08  1250    54228   46200      0    1.80e+00    0    1.27e+00
2007 05 08  1255    54228   46500      0    1.79e+00    0    1.25e+00
2007 05 08  1300    54228   46800      0    1.84e+00    0    1.30e+00
2007 05 08  1305    54228   47100      0    1.85e+00    0    1.30e+00
2007 05 08  1310    54228   47400      0    1.86e+00    0    1.31e+00
2007 05 08  1315    54228   47700      0    1.87e+00    0    1.30e+00
2007 05 08  1320    54228   48000      0    1.81e+00    0    1.27e+00
2007 05 08  1325    54228   48300      0    1.83e+00    0    1.28e+00
2007 05 08  1330    54228   48600      0    1.81e+00    0    1.26e+00
2007 05 08  1335    54228   48900      0    1.83e+00    0    1.28e+00
2007 05 08  1340    54228   49200      0    1.81e+00    0    1.26e+00
2007 05 08  1345    54228   49500      0    1.84e+00    0    1.29e+00
2007 05 08  1350    54228   49800      0    1.85e+00    0    1.29e+00
2007 05 08  1355    54228   50100      0    1.83e+00    0    1.29e+00
2007 05 08  1400    54228   50400      0    1.87e+00    0    1.31e+00
2007 05 08  1405    54228   50700      0    1.83e+00    0    1.27e+00
2007 05 08  1410    54228   51000      0    1.79e+00    0    1.25e+00
2007 05 08  1415    54228   51300      0    1.82e+00    0    1.27e+00
2007 05 08  1420    54228   51600      0    1.86e+00    0    1.30e+00
2007 05 08  1425    54228   51900      0    1.82e+00    0    1.28e+00
2007 05 08  1430    54228   52200      0    1.84e+00    0    1.29e+00
2007 05 08  1435    54228   52500      0    1.84e+00    0    1.28e+00
2007 05 08  1440    54228   52800      0    1.83e+00    0    1.27e+00
2007 05 08  1445    54228   53100      0    1.82e+00    0    1.26e+00
2007 05 08  1450    54228   53400      0    1.79e+00    0    1.25e+00
2007 05 08  1455    54228   53700      0    1.75e+00    0    1.23e+00
2007 05 08  1500    54228   54000      0    1.85e+00    0    1.30e+00
2007 05 08  1505    54228   54300      0    1.82e+00    0    1.29e+00
2007 05 08  1510    54228   54600      0    1.82e+00    0    1.27e+00
2007 05 08  1515    54228   54900      0    1.79e+00    0    1.24e+00
2007 05 08  1520    54228   55200      0    1.78e+00    0    1.25e+00
2007 05 08  1525    54228   55500      0    1.82e+00    0    1.28e+00
2007 05 08  1530    54228   55800      0    1.82e+00    0    1.26e+00
2007 05 08  1535    54228   56100      0    1.81e+00    0    1.27e+00
2007 05 08  1540    54228   56400      0    1.78e+00    0    1.23e+00
2007 05 08  1545    54228   56700      0    1.84e+00    0    1.29e+00
2007 05 08  1550    54228   57000      0    1.83e+00    0    1.30e+00
2007 05 08  1555    54228   57300      0    1.77e+00    0    1.24e+00
2007 05 08  1600    54228   57600      0    1.83e+00    0    1.27e+00
2007 05 08  1605    54228   57900      0    1.82e+00    0    1.27e+00
2007 05 08  1610    54228   58200      0    1.80e+00    0    1.25e+00
2007 05 08  1615    54228   58500      0    1.85e+00    0    1.29e+00
2007 05 08  1620    54228   58800      0    1.83e+00    0    1.27e+00
2007 05 08  1625    54228   59100      0    1.79e+00    0    1.26e+00
2007 05 08  1630    54228   59400      0    1.83e+00    0    1.29e+00
2007 05 08  1635    54228   59700      0    1.78e+00    0    1.23e+00
2007 05 08  1640    54228   60000      0    1.83e+00    0    1.27e+00
2007 05 08  1645    54228   60300      0    1.78e+00    0    1.23e+00
2007 05 08  1650    54228   60600      0    1.79e+00    0    1.25e+00
2007 05 08  1655    54228   60900      0    1.87e+00    0    1.30e+00
2007 05 08  1700    54228   61200      0    1.84e+00    0    1.28e+00
2007 05 08  1705    54228   61500      0    1.80e+00    0    1.26e+00
2007 05 08  1710    54228   61800      0    1.80e+00    0    1.27e+00
2007 05 08  1715    54228   62100      0    1.76e+00    0    1.23e+00
2007 05 08  1720    54228   62400      0    1.75e+00    0    1.23e+00
2007 05 08  1725    54228   62700      0    1.80e+00    0    1.26e+00
2007 05 08  1730    54228   63000      0    1.79e+00    0    1.24e+00
2007 05 08  1735    54228   63300      0    1.80e+00    0    1.26e+00
2007 05 08  1740    54228   63600      0    1.82e+00    0    1.32e+00
2007 05 08  1745    54228   63900      9   -1.00e+05    9   -1.00e+05
2007 05 08  1750    54228   64200      0    1.80e+00    0    1.25e+00
2007 05 08  1755    54228   64500      0    1.76e+00    0    1.23e+00
2007 05 08  1800    54228   64800      0    1.79e+00    0    1.25e+00
2007 05 08  1805    54228   65100      0    1.81e+00    0    1.26e+00
2007 05 08  1810    54228   65400      0    1.81e+00    0    1.26e+00
2007 05 08  1815    54228   65700      0    1.87e+00    0    1.31e+00
2007 05 08  1820    54228   66000      0    1.82e+00    0    1.28e+00
2007 05 08  1825    54228   66300      0    1.79e+00    0    1.24e+00
2007 05 08  1830    54228   66600      0    1.83e+00    0    1.28e+00
2007 05 08  1835    54228   66900      0    1.79e+00    0    1.25e+00
2007 05 08  1840    54228   67200      0    1.82e+00    0    1.27e+00
2007 05 08  1845    54228   67500      0    1.82e+00    0    1.28e+00
2007 05 08  1850    54228   67800      0    1.82e+00    0    1.28e+00
2007 05 08  1855    54228   68100      0    1.80e+00    0    1.24e+00
2007 05 08  1900    54228   68400      0    1.80e+00    0    1.27e+00
2007 05 08  1905    54228   68700      0    1.81e+00    0    1.27e+00
2007 05 08  1910    54228   69000      0    1.82e+00    0    1.28e+00
2007 05 08  1915    54228   69300      0    1.82e+00    0    1.27e+00
2007 05 08  1920    54228   69600      0    1.75e+00    0    1.22e+00
2007 05 08  1925    54228   69900      0    1.76e+00    0    1.23e+00
2007 05 08  1930    54228   70200      0    1.80e+00    0    1.25e+00
2007 05 08  1935    54228   70500      0    1.81e+00    0    1.28e+00
2007 05 08  1940    54228   70800      0    1.85e+00    0    1.32e+00
2007 05 08  1945    54228   71100      0    1.84e+00    0    1.28e+00
2007 05 08  1950    54228   71400      0    1.78e+00    0    1.23e+00
2007 05 08  1955    54228   71700      0    1.82e+00    0    1.28e+00
2007 05 08  2000    54228   72000      0    1.79e+00    0    1.25e+00
2007 05 08  2005    54228   72300      0    1.80e+00    0    1.26e+00
2007 05 08  2010    54228   72600      0    1.83e+00    0    1.28e+00
2007 05 08  2015    54228   72900      0    1.81e+00    0    1.25e+00
2007 05 08  2020    54228   73200      0    1.82e+00    0    1.26e+00
2007 05 08  2025    54228   73500      0    1.80e+00    0    1.27e+00
2007 05 08  2030    54228   73800      0    1.80e+00    0    1.27e+00
2007 05 08  2035    54228   74100      0    1.83e+00    0    1.28e+00
2007 05 08  2040    54228   74400      0    1.84e+00    0    1.29e+00
2007 05 08  2045    54228   74700      0    1.82e+00    0    1.28e+00
2007 05 08  2050    54228   75000      0    1.86e+00    0    1.31e+00
2007 05 08  2055    54228   75300      9   -1.00e+05    9   -1.00e+05
