:Data_list: 20070922_ace_sis_5m.txt
:Created: 2007 Sep 23 0011 UT
# Prepared by the U.S. Dept. of Commerce, NOAA, Space Environment Center.
# Please send comments and suggestions to SEC.Webmaster@noaa.gov 
# 
# Units: proton flux p/cs2-sec-ster
# Status(S): 0 = nominal data, 1 to 8 = bad data record, 9 = no data
# Missing data values: -1.00e+05
# Source: ACE Satellite - Solar Isotope Spectrometer
#
# 5-minute averaged Real-time Integral Flux of High-energy Solar Protons
# 
#                 Modified Seconds
# UT Date   Time   Julian  of the      ---- Integral Proton Flux ----
# YR MO DA  HHMM     Day     Day       S    > 10 MeV    S    > 30 MeV
#--------------------------------------------------------------------
2007 09 22  0000    54365       0      0    1.93e+00    0    1.36e+00
2007 09 22  0005    54365     300      0    1.93e+00    0    1.35e+00
2007 09 22  0010    54365     600      0    1.92e+00    0    1.33e+00
2007 09 22  0015    54365     900      0    1.92e+00    0    1.35e+00
2007 09 22  0020    54365    1200      0    1.95e+00    0    1.37e+00
2007 09 22  0025    54365    1500      0    1.92e+00    0    1.34e+00
2007 09 22  0030    54365    1800      0    1.92e+00    0    1.34e+00
2007 09 22  0035    54365    2100      0    1.91e+00    0    1.34e+00
2007 09 22  0040    54365    2400      0    1.92e+00    0    1.35e+00
2007 09 22  0045    54365    2700      0    1.89e+00    0    1.33e+00
2007 09 22  0050    54365    3000      0    1.89e+00    0    1.31e+00
2007 09 22  0055    54365    3300      0    1.94e+00    0    1.35e+00
2007 09 22  0100    54365    3600      0    1.93e+00    0    1.36e+00
2007 09 22  0105    54365    3900      0    1.90e+00    0    1.33e+00
2007 09 22  0110    54365    4200      0    1.88e+00    0    1.32e+00
2007 09 22  0115    54365    4500      0    1.88e+00    0    1.32e+00
2007 09 22  0120    54365    4800      0    1.92e+00    0    1.34e+00
2007 09 22  0125    54365    5100      0    1.90e+00    0    1.33e+00
2007 09 22  0130    54365    5400      0    1.91e+00    0    1.32e+00
2007 09 22  0135    54365    5700      0    1.94e+00    0    1.36e+00
2007 09 22  0140    54365    6000      0    1.92e+00    0    1.34e+00
2007 09 22  0145    54365    6300      0    1.92e+00    0    1.34e+00
2007 09 22  0150    54365    6600      0    1.90e+00    0    1.33e+00
2007 09 22  0155    54365    6900      0    1.92e+00    0    1.35e+00
2007 09 22  0200    54365    7200      0    1.91e+00    0    1.33e+00
2007 09 22  0205    54365    7500      0    1.92e+00    0    1.34e+00
2007 09 22  0210    54365    7800      0    1.91e+00    0    1.34e+00
2007 09 22  0215    54365    8100      0    1.93e+00    0    1.35e+00
2007 09 22  0220    54365    8400      0    1.93e+00    0    1.34e+00
2007 09 22  0225    54365    8700      0    1.93e+00    0    1.36e+00
2007 09 22  0230    54365    9000      0    1.93e+00    0    1.35e+00
2007 09 22  0235    54365    9300      0    1.92e+00    0    1.34e+00
2007 09 22  0240    54365    9600      0    1.89e+00    0    1.32e+00
2007 09 22  0245    54365    9900      0    1.93e+00    0    1.35e+00
2007 09 22  0250    54365   10200      0    1.88e+00    0    1.33e+00
2007 09 22  0255    54365   10500      0    1.89e+00    0    1.32e+00
2007 09 22  0300    54365   10800      0    1.93e+00    0    1.35e+00
2007 09 22  0305    54365   11100      0    1.90e+00    0    1.33e+00
2007 09 22  0310    54365   11400      0    1.88e+00    0    1.31e+00
2007 09 22  0315    54365   11700      0    1.89e+00    0    1.31e+00
2007 09 22  0320    54365   12000      0    1.89e+00    0    1.33e+00
2007 09 22  0325    54365   12300      0    1.91e+00    0    1.34e+00
2007 09 22  0330    54365   12600      0    1.89e+00    0    1.32e+00
2007 09 22  0335    54365   12900      0    1.93e+00    0    1.36e+00
2007 09 22  0340    54365   13200      0    1.95e+00    0    1.36e+00
2007 09 22  0345    54365   13500      0    1.96e+00    0    1.37e+00
2007 09 22  0350    54365   13800      0    1.91e+00    0    1.33e+00
2007 09 22  0355    54365   14100      0    1.90e+00    0    1.34e+00
2007 09 22  0400    54365   14400      0    1.88e+00    0    1.31e+00
2007 09 22  0405    54365   14700      0    1.95e+00    0    1.37e+00
2007 09 22  0410    54365   15000      0    1.88e+00    0    1.32e+00
2007 09 22  0415    54365   15300      0    1.91e+00    0    1.34e+00
2007 09 22  0420    54365   15600      0    1.91e+00    0    1.34e+00
2007 09 22  0425    54365   15900      0    1.92e+00    0    1.35e+00
2007 09 22  0430    54365   16200      0    1.85e+00    0    1.29e+00
2007 09 22  0435    54365   16500      0    1.92e+00    0    1.36e+00
2007 09 22  0440    54365   16800      0    1.92e+00    0    1.34e+00
2007 09 22  0445    54365   17100      0    1.90e+00    0    1.33e+00
2007 09 22  0450    54365   17400      0    1.91e+00    0    1.34e+00
2007 09 22  0455    54365   17700      0    1.89e+00    0    1.33e+00
2007 09 22  0500    54365   18000      0    1.90e+00    0    1.34e+00
2007 09 22  0505    54365   18300      0    1.87e+00    0    1.32e+00
2007 09 22  0510    54365   18600      0    1.89e+00    0    1.32e+00
2007 09 22  0515    54365   18900      0    1.92e+00    0    1.34e+00
2007 09 22  0520    54365   19200      0    1.89e+00    0    1.33e+00
2007 09 22  0525    54365   19500      0    1.90e+00    0    1.34e+00
2007 09 22  0530    54365   19800      0    1.90e+00    0    1.33e+00
2007 09 22  0535    54365   20100      0    1.91e+00    0    1.34e+00
2007 09 22  0540    54365   20400      0    1.86e+00    0    1.31e+00
2007 09 22  0545    54365   20700      0    1.86e+00    0    1.29e+00
2007 09 22  0550    54365   21000      0    1.89e+00    0    1.32e+00
2007 09 22  0555    54365   21300      0    1.89e+00    0    1.32e+00
2007 09 22  0600    54365   21600      0    1.93e+00    0    1.36e+00
2007 09 22  0605    54365   21900      0    1.89e+00    0    1.33e+00
2007 09 22  0610    54365   22200      0    1.88e+00    0    1.33e+00
2007 09 22  0615    54365   22500      0    1.86e+00    0    1.29e+00
2007 09 22  0620    54365   22800      0    1.90e+00    0    1.34e+00
2007 09 22  0625    54365   23100      0    1.89e+00    0    1.33e+00
2007 09 22  0630    54365   23400      0    1.93e+00    0    1.35e+00
2007 09 22  0635    54365   23700      0    1.91e+00    0    1.33e+00
2007 09 22  0640    54365   24000      0    1.89e+00    0    1.33e+00
2007 09 22  0645    54365   24300      0    1.91e+00    0    1.35e+00
2007 09 22  0650    54365   24600      0    1.86e+00    0    1.30e+00
2007 09 22  0655    54365   24900      0    1.89e+00    0    1.32e+00
2007 09 22  0700    54365   25200      0    1.93e+00    0    1.35e+00
2007 09 22  0705    54365   25500      0    1.90e+00    0    1.32e+00
2007 09 22  0710    54365   25800      0    1.89e+00    0    1.32e+00
2007 09 22  0715    54365   26100      0    1.87e+00    0    1.31e+00
2007 09 22  0720    54365   26400      0    1.91e+00    0    1.33e+00
2007 09 22  0725    54365   26700      0    1.87e+00    0    1.28e+00
2007 09 22  0730    54365   27000      0    1.88e+00    0    1.31e+00
2007 09 22  0735    54365   27300      0    1.89e+00    0    1.31e+00
2007 09 22  0740    54365   27600      0    1.88e+00    0    1.30e+00
2007 09 22  0745    54365   27900      0    1.92e+00    0    1.36e+00
2007 09 22  0750    54365   28200      0    1.86e+00    0    1.30e+00
2007 09 22  0755    54365   28500      0    1.89e+00    0    1.34e+00
2007 09 22  0800    54365   28800      0    1.90e+00    0    1.33e+00
2007 09 22  0805    54365   29100      0    1.88e+00    0    1.33e+00
2007 09 22  0810    54365   29400      0    1.91e+00    0    1.33e+00
2007 09 22  0815    54365   29700      0    1.91e+00    0    1.34e+00
2007 09 22  0820    54365   30000      0    1.90e+00    0    1.33e+00
2007 09 22  0825    54365   30300      0    1.89e+00    0    1.33e+00
2007 09 22  0830    54365   30600      0    1.87e+00    0    1.32e+00
2007 09 22  0835    54365   30900      0    1.91e+00    0    1.34e+00
2007 09 22  0840    54365   31200      0    1.92e+00    0    1.34e+00
2007 09 22  0845    54365   31500      0    1.90e+00    0    1.34e+00
2007 09 22  0850    54365   31800      0    1.90e+00    0    1.34e+00
2007 09 22  0855    54365   32100      0    1.88e+00    0    1.30e+00
2007 09 22  0900    54365   32400      0    1.88e+00    0    1.32e+00
2007 09 22  0905    54365   32700      0    1.85e+00    0    1.31e+00
2007 09 22  0910    54365   33000      0    1.92e+00    0    1.34e+00
2007 09 22  0915    54365   33300      0    1.91e+00    0    1.34e+00
2007 09 22  0920    54365   33600      0    1.94e+00    0    1.36e+00
2007 09 22  0925    54365   33900      0    1.91e+00    0    1.34e+00
2007 09 22  0930    54365   34200      0    1.90e+00    0    1.34e+00
2007 09 22  0935    54365   34500      0    1.89e+00    0    1.33e+00
2007 09 22  0940    54365   34800      0    1.95e+00    0    1.36e+00
2007 09 22  0945    54365   35100      0    1.93e+00    0    1.34e+00
2007 09 22  0950    54365   35400      0    1.89e+00    0    1.33e+00
2007 09 22  0955    54365   35700      0    1.93e+00    0    1.36e+00
2007 09 22  1000    54365   36000      0    1.88e+00    0    1.32e+00
2007 09 22  1005    54365   36300      0    1.84e+00    0    1.28e+00
2007 09 22  1010    54365   36600      0    1.89e+00    0    1.32e+00
2007 09 22  1015    54365   36900      0    1.91e+00    0    1.33e+00
2007 09 22  1020    54365   37200      0    1.87e+00    0    1.31e+00
2007 09 22  1025    54365   37500      0    1.91e+00    0    1.34e+00
2007 09 22  1030    54365   37800      0    1.93e+00    0    1.33e+00
2007 09 22  1035    54365   38100      0    1.90e+00    0    1.34e+00
2007 09 22  1040    54365   38400      0    1.88e+00    0    1.30e+00
2007 09 22  1045    54365   38700      0    1.90e+00    0    1.32e+00
2007 09 22  1050    54365   39000      0    1.88e+00    0    1.30e+00
2007 09 22  1055    54365   39300      0    1.93e+00    0    1.35e+00
2007 09 22  1100    54365   39600      0    1.89e+00    0    1.32e+00
2007 09 22  1105    54365   39900      0    1.89e+00    0    1.32e+00
2007 09 22  1110    54365   40200      0    1.90e+00    0    1.32e+00
2007 09 22  1115    54365   40500      0    1.85e+00    0    1.29e+00
2007 09 22  1120    54365   40800      0    1.92e+00    0    1.34e+00
2007 09 22  1125    54365   41100      0    1.92e+00    0    1.35e+00
2007 09 22  1130    54365   41400      0    1.87e+00    0    1.32e+00
2007 09 22  1135    54365   41700      0    1.88e+00    0    1.32e+00
2007 09 22  1140    54365   42000      0    1.85e+00    0    1.29e+00
2007 09 22  1145    54365   42300      0    1.88e+00    0    1.32e+00
2007 09 22  1150    54365   42600      0    1.93e+00    0    1.35e+00
2007 09 22  1155    54365   42900      0    1.90e+00    0    1.34e+00
2007 09 22  1200    54365   43200      0    1.92e+00    0    1.34e+00
2007 09 22  1205    54365   43500      0    1.89e+00    0    1.31e+00
2007 09 22  1210    54365   43800      0    1.90e+00    0    1.34e+00
2007 09 22  1215    54365   44100      0    1.89e+00    0    1.32e+00
2007 09 22  1220    54365   44400      0    1.90e+00    0    1.33e+00
2007 09 22  1225    54365   44700      0    1.88e+00    0    1.32e+00
2007 09 22  1230    54365   45000      0    1.87e+00    0    1.30e+00
2007 09 22  1235    54365   45300      0    1.86e+00    0    1.30e+00
2007 09 22  1240    54365   45600      0    1.89e+00    0    1.31e+00
2007 09 22  1245    54365   45900      0    1.87e+00    0    1.31e+00
2007 09 22  1250    54365   46200      0    1.90e+00    0    1.34e+00
2007 09 22  1255    54365   46500      0    1.88e+00    0    1.31e+00
2007 09 22  1300    54365   46800      0    1.79e+00    0    1.24e+00
2007 09 22  1305    54365   47100      0    1.90e+00    0    1.32e+00
2007 09 22  1310    54365   47400      0    1.95e+00    0    1.36e+00
2007 09 22  1315    54365   47700      0    1.90e+00    0    1.33e+00
2007 09 22  1320    54365   48000      0    1.93e+00    0    1.35e+00
2007 09 22  1325    54365   48300      0    1.91e+00    0    1.35e+00
2007 09 22  1330    54365   48600      0    1.87e+00    0    1.31e+00
2007 09 22  1335    54365   48900      0    1.88e+00    0    1.30e+00
2007 09 22  1340    54365   49200      0    1.92e+00    0    1.35e+00
2007 09 22  1345    54365   49500      0    1.97e+00    0    1.39e+00
2007 09 22  1350    54365   49800      0    1.90e+00    0    1.33e+00
2007 09 22  1355    54365   50100      0    1.92e+00    0    1.35e+00
2007 09 22  1400    54365   50400      0    1.94e+00    0    1.36e+00
2007 09 22  1405    54365   50700      0    1.91e+00    0    1.33e+00
2007 09 22  1410    54365   51000      0    1.89e+00    0    1.34e+00
2007 09 22  1415    54365   51300      0    1.86e+00    0    1.32e+00
2007 09 22  1420    54365   51600      0    1.88e+00    0    1.32e+00
2007 09 22  1425    54365   51900      0    1.92e+00    0    1.35e+00
2007 09 22  1430    54365   52200      0    1.88e+00    0    1.33e+00
2007 09 22  1435    54365   52500      0    1.89e+00    0    1.33e+00
2007 09 22  1440    54365   52800      0    1.91e+00    0    1.35e+00
2007 09 22  1445    54365   53100      0    1.94e+00    0    1.34e+00
2007 09 22  1450    54365   53400      0    1.92e+00    0    1.35e+00
2007 09 22  1455    54365   53700      0    1.89e+00    0    1.32e+00
2007 09 22  1500    54365   54000      0    1.89e+00    0    1.33e+00
2007 09 22  1505    54365   54300      0    1.92e+00    0    1.35e+00
2007 09 22  1510    54365   54600      0    1.89e+00    0    1.33e+00
2007 09 22  1515    54365   54900      0    1.89e+00    0    1.31e+00
2007 09 22  1520    54365   55200      0    1.91e+00    0    1.33e+00
2007 09 22  1525    54365   55500      0    1.89e+00    0    1.33e+00
2007 09 22  1530    54365   55800      0    1.88e+00    0    1.31e+00
2007 09 22  1535    54365   56100      0    1.92e+00    0    1.34e+00
2007 09 22  1540    54365   56400      0    1.88e+00    0    1.32e+00
2007 09 22  1545    54365   56700      0    1.90e+00    0    1.33e+00
2007 09 22  1550    54365   57000      0    1.90e+00    0    1.33e+00
2007 09 22  1555    54365   57300      0    1.90e+00    0    1.34e+00
2007 09 22  1600    54365   57600      0    1.93e+00    0    1.35e+00
2007 09 22  1605    54365   57900      0    1.89e+00    0    1.33e+00
2007 09 22  1610    54365   58200      0    1.93e+00    0    1.36e+00
2007 09 22  1615    54365   58500      0    1.89e+00    0    1.33e+00
2007 09 22  1620    54365   58800      0    1.89e+00    0    1.33e+00
2007 09 22  1625    54365   59100      0    1.89e+00    0    1.31e+00
2007 09 22  1630    54365   59400      0    1.88e+00    0    1.33e+00
2007 09 22  1635    54365   59700      0    1.91e+00    0    1.34e+00
2007 09 22  1640    54365   60000      0    1.91e+00    0    1.33e+00
2007 09 22  1645    54365   60300      0    1.92e+00    0    1.35e+00
2007 09 22  1650    54365   60600      0    1.92e+00    0    1.35e+00
2007 09 22  1655    54365   60900      0    1.87e+00    0    1.32e+00
2007 09 22  1700    54365   61200      0    1.92e+00    0    1.35e+00
2007 09 22  1705    54365   61500      0    1.91e+00    0    1.34e+00
2007 09 22  1710    54365   61800      0    1.93e+00    0    1.35e+00
2007 09 22  1715    54365   62100      0    1.90e+00    0    1.34e+00
2007 09 22  1720    54365   62400      0    1.94e+00    0    1.38e+00
2007 09 22  1725    54365   62700      0    1.91e+00    0    1.34e+00
2007 09 22  1730    54365   63000      0    1.90e+00    0    1.33e+00
2007 09 22  1735    54365   63300      0    1.90e+00    0    1.33e+00
2007 09 22  1740    54365   63600      0    1.88e+00    0    1.32e+00
2007 09 22  1745    54365   63900      0    1.87e+00    0    1.31e+00
2007 09 22  1750    54365   64200      0    1.87e+00    0    1.32e+00
2007 09 22  1755    54365   64500      0    1.91e+00    0    1.34e+00
2007 09 22  1800    54365   64800      0    1.91e+00    0    1.34e+00
2007 09 22  1805    54365   65100      0    1.89e+00    0    1.34e+00
2007 09 22  1810    54365   65400      0    1.87e+00    0    1.31e+00
2007 09 22  1815    54365   65700      0    1.90e+00    0    1.33e+00
2007 09 22  1820    54365   66000      0    1.88e+00    0    1.33e+00
2007 09 22  1825    54365   66300      0    1.91e+00    0    1.34e+00
2007 09 22  1830    54365   66600      0    1.90e+00    0    1.34e+00
2007 09 22  1835    54365   66900      0    1.87e+00    0    1.31e+00
2007 09 22  1840    54365   67200      0    1.93e+00    0    1.34e+00
2007 09 22  1845    54365   67500      0    1.93e+00    0    1.34e+00
2007 09 22  1850    54365   67800      0    1.92e+00    0    1.33e+00
2007 09 22  1855    54365   68100      0    1.93e+00    0    1.35e+00
2007 09 22  1900    54365   68400      0    1.92e+00    0    1.32e+00
2007 09 22  1905    54365   68700      0    1.89e+00    0    1.33e+00
2007 09 22  1910    54365   69000      0    1.88e+00    0    1.32e+00
2007 09 22  1915    54365   69300      0    1.91e+00    0    1.34e+00
2007 09 22  1920    54365   69600      0    1.87e+00    0    1.32e+00
2007 09 22  1925    54365   69900      0    1.90e+00    0    1.34e+00
2007 09 22  1930    54365   70200      0    1.88e+00    0    1.32e+00
2007 09 22  1935    54365   70500      0    1.91e+00    0    1.34e+00
2007 09 22  1940    54365   70800      0    1.88e+00    0    1.31e+00
2007 09 22  1945    54365   71100      0    1.88e+00    0    1.33e+00
2007 09 22  1950    54365   71400      0    1.85e+00    0    1.29e+00
2007 09 22  1955    54365   71700      0    1.92e+00    0    1.36e+00
2007 09 22  2000    54365   72000      0    1.90e+00    0    1.33e+00
2007 09 22  2005    54365   72300      0    1.89e+00    0    1.32e+00
2007 09 22  2010    54365   72600      0    1.94e+00    0    1.36e+00
2007 09 22  2015    54365   72900      0    1.89e+00    0    1.31e+00
2007 09 22  2020    54365   73200      0    1.94e+00    0    1.36e+00
2007 09 22  2025    54365   73500      0    1.92e+00    0    1.34e+00
2007 09 22  2030    54365   73800      0    1.90e+00    0    1.32e+00
2007 09 22  2035    54365   74100      0    1.90e+00    0    1.33e+00
2007 09 22  2040    54365   74400      0    1.94e+00    0    1.36e+00
2007 09 22  2045    54365   74700      0    1.93e+00    0    1.35e+00
2007 09 22  2050    54365   75000      0    1.89e+00    0    1.33e+00
2007 09 22  2055    54365   75300      0    1.90e+00    0    1.32e+00
2007 09 22  2100    54365   75600      0    1.89e+00    0    1.31e+00
2007 09 22  2105    54365   75900      0    1.87e+00    0    1.32e+00
2007 09 22  2110    54365   76200      0    1.93e+00    0    1.36e+00
2007 09 22  2115    54365   76500      0    1.94e+00    0    1.36e+00
2007 09 22  2120    54365   76800      0    1.90e+00    0    1.32e+00
2007 09 22  2125    54365   77100      0    1.88e+00    0    1.31e+00
2007 09 22  2130    54365   77400      0    1.78e+00    0    1.25e+00
2007 09 22  2135    54365   77700      0    1.88e+00    0    1.32e+00
2007 09 22  2140    54365   78000      0    1.90e+00    0    1.34e+00
2007 09 22  2145    54365   78300      0    1.94e+00    0    1.35e+00
2007 09 22  2150    54365   78600      0    1.89e+00    0    1.32e+00
2007 09 22  2155    54365   78900      0    1.94e+00    0    1.36e+00
2007 09 22  2200    54365   79200      0    1.91e+00    0    1.34e+00
2007 09 22  2205    54365   79500      0    1.89e+00    0    1.31e+00
2007 09 22  2210    54365   79800      0    1.85e+00    0    1.30e+00
2007 09 22  2215    54365   80100      0    1.88e+00    0    1.31e+00
2007 09 22  2220    54365   80400      0    1.93e+00    0    1.35e+00
2007 09 22  2225    54365   80700      0    1.91e+00    0    1.34e+00
2007 09 22  2230    54365   81000      0    1.91e+00    0    1.34e+00
2007 09 22  2235    54365   81300      0    1.89e+00    0    1.30e+00
2007 09 22  2240    54365   81600      0    1.87e+00    0    1.31e+00
2007 09 22  2245    54365   81900      0    1.86e+00    0    1.29e+00
2007 09 22  2250    54365   82200      0    1.87e+00    0    1.33e+00
2007 09 22  2255    54365   82500      0    1.87e+00    0    1.31e+00
2007 09 22  2300    54365   82800      0    1.91e+00    0    1.34e+00
2007 09 22  2305    54365   83100      0    1.90e+00    0    1.34e+00
2007 09 22  2310    54365   83400      0    1.90e+00    0    1.33e+00
2007 09 22  2315    54365   83700      0    1.87e+00    0    1.30e+00
2007 09 22  2320    54365   84000      0    1.88e+00    0    1.31e+00
2007 09 22  2325    54365   84300      0    1.90e+00    0    1.31e+00
2007 09 22  2330    54365   84600      0    1.87e+00    0    1.31e+00
2007 09 22  2335    54365   84900      0    1.86e+00    0    1.31e+00
2007 09 22  2340    54365   85200      0    1.89e+00    0    1.32e+00
2007 09 22  2345    54365   85500      0    1.88e+00    0    1.30e+00
2007 09 22  2350    54365   85800      0    1.85e+00    0    1.29e+00
2007 09 22  2355    54365   86100      0    1.86e+00    0    1.28e+00
