:Data_list: 20070227_ace_sis_5m.txt
:Created: 2007 Feb 28 0011 UT
# Prepared by the U.S. Dept. of Commerce, NOAA, Space Environment Center.
# Please send comments and suggestions to SEC.Webmaster@noaa.gov 
# 
# Units: proton flux p/cs2-sec-ster
# Status(S): 0 = nominal data, 1 to 8 = bad data record, 9 = no data
# Missing data values: -1.00e+05
# Source: ACE Satellite - Solar Isotope Spectrometer
#
# 5-minute averaged Real-time Integral Flux of High-energy Solar Protons
# 
#                 Modified Seconds
# UT Date   Time   Julian  of the      ---- Integral Proton Flux ----
# YR MO DA  HHMM     Day     Day       S    > 10 MeV    S    > 30 MeV
#--------------------------------------------------------------------
2007 02 27  0000    54158       0      0    1.75e+00    0    1.22e+00
2007 02 27  0005    54158     300      0    1.75e+00    0    1.22e+00
2007 02 27  0010    54158     600      0    1.73e+00    0    1.22e+00
2007 02 27  0015    54158     900      0    1.77e+00    0    1.24e+00
2007 02 27  0020    54158    1200      0    1.77e+00    0    1.24e+00
2007 02 27  0025    54158    1500      0    1.74e+00    0    1.22e+00
2007 02 27  0030    54158    1800      0    1.76e+00    0    1.23e+00
2007 02 27  0035    54158    2100      0    1.76e+00    0    1.22e+00
2007 02 27  0040    54158    2400      0    1.75e+00    0    1.23e+00
2007 02 27  0045    54158    2700      0    1.72e+00    0    1.21e+00
2007 02 27  0050    54158    3000      0    1.71e+00    0    1.20e+00
2007 02 27  0055    54158    3300      0    1.74e+00    0    1.21e+00
2007 02 27  0100    54158    3600      0    1.72e+00    0    1.21e+00
2007 02 27  0105    54158    3900      0    1.72e+00    0    1.20e+00
2007 02 27  0110    54158    4200      0    1.73e+00    0    1.21e+00
2007 02 27  0115    54158    4500      0    1.71e+00    0    1.20e+00
2007 02 27  0120    54158    4800      0    1.71e+00    0    1.19e+00
2007 02 27  0125    54158    5100      0    1.74e+00    0    1.23e+00
2007 02 27  0130    54158    5400      0    1.74e+00    0    1.22e+00
2007 02 27  0135    54158    5700      0    1.70e+00    0    1.19e+00
2007 02 27  0140    54158    6000      0    1.74e+00    0    1.21e+00
2007 02 27  0145    54158    6300      0    1.78e+00    0    1.25e+00
2007 02 27  0150    54158    6600      0    1.74e+00    0    1.21e+00
2007 02 27  0155    54158    6900      0    1.75e+00    0    1.23e+00
2007 02 27  0200    54158    7200      0    1.72e+00    0    1.21e+00
2007 02 27  0205    54158    7500      0    1.73e+00    0    1.22e+00
2007 02 27  0210    54158    7800      0    1.71e+00    0    1.21e+00
2007 02 27  0215    54158    8100      0    1.74e+00    0    1.23e+00
2007 02 27  0220    54158    8400      0    1.73e+00    0    1.22e+00
2007 02 27  0225    54158    8700      0    1.72e+00    0    1.20e+00
2007 02 27  0230    54158    9000      0    1.75e+00    0    1.22e+00
2007 02 27  0235    54158    9300      0    1.76e+00    0    1.24e+00
2007 02 27  0240    54158    9600      0    1.71e+00    0    1.19e+00
2007 02 27  0245    54158    9900      0    1.77e+00    0    1.24e+00
2007 02 27  0250    54158   10200      0    1.74e+00    0    1.23e+00
2007 02 27  0255    54158   10500      0    1.71e+00    0    1.20e+00
2007 02 27  0300    54158   10800      0    1.73e+00    0    1.21e+00
2007 02 27  0305    54158   11100      0    1.71e+00    0    1.19e+00
2007 02 27  0310    54158   11400      0    1.78e+00    0    1.25e+00
2007 02 27  0315    54158   11700      0    1.74e+00    0    1.22e+00
2007 02 27  0320    54158   12000      0    1.72e+00    0    1.19e+00
2007 02 27  0325    54158   12300      0    1.75e+00    0    1.23e+00
2007 02 27  0330    54158   12600      0    1.77e+00    0    1.23e+00
2007 02 27  0335    54158   12900      0    1.76e+00    0    1.23e+00
2007 02 27  0340    54158   13200      0    1.74e+00    0    1.22e+00
2007 02 27  0345    54158   13500      0    1.74e+00    0    1.23e+00
2007 02 27  0350    54158   13800      0    1.74e+00    0    1.22e+00
2007 02 27  0355    54158   14100      0    1.72e+00    0    1.20e+00
2007 02 27  0400    54158   14400      0    1.76e+00    0    1.24e+00
2007 02 27  0405    54158   14700      0    1.70e+00    0    1.19e+00
2007 02 27  0410    54158   15000      0    1.72e+00    0    1.19e+00
2007 02 27  0415    54158   15300      0    1.74e+00    0    1.22e+00
2007 02 27  0420    54158   15600      0    1.74e+00    0    1.22e+00
2007 02 27  0425    54158   15900      0    1.73e+00    0    1.22e+00
2007 02 27  0430    54158   16200      0    1.72e+00    0    1.21e+00
2007 02 27  0435    54158   16500      0    1.74e+00    0    1.22e+00
2007 02 27  0440    54158   16800      0    1.72e+00    0    1.19e+00
2007 02 27  0445    54158   17100      0    1.71e+00    0    1.20e+00
2007 02 27  0450    54158   17400      0    1.75e+00    0    1.22e+00
2007 02 27  0455    54158   17700      0    1.69e+00    0    1.17e+00
2007 02 27  0500    54158   18000      0    1.75e+00    0    1.23e+00
2007 02 27  0505    54158   18300      0    1.74e+00    0    1.22e+00
2007 02 27  0510    54158   18600      0    1.72e+00    0    1.20e+00
2007 02 27  0515    54158   18900      0    1.76e+00    0    1.24e+00
2007 02 27  0520    54158   19200      0    1.72e+00    0    1.22e+00
2007 02 27  0525    54158   19500      0    1.72e+00    0    1.20e+00
2007 02 27  0530    54158   19800      0    1.71e+00    0    1.19e+00
2007 02 27  0535    54158   20100      0    1.77e+00    0    1.23e+00
2007 02 27  0540    54158   20400      0    1.74e+00    0    1.21e+00
2007 02 27  0545    54158   20700      0    1.73e+00    0    1.21e+00
2007 02 27  0550    54158   21000      0    1.76e+00    0    1.25e+00
2007 02 27  0555    54158   21300      0    1.75e+00    0    1.23e+00
2007 02 27  0600    54158   21600      0    1.71e+00    0    1.19e+00
2007 02 27  0605    54158   21900      0    1.71e+00    0    1.20e+00
2007 02 27  0610    54158   22200      0    1.71e+00    0    1.20e+00
2007 02 27  0615    54158   22500      0    1.73e+00    0    1.22e+00
2007 02 27  0620    54158   22800      0    1.72e+00    0    1.21e+00
2007 02 27  0625    54158   23100      0    1.69e+00    0    1.18e+00
2007 02 27  0630    54158   23400      0    1.75e+00    0    1.22e+00
2007 02 27  0635    54158   23700      0    1.71e+00    0    1.21e+00
2007 02 27  0640    54158   24000      0    1.73e+00    0    1.21e+00
2007 02 27  0645    54158   24300      0    1.74e+00    0    1.23e+00
2007 02 27  0650    54158   24600      0    1.68e+00    0    1.19e+00
2007 02 27  0655    54158   24900      0    1.73e+00    0    1.21e+00
2007 02 27  0700    54158   25200      0    1.69e+00    0    1.20e+00
2007 02 27  0705    54158   25500      0    1.76e+00    0    1.24e+00
2007 02 27  0710    54158   25800      0    1.71e+00    0    1.19e+00
2007 02 27  0715    54158   26100      0    1.74e+00    0    1.22e+00
2007 02 27  0720    54158   26400      9   -1.00e+05    9   -1.00e+05
2007 02 27  0725    54158   26700      0    1.80e+00    0    1.26e+00
2007 02 27  0730    54158   27000      0    1.70e+00    0    1.20e+00
2007 02 27  0735    54158   27300      0    1.70e+00    0    1.18e+00
2007 02 27  0740    54158   27600      0    1.76e+00    0    1.22e+00
2007 02 27  0745    54158   27900      0    1.73e+00    0    1.21e+00
2007 02 27  0750    54158   28200      0    1.70e+00    0    1.19e+00
2007 02 27  0755    54158   28500      0    1.74e+00    0    1.22e+00
2007 02 27  0800    54158   28800      0    1.76e+00    0    1.24e+00
2007 02 27  0805    54158   29100      0    1.72e+00    0    1.21e+00
2007 02 27  0810    54158   29400      0    1.70e+00    0    1.19e+00
2007 02 27  0815    54158   29700      0    1.75e+00    0    1.23e+00
2007 02 27  0820    54158   30000      0    1.74e+00    0    1.21e+00
2007 02 27  0825    54158   30300      0    1.72e+00    0    1.19e+00
2007 02 27  0830    54158   30600      0    1.71e+00    0    1.19e+00
2007 02 27  0835    54158   30900      0    1.72e+00    0    1.21e+00
2007 02 27  0840    54158   31200      0    1.75e+00    0    1.22e+00
2007 02 27  0845    54158   31500      0    1.72e+00    0    1.20e+00
2007 02 27  0850    54158   31800      0    1.72e+00    0    1.19e+00
2007 02 27  0855    54158   32100      0    1.70e+00    0    1.19e+00
2007 02 27  0900    54158   32400      0    1.75e+00    0    1.23e+00
2007 02 27  0905    54158   32700      0    1.73e+00    0    1.22e+00
2007 02 27  0910    54158   33000      0    1.80e+00    0    1.25e+00
2007 02 27  0915    54158   33300      0    1.74e+00    0    1.23e+00
2007 02 27  0920    54158   33600      0    1.77e+00    0    1.24e+00
2007 02 27  0925    54158   33900      0    1.76e+00    0    1.24e+00
2007 02 27  0930    54158   34200      0    1.69e+00    0    1.20e+00
2007 02 27  0935    54158   34500      0    1.75e+00    0    1.22e+00
2007 02 27  0940    54158   34800      0    1.66e+00    0    1.16e+00
2007 02 27  0945    54158   35100      0    1.89e+00    0    1.35e+00
2007 02 27  0950    54158   35400      0    1.71e+00    0    1.19e+00
2007 02 27  0955    54158   35700      0    1.71e+00    0    1.20e+00
2007 02 27  1000    54158   36000      0    1.72e+00    0    1.21e+00
2007 02 27  1005    54158   36300      0    1.75e+00    0    1.22e+00
2007 02 27  1010    54158   36600      0    1.69e+00    0    1.19e+00
2007 02 27  1015    54158   36900      0    1.73e+00    0    1.21e+00
2007 02 27  1020    54158   37200      0    1.73e+00    0    1.21e+00
2007 02 27  1025    54158   37500      0    1.77e+00    0    1.25e+00
2007 02 27  1030    54158   37800      0    1.74e+00    0    1.20e+00
2007 02 27  1035    54158   38100      0    1.71e+00    0    1.20e+00
2007 02 27  1040    54158   38400      0    1.76e+00    0    1.24e+00
2007 02 27  1045    54158   38700      0    1.76e+00    0    1.24e+00
2007 02 27  1050    54158   39000      0    1.75e+00    0    1.23e+00
2007 02 27  1055    54158   39300      0    1.70e+00    0    1.19e+00
2007 02 27  1100    54158   39600      0    1.71e+00    0    1.19e+00
2007 02 27  1105    54158   39900      0    1.73e+00    0    1.21e+00
2007 02 27  1110    54158   40200      0    1.69e+00    0    1.18e+00
2007 02 27  1115    54158   40500      0    1.71e+00    0    1.20e+00
2007 02 27  1120    54158   40800      0    1.70e+00    0    1.19e+00
2007 02 27  1125    54158   41100      0    1.72e+00    0    1.20e+00
2007 02 27  1130    54158   41400      0    1.70e+00    0    1.20e+00
2007 02 27  1135    54158   41700      0    1.75e+00    0    1.22e+00
2007 02 27  1140    54158   42000      0    1.74e+00    0    1.22e+00
2007 02 27  1145    54158   42300      0    1.74e+00    0    1.22e+00
2007 02 27  1150    54158   42600      0    1.73e+00    0    1.21e+00
2007 02 27  1155    54158   42900      0    1.68e+00    0    1.17e+00
2007 02 27  1200    54158   43200      0    1.76e+00    0    1.23e+00
2007 02 27  1205    54158   43500      0    1.74e+00    0    1.22e+00
2007 02 27  1210    54158   43800      0    1.74e+00    0    1.22e+00
2007 02 27  1215    54158   44100      0    1.75e+00    0    1.22e+00
2007 02 27  1220    54158   44400      0    1.74e+00    0    1.22e+00
2007 02 27  1225    54158   44700      0    1.71e+00    0    1.20e+00
2007 02 27  1230    54158   45000      0    1.71e+00    0    1.20e+00
2007 02 27  1235    54158   45300      0    1.69e+00    0    1.19e+00
2007 02 27  1240    54158   45600      0    1.72e+00    0    1.21e+00
2007 02 27  1245    54158   45900      0    1.72e+00    0    1.21e+00
2007 02 27  1250    54158   46200      0    1.72e+00    0    1.20e+00
2007 02 27  1255    54158   46500      0    1.71e+00    0    1.19e+00
2007 02 27  1300    54158   46800      0    1.72e+00    0    1.20e+00
2007 02 27  1305    54158   47100      0    1.69e+00    0    1.18e+00
2007 02 27  1310    54158   47400      0    1.71e+00    0    1.19e+00
2007 02 27  1315    54158   47700      0    1.71e+00    0    1.20e+00
2007 02 27  1320    54158   48000      0    1.78e+00    0    1.26e+00
2007 02 27  1325    54158   48300      0    1.74e+00    0    1.21e+00
2007 02 27  1330    54158   48600      0    1.74e+00    0    1.23e+00
2007 02 27  1335    54158   48900      0    1.77e+00    0    1.23e+00
2007 02 27  1340    54158   49200      0    1.70e+00    0    1.19e+00
2007 02 27  1345    54158   49500      0    1.72e+00    0    1.20e+00
2007 02 27  1350    54158   49800      0    1.70e+00    0    1.19e+00
2007 02 27  1355    54158   50100      0    1.73e+00    0    1.22e+00
2007 02 27  1400    54158   50400      0    1.79e+00    0    1.25e+00
2007 02 27  1405    54158   50700      0    1.73e+00    0    1.20e+00
2007 02 27  1410    54158   51000      0    1.78e+00    0    1.24e+00
2007 02 27  1415    54158   51300      0    1.74e+00    0    1.22e+00
2007 02 27  1420    54158   51600      0    1.74e+00    0    1.24e+00
2007 02 27  1425    54158   51900      0    1.73e+00    0    1.22e+00
2007 02 27  1430    54158   52200      0    1.72e+00    0    1.22e+00
2007 02 27  1435    54158   52500      0    1.75e+00    0    1.23e+00
2007 02 27  1440    54158   52800      0    1.74e+00    0    1.22e+00
2007 02 27  1445    54158   53100      0    1.70e+00    0    1.20e+00
2007 02 27  1450    54158   53400      0    1.71e+00    0    1.19e+00
2007 02 27  1455    54158   53700      0    1.70e+00    0    1.19e+00
2007 02 27  1500    54158   54000      0    1.68e+00    0    1.17e+00
2007 02 27  1505    54158   54300      0    1.70e+00    0    1.17e+00
2007 02 27  1510    54158   54600      0    1.72e+00    0    1.19e+00
2007 02 27  1515    54158   54900      0    1.72e+00    0    1.20e+00
2007 02 27  1520    54158   55200      0    1.74e+00    0    1.22e+00
2007 02 27  1525    54158   55500      0    1.77e+00    0    1.25e+00
2007 02 27  1530    54158   55800      0    1.73e+00    0    1.23e+00
2007 02 27  1535    54158   56100      0    1.74e+00    0    1.21e+00
2007 02 27  1540    54158   56400      0    1.73e+00    0    1.22e+00
2007 02 27  1545    54158   56700      0    1.71e+00    0    1.20e+00
2007 02 27  1550    54158   57000      0    1.73e+00    0    1.21e+00
2007 02 27  1555    54158   57300      0    1.72e+00    0    1.20e+00
2007 02 27  1600    54158   57600      0    1.76e+00    0    1.23e+00
2007 02 27  1605    54158   57900      0    1.73e+00    0    1.22e+00
2007 02 27  1610    54158   58200      0    1.71e+00    0    1.19e+00
2007 02 27  1615    54158   58500      0    1.70e+00    0    1.18e+00
2007 02 27  1620    54158   58800      0    1.76e+00    0    1.24e+00
2007 02 27  1625    54158   59100      0    1.73e+00    0    1.21e+00
2007 02 27  1630    54158   59400      0    1.75e+00    0    1.24e+00
2007 02 27  1635    54158   59700      0    1.73e+00    0    1.21e+00
2007 02 27  1640    54158   60000      0    1.68e+00    0    1.19e+00
2007 02 27  1645    54158   60300      0    1.75e+00    0    1.22e+00
2007 02 27  1650    54158   60600      0    1.70e+00    0    1.19e+00
2007 02 27  1655    54158   60900      0    1.71e+00    0    1.20e+00
2007 02 27  1700    54158   61200      0    1.71e+00    0    1.20e+00
2007 02 27  1705    54158   61500      0    1.74e+00    0    1.21e+00
2007 02 27  1710    54158   61800      0    1.73e+00    0    1.22e+00
2007 02 27  1715    54158   62100      0    1.65e+00    0    1.15e+00
2007 02 27  1720    54158   62400      0    1.72e+00    0    1.20e+00
2007 02 27  1725    54158   62700      0    1.69e+00    0    1.19e+00
2007 02 27  1730    54158   63000      0    1.74e+00    0    1.21e+00
2007 02 27  1735    54158   63300      0    1.71e+00    0    1.20e+00
2007 02 27  1740    54158   63600      0    1.71e+00    0    1.19e+00
2007 02 27  1745    54158   63900      0    1.73e+00    0    1.22e+00
2007 02 27  1750    54158   64200      0    1.76e+00    0    1.24e+00
2007 02 27  1755    54158   64500      0    1.80e+00    0    1.26e+00
2007 02 27  1800    54158   64800      0    1.72e+00    0    1.21e+00
2007 02 27  1805    54158   65100      0    1.78e+00    0    1.25e+00
2007 02 27  1810    54158   65400      0    1.74e+00    0    1.23e+00
2007 02 27  1815    54158   65700      0    1.73e+00    0    1.22e+00
2007 02 27  1820    54158   66000      0    1.70e+00    0    1.19e+00
2007 02 27  1825    54158   66300      0    1.75e+00    0    1.24e+00
2007 02 27  1830    54158   66600      0    1.77e+00    0    1.24e+00
2007 02 27  1835    54158   66900      0    1.76e+00    0    1.24e+00
2007 02 27  1840    54158   67200      0    1.73e+00    0    1.23e+00
2007 02 27  1845    54158   67500      0    1.71e+00    0    1.19e+00
2007 02 27  1850    54158   67800      0    1.70e+00    0    1.18e+00
2007 02 27  1855    54158   68100      0    1.69e+00    0    1.18e+00
2007 02 27  1900    54158   68400      0    1.75e+00    0    1.22e+00
2007 02 27  1905    54158   68700      0    1.73e+00    0    1.21e+00
2007 02 27  1910    54158   69000      0    1.71e+00    0    1.18e+00
2007 02 27  1915    54158   69300      0    1.70e+00    0    1.18e+00
2007 02 27  1920    54158   69600      0    1.72e+00    0    1.20e+00
2007 02 27  1925    54158   69900      0    1.70e+00    0    1.19e+00
2007 02 27  1930    54158   70200      0    1.71e+00    0    1.20e+00
2007 02 27  1935    54158   70500      0    1.70e+00    0    1.20e+00
2007 02 27  1940    54158   70800      0    1.73e+00    0    1.20e+00
2007 02 27  1945    54158   71100      0    1.73e+00    0    1.22e+00
2007 02 27  1950    54158   71400      0    1.71e+00    0    1.21e+00
2007 02 27  1955    54158   71700      0    1.70e+00    0    1.19e+00
2007 02 27  2000    54158   72000      0    1.67e+00    0    1.18e+00
2007 02 27  2005    54158   72300      0    1.75e+00    0    1.22e+00
2007 02 27  2010    54158   72600      0    1.72e+00    0    1.21e+00
2007 02 27  2015    54158   72900      0    1.74e+00    0    1.21e+00
2007 02 27  2020    54158   73200      0    1.70e+00    0    1.19e+00
2007 02 27  2025    54158   73500      0    1.72e+00    0    1.21e+00
2007 02 27  2030    54158   73800      0    1.69e+00    0    1.19e+00
2007 02 27  2035    54158   74100      0    1.67e+00    0    1.17e+00
2007 02 27  2040    54158   74400      0    1.62e+00    0    1.13e+00
2007 02 27  2045    54158   74700      0    1.75e+00    0    1.21e+00
2007 02 27  2050    54158   75000      0    1.72e+00    0    1.20e+00
2007 02 27  2055    54158   75300      0    1.68e+00    0    1.17e+00
2007 02 27  2100    54158   75600      0    1.69e+00    0    1.19e+00
2007 02 27  2105    54158   75900      0    1.74e+00    0    1.21e+00
2007 02 27  2110    54158   76200      0    1.69e+00    0    1.18e+00
2007 02 27  2115    54158   76500      0    1.69e+00    0    1.19e+00
2007 02 27  2120    54158   76800      0    1.74e+00    0    1.23e+00
2007 02 27  2125    54158   77100      0    1.72e+00    0    1.22e+00
2007 02 27  2130    54158   77400      0    1.73e+00    0    1.21e+00
2007 02 27  2135    54158   77700      0    1.75e+00    0    1.24e+00
2007 02 27  2140    54158   78000      0    1.74e+00    0    1.24e+00
2007 02 27  2145    54158   78300      0    1.71e+00    0    1.21e+00
2007 02 27  2150    54158   78600      0    1.72e+00    0    1.20e+00
2007 02 27  2155    54158   78900      0    1.70e+00    0    1.19e+00
2007 02 27  2200    54158   79200      0    1.69e+00    0    1.19e+00
2007 02 27  2205    54158   79500      0    1.67e+00    0    1.17e+00
2007 02 27  2210    54158   79800      0    1.67e+00    0    1.16e+00
2007 02 27  2215    54158   80100      0    1.68e+00    0    1.18e+00
2007 02 27  2220    54158   80400      0    1.70e+00    0    1.21e+00
2007 02 27  2225    54158   80700      0    1.70e+00    0    1.18e+00
2007 02 27  2230    54158   81000      0    1.71e+00    0    1.21e+00
2007 02 27  2235    54158   81300      0    1.71e+00    0    1.19e+00
2007 02 27  2240    54158   81600      0    1.69e+00    0    1.18e+00
2007 02 27  2245    54158   81900      0    1.67e+00    0    1.17e+00
2007 02 27  2250    54158   82200      0    1.68e+00    0    1.18e+00
2007 02 27  2255    54158   82500      0    1.73e+00    0    1.22e+00
2007 02 27  2300    54158   82800      0    1.72e+00    0    1.21e+00
2007 02 27  2305    54158   83100      0    1.75e+00    0    1.23e+00
2007 02 27  2310    54158   83400      0    1.73e+00    0    1.22e+00
2007 02 27  2315    54158   83700      0    1.66e+00    0    1.16e+00
2007 02 27  2320    54158   84000      0    1.70e+00    0    1.19e+00
2007 02 27  2325    54158   84300      0    1.71e+00    0    1.18e+00
2007 02 27  2330    54158   84600      0    1.74e+00    0    1.22e+00
2007 02 27  2335    54158   84900      0    1.73e+00    0    1.23e+00
2007 02 27  2340    54158   85200      0    1.70e+00    0    1.19e+00
2007 02 27  2345    54158   85500      0    1.72e+00    0    1.21e+00
2007 02 27  2350    54158   85800      0    1.74e+00    0    1.21e+00
2007 02 27  2355    54158   86100      0    1.73e+00    0    1.21e+00
