:Data_list: 20070810_ace_sis_5m.txt
:Created: 2007 Aug 11 0011 UT
# Prepared by the U.S. Dept. of Commerce, NOAA, Space Environment Center.
# Please send comments and suggestions to SEC.Webmaster@noaa.gov 
# 
# Units: proton flux p/cs2-sec-ster
# Status(S): 0 = nominal data, 1 to 8 = bad data record, 9 = no data
# Missing data values: -1.00e+05
# Source: ACE Satellite - Solar Isotope Spectrometer
#
# 5-minute averaged Real-time Integral Flux of High-energy Solar Protons
# 
#                 Modified Seconds
# UT Date   Time   Julian  of the      ---- Integral Proton Flux ----
# YR MO DA  HHMM     Day     Day       S    > 10 MeV    S    > 30 MeV
#--------------------------------------------------------------------
2007 08 10  0000    54322       0      0    1.90e+00    0    1.33e+00
2007 08 10  0005    54322     300      0    1.88e+00    0    1.32e+00
2007 08 10  0010    54322     600      0    1.89e+00    0    1.32e+00
2007 08 10  0015    54322     900      0    1.89e+00    0    1.32e+00
2007 08 10  0020    54322    1200      0    1.91e+00    0    1.33e+00
2007 08 10  0025    54322    1500      0    1.92e+00    0    1.35e+00
2007 08 10  0030    54322    1800      0    1.93e+00    0    1.34e+00
2007 08 10  0035    54322    2100      0    1.93e+00    0    1.35e+00
2007 08 10  0040    54322    2400      0    1.90e+00    0    1.33e+00
2007 08 10  0045    54322    2700      0    1.88e+00    0    1.30e+00
2007 08 10  0050    54322    3000      0    1.89e+00    0    1.31e+00
2007 08 10  0055    54322    3300      0    1.87e+00    0    1.30e+00
2007 08 10  0100    54322    3600      0    1.95e+00    0    1.37e+00
2007 08 10  0105    54322    3900      0    1.92e+00    0    1.35e+00
2007 08 10  0110    54322    4200      0    1.88e+00    0    1.30e+00
2007 08 10  0115    54322    4500      0    1.89e+00    0    1.33e+00
2007 08 10  0120    54322    4800      0    1.87e+00    0    1.31e+00
2007 08 10  0125    54322    5100      0    1.90e+00    0    1.33e+00
2007 08 10  0130    54322    5400      0    1.85e+00    0    1.29e+00
2007 08 10  0135    54322    5700      0    1.91e+00    0    1.34e+00
2007 08 10  0140    54322    6000      0    1.88e+00    0    1.32e+00
2007 08 10  0145    54322    6300      0    1.92e+00    0    1.34e+00
2007 08 10  0150    54322    6600      0    1.93e+00    0    1.35e+00
2007 08 10  0155    54322    6900      0    1.91e+00    0    1.34e+00
2007 08 10  0200    54322    7200      0    1.89e+00    0    1.32e+00
2007 08 10  0205    54322    7500      0    1.88e+00    0    1.32e+00
2007 08 10  0210    54322    7800      0    1.93e+00    0    1.35e+00
2007 08 10  0215    54322    8100      0    1.92e+00    0    1.34e+00
2007 08 10  0220    54322    8400      0    1.92e+00    0    1.34e+00
2007 08 10  0225    54322    8700      0    1.90e+00    0    1.33e+00
2007 08 10  0230    54322    9000      0    1.93e+00    0    1.36e+00
2007 08 10  0235    54322    9300      0    1.90e+00    0    1.34e+00
2007 08 10  0240    54322    9600      0    1.84e+00    0    1.28e+00
2007 08 10  0245    54322    9900      0    1.87e+00    0    1.31e+00
2007 08 10  0250    54322   10200      0    1.90e+00    0    1.32e+00
2007 08 10  0255    54322   10500      0    1.85e+00    0    1.30e+00
2007 08 10  0300    54322   10800      0    1.91e+00    0    1.32e+00
2007 08 10  0305    54322   11100      0    1.90e+00    0    1.33e+00
2007 08 10  0310    54322   11400      0    1.89e+00    0    1.33e+00
2007 08 10  0315    54322   11700      0    1.86e+00    0    1.30e+00
2007 08 10  0320    54322   12000      0    1.86e+00    0    1.30e+00
2007 08 10  0325    54322   12300      0    1.92e+00    0    1.33e+00
2007 08 10  0330    54322   12600      0    1.89e+00    0    1.32e+00
2007 08 10  0335    54322   12900      0    1.90e+00    0    1.33e+00
2007 08 10  0340    54322   13200      0    1.91e+00    0    1.34e+00
2007 08 10  0345    54322   13500      0    1.85e+00    0    1.30e+00
2007 08 10  0350    54322   13800      0    1.92e+00    0    1.34e+00
2007 08 10  0355    54322   14100      0    1.90e+00    0    1.32e+00
2007 08 10  0400    54322   14400      0    1.90e+00    0    1.32e+00
2007 08 10  0405    54322   14700      0    1.92e+00    0    1.35e+00
2007 08 10  0410    54322   15000      0    1.88e+00    0    1.30e+00
2007 08 10  0415    54322   15300      0    1.91e+00    0    1.35e+00
2007 08 10  0420    54322   15600      0    1.91e+00    0    1.33e+00
2007 08 10  0425    54322   15900      0    1.91e+00    0    1.33e+00
2007 08 10  0430    54322   16200      0    1.88e+00    0    1.31e+00
2007 08 10  0435    54322   16500      0    1.93e+00    0    1.35e+00
2007 08 10  0440    54322   16800      0    1.87e+00    0    1.30e+00
2007 08 10  0445    54322   17100      0    1.93e+00    0    1.36e+00
2007 08 10  0450    54322   17400      0    1.91e+00    0    1.34e+00
2007 08 10  0455    54322   17700      0    1.90e+00    0    1.34e+00
2007 08 10  0500    54322   18000      0    1.90e+00    0    1.32e+00
2007 08 10  0505    54322   18300      0    1.89e+00    0    1.31e+00
2007 08 10  0510    54322   18600      0    1.87e+00    0    1.31e+00
2007 08 10  0515    54322   18900      0    1.91e+00    0    1.34e+00
2007 08 10  0520    54322   19200      0    1.87e+00    0    1.32e+00
2007 08 10  0525    54322   19500      0    1.89e+00    0    1.33e+00
2007 08 10  0530    54322   19800      0    1.90e+00    0    1.32e+00
2007 08 10  0535    54322   20100      0    1.91e+00    0    1.33e+00
2007 08 10  0540    54322   20400      0    1.89e+00    0    1.32e+00
2007 08 10  0545    54322   20700      0    1.92e+00    0    1.32e+00
2007 08 10  0550    54322   21000      0    1.91e+00    0    1.34e+00
2007 08 10  0555    54322   21300      0    1.93e+00    0    1.35e+00
2007 08 10  0600    54322   21600      0    1.87e+00    0    1.31e+00
2007 08 10  0605    54322   21900      0    1.89e+00    0    1.32e+00
2007 08 10  0610    54322   22200      0    1.87e+00    0    1.30e+00
2007 08 10  0615    54322   22500      0    1.89e+00    0    1.32e+00
2007 08 10  0620    54322   22800      0    1.88e+00    0    1.31e+00
2007 08 10  0625    54322   23100      0    1.88e+00    0    1.31e+00
2007 08 10  0630    54322   23400      0    1.89e+00    0    1.33e+00
2007 08 10  0635    54322   23700      0    1.91e+00    0    1.34e+00
2007 08 10  0640    54322   24000      0    1.91e+00    0    1.33e+00
2007 08 10  0645    54322   24300      0    1.87e+00    0    1.31e+00
2007 08 10  0650    54322   24600      0    1.91e+00    0    1.33e+00
2007 08 10  0655    54322   24900      0    1.87e+00    0    1.31e+00
2007 08 10  0700    54322   25200      0    1.85e+00    0    1.28e+00
2007 08 10  0705    54322   25500      0    1.87e+00    0    1.31e+00
2007 08 10  0710    54322   25800      0    1.91e+00    0    1.33e+00
2007 08 10  0715    54322   26100      0    1.87e+00    0    1.30e+00
2007 08 10  0720    54322   26400      0    1.88e+00    0    1.33e+00
2007 08 10  0725    54322   26700      0    1.93e+00    0    1.34e+00
2007 08 10  0730    54322   27000      0    1.92e+00    0    1.33e+00
2007 08 10  0735    54322   27300      0    1.89e+00    0    1.33e+00
2007 08 10  0740    54322   27600      0    1.88e+00    0    1.32e+00
2007 08 10  0745    54322   27900      0    1.91e+00    0    1.34e+00
2007 08 10  0750    54322   28200      0    1.92e+00    0    1.34e+00
2007 08 10  0755    54322   28500      0    1.89e+00    0    1.33e+00
2007 08 10  0800    54322   28800      0    1.93e+00    0    1.35e+00
2007 08 10  0805    54322   29100      0    1.87e+00    0    1.32e+00
2007 08 10  0810    54322   29400      0    1.93e+00    0    1.36e+00
2007 08 10  0815    54322   29700      0    1.94e+00    0    1.35e+00
2007 08 10  0820    54322   30000      0    1.89e+00    0    1.31e+00
2007 08 10  0825    54322   30300      0    1.89e+00    0    1.32e+00
2007 08 10  0830    54322   30600      0    1.88e+00    0    1.30e+00
2007 08 10  0835    54322   30900      0    1.87e+00    0    1.29e+00
2007 08 10  0840    54322   31200      0    1.87e+00    0    1.31e+00
2007 08 10  0845    54322   31500      0    1.92e+00    0    1.34e+00
2007 08 10  0850    54322   31800      0    1.91e+00    0    1.34e+00
2007 08 10  0855    54322   32100      0    1.88e+00    0    1.32e+00
2007 08 10  0900    54322   32400      0    1.90e+00    0    1.32e+00
2007 08 10  0905    54322   32700      0    1.88e+00    0    1.30e+00
2007 08 10  0910    54322   33000      0    1.88e+00    0    1.32e+00
2007 08 10  0915    54322   33300      0    1.93e+00    0    1.34e+00
2007 08 10  0920    54322   33600      0    1.89e+00    0    1.32e+00
2007 08 10  0925    54322   33900      0    1.88e+00    0    1.32e+00
2007 08 10  0930    54322   34200      0    1.87e+00    0    1.30e+00
2007 08 10  0935    54322   34500      0    1.90e+00    0    1.34e+00
2007 08 10  0940    54322   34800      0    1.92e+00    0    1.35e+00
2007 08 10  0945    54322   35100      0    1.88e+00    0    1.32e+00
2007 08 10  0950    54322   35400      0    1.89e+00    0    1.33e+00
2007 08 10  0955    54322   35700      0    1.86e+00    0    1.30e+00
2007 08 10  1000    54322   36000      0    1.87e+00    0    1.30e+00
2007 08 10  1005    54322   36300      0    1.86e+00    0    1.30e+00
2007 08 10  1010    54322   36600      0    1.89e+00    0    1.33e+00
2007 08 10  1015    54322   36900      0    1.87e+00    0    1.29e+00
2007 08 10  1020    54322   37200      0    1.90e+00    0    1.32e+00
2007 08 10  1025    54322   37500      0    1.92e+00    0    1.35e+00
2007 08 10  1030    54322   37800      0    1.89e+00    0    1.33e+00
2007 08 10  1035    54322   38100      0    1.91e+00    0    1.33e+00
2007 08 10  1040    54322   38400      0    1.89e+00    0    1.32e+00
2007 08 10  1045    54322   38700      0    1.88e+00    0    1.32e+00
2007 08 10  1050    54322   39000      0    1.89e+00    0    1.33e+00
2007 08 10  1055    54322   39300      0    1.87e+00    0    1.29e+00
2007 08 10  1100    54322   39600      0    1.89e+00    0    1.32e+00
2007 08 10  1105    54322   39900      0    1.88e+00    0    1.32e+00
2007 08 10  1110    54322   40200      0    1.84e+00    0    1.28e+00
2007 08 10  1115    54322   40500      0    1.91e+00    0    1.35e+00
2007 08 10  1120    54322   40800      0    1.89e+00    0    1.32e+00
2007 08 10  1125    54322   41100      0    1.88e+00    0    1.31e+00
2007 08 10  1130    54322   41400      0    1.87e+00    0    1.30e+00
2007 08 10  1135    54322   41700      0    1.91e+00    0    1.34e+00
2007 08 10  1140    54322   42000      0    1.89e+00    0    1.32e+00
2007 08 10  1145    54322   42300      0    1.90e+00    0    1.32e+00
2007 08 10  1150    54322   42600      0    1.87e+00    0    1.30e+00
2007 08 10  1155    54322   42900      0    1.87e+00    0    1.32e+00
2007 08 10  1200    54322   43200      0    1.88e+00    0    1.32e+00
2007 08 10  1205    54322   43500      0    1.91e+00    0    1.33e+00
2007 08 10  1210    54322   43800      0    1.91e+00    0    1.34e+00
2007 08 10  1215    54322   44100      0    1.88e+00    0    1.32e+00
2007 08 10  1220    54322   44400      0    1.87e+00    0    1.30e+00
2007 08 10  1225    54322   44700      0    1.86e+00    0    1.31e+00
2007 08 10  1230    54322   45000      0    1.88e+00    0    1.32e+00
2007 08 10  1235    54322   45300      0    1.86e+00    0    1.31e+00
2007 08 10  1240    54322   45600      0    1.88e+00    0    1.30e+00
2007 08 10  1245    54322   45900      0    1.87e+00    0    1.29e+00
2007 08 10  1250    54322   46200      0    1.89e+00    0    1.33e+00
2007 08 10  1255    54322   46500      0    1.89e+00    0    1.32e+00
2007 08 10  1300    54322   46800      0    1.85e+00    0    1.28e+00
2007 08 10  1305    54322   47100      0    1.92e+00    0    1.34e+00
2007 08 10  1310    54322   47400      0    1.89e+00    0    1.34e+00
2007 08 10  1315    54322   47700      0    1.86e+00    0    1.32e+00
2007 08 10  1320    54322   48000      0    1.88e+00    0    1.33e+00
2007 08 10  1325    54322   48300      0    1.91e+00    0    1.34e+00
2007 08 10  1330    54322   48600      0    1.86e+00    0    1.30e+00
2007 08 10  1335    54322   48900      0    1.87e+00    0    1.31e+00
2007 08 10  1340    54322   49200      0    1.85e+00    0    1.29e+00
2007 08 10  1345    54322   49500      0    1.86e+00    0    1.30e+00
2007 08 10  1350    54322   49800      0    1.85e+00    0    1.30e+00
2007 08 10  1355    54322   50100      0    1.88e+00    0    1.31e+00
2007 08 10  1400    54322   50400      0    1.88e+00    0    1.31e+00
2007 08 10  1405    54322   50700      0    1.88e+00    0    1.31e+00
2007 08 10  1410    54322   51000      0    1.90e+00    0    1.33e+00
2007 08 10  1415    54322   51300      0    1.88e+00    0    1.31e+00
2007 08 10  1420    54322   51600      0    1.90e+00    0    1.35e+00
2007 08 10  1425    54322   51900      0    1.87e+00    0    1.30e+00
2007 08 10  1430    54322   52200      0    1.84e+00    0    1.29e+00
2007 08 10  1435    54322   52500      0    1.89e+00    0    1.30e+00
2007 08 10  1440    54322   52800      0    1.86e+00    0    1.30e+00
2007 08 10  1445    54322   53100      0    1.87e+00    0    1.31e+00
2007 08 10  1450    54322   53400      0    1.86e+00    0    1.30e+00
2007 08 10  1455    54322   53700      0    1.87e+00    0    1.32e+00
2007 08 10  1500    54322   54000      0    1.91e+00    0    1.36e+00
2007 08 10  1505    54322   54300      0    1.90e+00    0    1.31e+00
2007 08 10  1510    54322   54600      0    1.91e+00    0    1.34e+00
2007 08 10  1515    54322   54900      0    1.91e+00    0    1.34e+00
2007 08 10  1520    54322   55200      0    1.92e+00    0    1.35e+00
2007 08 10  1525    54322   55500      0    1.89e+00    0    1.32e+00
2007 08 10  1530    54322   55800      0    1.88e+00    0    1.30e+00
2007 08 10  1535    54322   56100      0    1.88e+00    0    1.33e+00
2007 08 10  1540    54322   56400      0    1.86e+00    0    1.31e+00
2007 08 10  1545    54322   56700      0    1.89e+00    0    1.32e+00
2007 08 10  1550    54322   57000      0    1.84e+00    0    1.29e+00
2007 08 10  1555    54322   57300      0    1.87e+00    0    1.30e+00
2007 08 10  1600    54322   57600      0    1.85e+00    0    1.29e+00
2007 08 10  1605    54322   57900      0    1.86e+00    0    1.30e+00
2007 08 10  1610    54322   58200      0    1.88e+00    0    1.32e+00
2007 08 10  1615    54322   58500      0    1.83e+00    0    1.28e+00
2007 08 10  1620    54322   58800      0    1.87e+00    0    1.32e+00
2007 08 10  1625    54322   59100      0    1.91e+00    0    1.33e+00
2007 08 10  1630    54322   59400      0    1.88e+00    0    1.33e+00
2007 08 10  1635    54322   59700      0    1.86e+00    0    1.30e+00
2007 08 10  1640    54322   60000      0    1.87e+00    0    1.30e+00
2007 08 10  1645    54322   60300      0    1.87e+00    0    1.31e+00
2007 08 10  1650    54322   60600      0    1.92e+00    0    1.34e+00
2007 08 10  1655    54322   60900      0    1.90e+00    0    1.33e+00
2007 08 10  1700    54322   61200      0    1.88e+00    0    1.31e+00
2007 08 10  1705    54322   61500      0    1.88e+00    0    1.33e+00
2007 08 10  1710    54322   61800      0    1.88e+00    0    1.31e+00
2007 08 10  1715    54322   62100      0    1.88e+00    0    1.31e+00
2007 08 10  1720    54322   62400      0    1.89e+00    0    1.31e+00
2007 08 10  1725    54322   62700      0    1.92e+00    0    1.34e+00
2007 08 10  1730    54322   63000      0    1.87e+00    0    1.31e+00
2007 08 10  1735    54322   63300      0    1.91e+00    0    1.35e+00
2007 08 10  1740    54322   63600      0    1.89e+00    0    1.34e+00
2007 08 10  1745    54322   63900      0    1.86e+00    0    1.30e+00
2007 08 10  1750    54322   64200      0    1.88e+00    0    1.32e+00
2007 08 10  1755    54322   64500      0    1.88e+00    0    1.32e+00
2007 08 10  1800    54322   64800      0    1.88e+00    0    1.33e+00
2007 08 10  1805    54322   65100      0    1.87e+00    0    1.30e+00
2007 08 10  1810    54322   65400      0    1.87e+00    0    1.29e+00
2007 08 10  1815    54322   65700      0    1.92e+00    0    1.35e+00
2007 08 10  1820    54322   66000      0    1.87e+00    0    1.32e+00
2007 08 10  1825    54322   66300      0    1.90e+00    0    1.33e+00
2007 08 10  1830    54322   66600      0    1.88e+00    0    1.32e+00
2007 08 10  1835    54322   66900      0    1.88e+00    0    1.33e+00
2007 08 10  1840    54322   67200      0    1.89e+00    0    1.33e+00
2007 08 10  1845    54322   67500      0    1.87e+00    0    1.31e+00
2007 08 10  1850    54322   67800      0    1.87e+00    0    1.30e+00
2007 08 10  1855    54322   68100      0    1.88e+00    0    1.31e+00
2007 08 10  1900    54322   68400      0    1.90e+00    0    1.33e+00
2007 08 10  1905    54322   68700      0    1.91e+00    0    1.34e+00
2007 08 10  1910    54322   69000      0    1.95e+00    0    1.37e+00
2007 08 10  1915    54322   69300      0    1.87e+00    0    1.30e+00
2007 08 10  1920    54322   69600      0    1.89e+00    0    1.32e+00
2007 08 10  1925    54322   69900      0    1.87e+00    0    1.30e+00
2007 08 10  1930    54322   70200      0    1.88e+00    0    1.33e+00
2007 08 10  1935    54322   70500      0    1.90e+00    0    1.32e+00
2007 08 10  1940    54322   70800      0    1.88e+00    0    1.31e+00
2007 08 10  1945    54322   71100      0    1.87e+00    0    1.30e+00
2007 08 10  1950    54322   71400      0    1.89e+00    0    1.32e+00
2007 08 10  1955    54322   71700      0    1.91e+00    0    1.34e+00
2007 08 10  2000    54322   72000      0    1.89e+00    0    1.32e+00
2007 08 10  2005    54322   72300      0    1.87e+00    0    1.31e+00
2007 08 10  2010    54322   72600      0    1.91e+00    0    1.35e+00
2007 08 10  2015    54322   72900      0    1.90e+00    0    1.33e+00
2007 08 10  2020    54322   73200      0    1.89e+00    0    1.33e+00
2007 08 10  2025    54322   73500      0    1.88e+00    0    1.31e+00
2007 08 10  2030    54322   73800      0    1.86e+00    0    1.31e+00
2007 08 10  2035    54322   74100      0    1.91e+00    0    1.33e+00
2007 08 10  2040    54322   74400      0    1.86e+00    0    1.29e+00
2007 08 10  2045    54322   74700      0    1.90e+00    0    1.33e+00
2007 08 10  2050    54322   75000      0    1.90e+00    0    1.33e+00
2007 08 10  2055    54322   75300      0    1.90e+00    0    1.33e+00
2007 08 10  2100    54322   75600      0    1.90e+00    0    1.33e+00
2007 08 10  2105    54322   75900      0    1.84e+00    0    1.27e+00
2007 08 10  2110    54322   76200      0    1.92e+00    0    1.34e+00
2007 08 10  2115    54322   76500      0    1.89e+00    0    1.33e+00
2007 08 10  2120    54322   76800      0    1.89e+00    0    1.31e+00
2007 08 10  2125    54322   77100      0    1.87e+00    0    1.31e+00
2007 08 10  2130    54322   77400      0    1.88e+00    0    1.32e+00
2007 08 10  2135    54322   77700      0    1.88e+00    0    1.31e+00
2007 08 10  2140    54322   78000      0    1.90e+00    0    1.33e+00
2007 08 10  2145    54322   78300      0    1.89e+00    0    1.32e+00
2007 08 10  2150    54322   78600      0    1.89e+00    0    1.33e+00
2007 08 10  2155    54322   78900      0    1.89e+00    0    1.32e+00
2007 08 10  2200    54322   79200      0    1.93e+00    0    1.34e+00
2007 08 10  2205    54322   79500      0    1.88e+00    0    1.32e+00
2007 08 10  2210    54322   79800      0    1.91e+00    0    1.32e+00
2007 08 10  2215    54322   80100      0    1.89e+00    0    1.33e+00
2007 08 10  2220    54322   80400      0    1.85e+00    0    1.30e+00
2007 08 10  2225    54322   80700      0    1.90e+00    0    1.33e+00
2007 08 10  2230    54322   81000      0    1.91e+00    0    1.34e+00
2007 08 10  2235    54322   81300      0    1.90e+00    0    1.33e+00
2007 08 10  2240    54322   81600      0    1.89e+00    0    1.33e+00
2007 08 10  2245    54322   81900      0    1.87e+00    0    1.29e+00
2007 08 10  2250    54322   82200      0    1.88e+00    0    1.31e+00
2007 08 10  2255    54322   82500      0    1.88e+00    0    1.31e+00
2007 08 10  2300    54322   82800      0    1.84e+00    0    1.28e+00
2007 08 10  2305    54322   83100      0    1.87e+00    0    1.31e+00
2007 08 10  2310    54322   83400      0    1.88e+00    0    1.30e+00
2007 08 10  2315    54322   83700      0    1.89e+00    0    1.33e+00
2007 08 10  2320    54322   84000      0    1.90e+00    0    1.33e+00
2007 08 10  2325    54322   84300      0    1.88e+00    0    1.32e+00
2007 08 10  2330    54322   84600      0    1.86e+00    0    1.30e+00
2007 08 10  2335    54322   84900      0    1.93e+00    0    1.34e+00
2007 08 10  2340    54322   85200      0    1.91e+00    0    1.34e+00
2007 08 10  2345    54322   85500      0    1.93e+00    0    1.36e+00
2007 08 10  2350    54322   85800      0    1.90e+00    0    1.33e+00
2007 08 10  2355    54322   86100      0    1.91e+00    0    1.33e+00
