:Data_list: 20070430_ace_sis_5m.txt
:Created: 2007 May 01 0011 UT
# Prepared by the U.S. Dept. of Commerce, NOAA, Space Environment Center.
# Please send comments and suggestions to SEC.Webmaster@noaa.gov 
# 
# Units: proton flux p/cs2-sec-ster
# Status(S): 0 = nominal data, 1 to 8 = bad data record, 9 = no data
# Missing data values: -1.00e+05
# Source: ACE Satellite - Solar Isotope Spectrometer
#
# 5-minute averaged Real-time Integral Flux of High-energy Solar Protons
# 
#                 Modified Seconds
# UT Date   Time   Julian  of the      ---- Integral Proton Flux ----
# YR MO DA  HHMM     Day     Day       S    > 10 MeV    S    > 30 MeV
#--------------------------------------------------------------------
2007 04 30  0000    54220       0      0    1.80e+00    0    1.26e+00
2007 04 30  0005    54220     300      0    1.84e+00    0    1.28e+00
2007 04 30  0010    54220     600      0    1.79e+00    0    1.25e+00
2007 04 30  0015    54220     900      0    1.81e+00    0    1.26e+00
2007 04 30  0020    54220    1200      0    1.82e+00    0    1.28e+00
2007 04 30  0025    54220    1500      0    1.82e+00    0    1.28e+00
2007 04 30  0030    54220    1800      0    1.80e+00    0    1.24e+00
2007 04 30  0035    54220    2100      0    1.78e+00    0    1.26e+00
2007 04 30  0040    54220    2400      0    1.80e+00    0    1.25e+00
2007 04 30  0045    54220    2700      0    1.82e+00    0    1.28e+00
2007 04 30  0050    54220    3000      0    1.79e+00    0    1.25e+00
2007 04 30  0055    54220    3300      0    1.83e+00    0    1.29e+00
2007 04 30  0100    54220    3600      0    1.77e+00    0    1.24e+00
2007 04 30  0105    54220    3900      0    1.84e+00    0    1.30e+00
2007 04 30  0110    54220    4200      0    1.83e+00    0    1.29e+00
2007 04 30  0115    54220    4500      0    1.83e+00    0    1.28e+00
2007 04 30  0120    54220    4800      0    1.82e+00    0    1.28e+00
2007 04 30  0125    54220    5100      0    1.81e+00    0    1.27e+00
2007 04 30  0130    54220    5400      0    1.80e+00    0    1.26e+00
2007 04 30  0135    54220    5700      0    1.82e+00    0    1.27e+00
2007 04 30  0140    54220    6000      0    1.80e+00    0    1.27e+00
2007 04 30  0145    54220    6300      0    1.78e+00    0    1.24e+00
2007 04 30  0150    54220    6600      0    1.80e+00    0    1.25e+00
2007 04 30  0155    54220    6900      0    1.81e+00    0    1.26e+00
2007 04 30  0200    54220    7200      0    1.81e+00    0    1.27e+00
2007 04 30  0205    54220    7500      0    1.80e+00    0    1.26e+00
2007 04 30  0210    54220    7800      0    1.82e+00    0    1.27e+00
2007 04 30  0215    54220    8100      0    1.83e+00    0    1.27e+00
2007 04 30  0220    54220    8400      0    1.80e+00    0    1.26e+00
2007 04 30  0225    54220    8700      0    1.82e+00    0    1.27e+00
2007 04 30  0230    54220    9000      0    1.82e+00    0    1.28e+00
2007 04 30  0235    54220    9300      0    1.86e+00    0    1.30e+00
2007 04 30  0240    54220    9600      0    1.83e+00    0    1.28e+00
2007 04 30  0245    54220    9900      0    1.80e+00    0    1.25e+00
2007 04 30  0250    54220   10200      0    1.80e+00    0    1.25e+00
2007 04 30  0255    54220   10500      0    1.82e+00    0    1.28e+00
2007 04 30  0300    54220   10800      0    1.81e+00    0    1.27e+00
2007 04 30  0305    54220   11100      0    1.79e+00    0    1.25e+00
2007 04 30  0310    54220   11400      0    1.80e+00    0    1.27e+00
2007 04 30  0315    54220   11700      0    1.79e+00    0    1.23e+00
2007 04 30  0320    54220   12000      0    1.82e+00    0    1.28e+00
2007 04 30  0325    54220   12300      0    1.77e+00    0    1.23e+00
2007 04 30  0330    54220   12600      0    1.85e+00    0    1.30e+00
2007 04 30  0335    54220   12900      0    1.81e+00    0    1.27e+00
2007 04 30  0340    54220   13200      0    1.80e+00    0    1.26e+00
2007 04 30  0345    54220   13500      0    1.80e+00    0    1.26e+00
2007 04 30  0350    54220   13800      0    1.80e+00    0    1.24e+00
2007 04 30  0355    54220   14100      0    1.82e+00    0    1.28e+00
2007 04 30  0400    54220   14400      0    1.83e+00    0    1.28e+00
2007 04 30  0405    54220   14700      0    1.80e+00    0    1.25e+00
2007 04 30  0410    54220   15000      0    1.77e+00    0    1.23e+00
2007 04 30  0415    54220   15300      0    1.75e+00    0    1.23e+00
2007 04 30  0420    54220   15600      0    1.78e+00    0    1.25e+00
2007 04 30  0425    54220   15900      0    1.82e+00    0    1.28e+00
2007 04 30  0430    54220   16200      0    1.83e+00    0    1.28e+00
2007 04 30  0435    54220   16500      0    1.84e+00    0    1.28e+00
2007 04 30  0440    54220   16800      0    1.80e+00    0    1.25e+00
2007 04 30  0445    54220   17100      0    1.83e+00    0    1.28e+00
2007 04 30  0450    54220   17400      0    1.80e+00    0    1.26e+00
2007 04 30  0455    54220   17700      0    1.81e+00    0    1.27e+00
2007 04 30  0500    54220   18000      0    1.83e+00    0    1.28e+00
2007 04 30  0505    54220   18300      0    1.86e+00    0    1.30e+00
2007 04 30  0510    54220   18600      0    1.81e+00    0    1.25e+00
2007 04 30  0515    54220   18900      0    1.79e+00    0    1.26e+00
2007 04 30  0520    54220   19200      0    1.80e+00    0    1.26e+00
2007 04 30  0525    54220   19500      0    1.78e+00    0    1.22e+00
2007 04 30  0530    54220   19800      0    1.81e+00    0    1.25e+00
2007 04 30  0535    54220   20100      0    1.81e+00    0    1.27e+00
2007 04 30  0540    54220   20400      0    1.82e+00    0    1.27e+00
2007 04 30  0545    54220   20700      0    1.82e+00    0    1.27e+00
2007 04 30  0550    54220   21000      0    1.82e+00    0    1.27e+00
2007 04 30  0555    54220   21300      0    1.81e+00    0    1.26e+00
2007 04 30  0600    54220   21600      0    1.80e+00    0    1.25e+00
2007 04 30  0605    54220   21900      0    1.82e+00    0    1.27e+00
2007 04 30  0610    54220   22200      0    1.83e+00    0    1.28e+00
2007 04 30  0615    54220   22500      0    1.82e+00    0    1.27e+00
2007 04 30  0620    54220   22800      0    1.83e+00    0    1.27e+00
2007 04 30  0625    54220   23100      0    1.82e+00    0    1.26e+00
2007 04 30  0630    54220   23400      0    1.76e+00    0    1.22e+00
2007 04 30  0635    54220   23700      0    1.80e+00    0    1.27e+00
2007 04 30  0640    54220   24000      0    1.81e+00    0    1.25e+00
2007 04 30  0645    54220   24300      0    1.81e+00    0    1.27e+00
2007 04 30  0650    54220   24600      0    1.82e+00    0    1.28e+00
2007 04 30  0655    54220   24900      0    1.81e+00    0    1.27e+00
2007 04 30  0700    54220   25200      0    1.82e+00    0    1.27e+00
2007 04 30  0705    54220   25500      0    1.79e+00    0    1.27e+00
2007 04 30  0710    54220   25800      0    1.81e+00    0    1.27e+00
2007 04 30  0715    54220   26100      0    1.83e+00    0    1.27e+00
2007 04 30  0720    54220   26400      0    1.84e+00    0    1.28e+00
2007 04 30  0725    54220   26700      0    1.83e+00    0    1.28e+00
2007 04 30  0730    54220   27000      0    1.84e+00    0    1.29e+00
2007 04 30  0735    54220   27300      0    1.83e+00    0    1.29e+00
2007 04 30  0740    54220   27600      0    1.85e+00    0    1.29e+00
2007 04 30  0745    54220   27900      0    1.84e+00    0    1.28e+00
2007 04 30  0750    54220   28200      0    1.81e+00    0    1.26e+00
2007 04 30  0755    54220   28500      0    1.80e+00    0    1.27e+00
2007 04 30  0800    54220   28800      0    1.81e+00    0    1.26e+00
2007 04 30  0805    54220   29100      0    1.79e+00    0    1.24e+00
2007 04 30  0810    54220   29400      0    1.82e+00    0    1.25e+00
2007 04 30  0815    54220   29700      0    1.78e+00    0    1.23e+00
2007 04 30  0820    54220   30000      0    1.80e+00    0    1.25e+00
2007 04 30  0825    54220   30300      0    1.79e+00    0    1.25e+00
2007 04 30  0830    54220   30600      0    1.77e+00    0    1.23e+00
2007 04 30  0835    54220   30900      0    1.79e+00    0    1.25e+00
2007 04 30  0840    54220   31200      0    1.80e+00    0    1.27e+00
2007 04 30  0845    54220   31500      0    1.80e+00    0    1.26e+00
2007 04 30  0850    54220   31800      0    1.74e+00    0    1.22e+00
2007 04 30  0855    54220   32100      0    1.78e+00    0    1.25e+00
2007 04 30  0900    54220   32400      0    1.78e+00    0    1.25e+00
2007 04 30  0905    54220   32700      0    1.76e+00    0    1.24e+00
2007 04 30  0910    54220   33000      0    1.79e+00    0    1.26e+00
2007 04 30  0915    54220   33300      0    1.82e+00    0    1.26e+00
2007 04 30  0920    54220   33600      0    1.77e+00    0    1.24e+00
2007 04 30  0925    54220   33900      0    1.75e+00    0    1.23e+00
2007 04 30  0930    54220   34200      0    1.81e+00    0    1.28e+00
2007 04 30  0935    54220   34500      0    1.83e+00    0    1.28e+00
2007 04 30  0940    54220   34800      0    1.77e+00    0    1.24e+00
2007 04 30  0945    54220   35100      0    1.83e+00    0    1.28e+00
2007 04 30  0950    54220   35400      0    1.84e+00    0    1.28e+00
2007 04 30  0955    54220   35700      0    1.78e+00    0    1.25e+00
2007 04 30  1000    54220   36000      0    1.80e+00    0    1.25e+00
2007 04 30  1005    54220   36300      0    1.83e+00    0    1.29e+00
2007 04 30  1010    54220   36600      0    1.82e+00    0    1.28e+00
2007 04 30  1015    54220   36900      0    1.83e+00    0    1.28e+00
2007 04 30  1020    54220   37200      0    1.78e+00    0    1.25e+00
2007 04 30  1025    54220   37500      0    1.76e+00    0    1.23e+00
2007 04 30  1030    54220   37800      0    1.79e+00    0    1.26e+00
2007 04 30  1035    54220   38100      0    1.78e+00    0    1.25e+00
2007 04 30  1040    54220   38400      0    1.75e+00    0    1.22e+00
2007 04 30  1045    54220   38700      0    1.79e+00    0    1.25e+00
2007 04 30  1050    54220   39000      0    1.75e+00    0    1.23e+00
2007 04 30  1055    54220   39300      0    1.73e+00    0    1.21e+00
2007 04 30  1100    54220   39600      0    1.77e+00    0    1.24e+00
2007 04 30  1105    54220   39900      0    1.79e+00    0    1.24e+00
2007 04 30  1110    54220   40200      0    1.80e+00    0    1.27e+00
2007 04 30  1115    54220   40500      0    1.80e+00    0    1.26e+00
2007 04 30  1120    54220   40800      0    1.77e+00    0    1.23e+00
2007 04 30  1125    54220   41100      0    1.77e+00    0    1.24e+00
2007 04 30  1130    54220   41400      0    1.81e+00    0    1.27e+00
2007 04 30  1135    54220   41700      0    1.77e+00    0    1.23e+00
2007 04 30  1140    54220   42000      0    1.80e+00    0    1.27e+00
2007 04 30  1145    54220   42300      0    1.83e+00    0    1.28e+00
2007 04 30  1150    54220   42600      0    1.84e+00    0    1.29e+00
2007 04 30  1155    54220   42900      0    1.79e+00    0    1.25e+00
2007 04 30  1200    54220   43200      0    1.82e+00    0    1.27e+00
2007 04 30  1205    54220   43500      0    1.78e+00    0    1.25e+00
2007 04 30  1210    54220   43800      0    1.81e+00    0    1.25e+00
2007 04 30  1215    54220   44100      0    1.84e+00    0    1.29e+00
2007 04 30  1220    54220   44400      0    1.79e+00    0    1.25e+00
2007 04 30  1225    54220   44700      0    1.80e+00    0    1.27e+00
2007 04 30  1230    54220   45000      0    1.83e+00    0    1.27e+00
2007 04 30  1235    54220   45300      0    1.80e+00    0    1.25e+00
2007 04 30  1240    54220   45600      0    1.82e+00    0    1.27e+00
2007 04 30  1245    54220   45900      0    1.82e+00    0    1.28e+00
2007 04 30  1250    54220   46200      0    1.81e+00    0    1.26e+00
2007 04 30  1255    54220   46500      0    1.83e+00    0    1.28e+00
2007 04 30  1300    54220   46800      0    1.79e+00    0    1.26e+00
2007 04 30  1305    54220   47100      0    1.79e+00    0    1.25e+00
2007 04 30  1310    54220   47400      0    1.82e+00    0    1.27e+00
2007 04 30  1315    54220   47700      0    1.80e+00    0    1.26e+00
2007 04 30  1320    54220   48000      0    1.80e+00    0    1.25e+00
2007 04 30  1325    54220   48300      0    1.81e+00    0    1.27e+00
2007 04 30  1330    54220   48600      0    1.80e+00    0    1.27e+00
2007 04 30  1335    54220   48900      0    1.83e+00    0    1.30e+00
2007 04 30  1340    54220   49200      0    1.83e+00    0    1.29e+00
2007 04 30  1345    54220   49500      0    1.77e+00    0    1.24e+00
2007 04 30  1350    54220   49800      0    1.82e+00    0    1.26e+00
2007 04 30  1355    54220   50100      0    1.78e+00    0    1.25e+00
2007 04 30  1400    54220   50400      0    1.80e+00    0    1.25e+00
2007 04 30  1405    54220   50700      0    1.81e+00    0    1.27e+00
2007 04 30  1410    54220   51000      0    1.82e+00    0    1.27e+00
2007 04 30  1415    54220   51300      0    1.79e+00    0    1.26e+00
2007 04 30  1420    54220   51600      0    1.83e+00    0    1.29e+00
2007 04 30  1425    54220   51900      0    1.78e+00    0    1.22e+00
2007 04 30  1430    54220   52200      0    1.82e+00    0    1.28e+00
2007 04 30  1435    54220   52500      0    1.81e+00    0    1.25e+00
2007 04 30  1440    54220   52800      0    1.81e+00    0    1.25e+00
2007 04 30  1445    54220   53100      0    1.80e+00    0    1.25e+00
2007 04 30  1450    54220   53400      0    1.81e+00    0    1.28e+00
2007 04 30  1455    54220   53700      0    1.82e+00    0    1.28e+00
2007 04 30  1500    54220   54000      0    1.80e+00    0    1.25e+00
2007 04 30  1505    54220   54300      0    1.79e+00    0    1.25e+00
2007 04 30  1510    54220   54600      0    1.81e+00    0    1.28e+00
2007 04 30  1515    54220   54900      0    1.83e+00    0    1.28e+00
2007 04 30  1520    54220   55200      0    1.80e+00    0    1.26e+00
2007 04 30  1525    54220   55500      0    1.82e+00    0    1.27e+00
2007 04 30  1530    54220   55800      0    1.80e+00    0    1.25e+00
2007 04 30  1535    54220   56100      0    1.80e+00    0    1.24e+00
2007 04 30  1540    54220   56400      0    1.81e+00    0    1.27e+00
2007 04 30  1545    54220   56700      0    1.72e+00    0    1.20e+00
2007 04 30  1550    54220   57000      0    1.82e+00    0    1.28e+00
2007 04 30  1555    54220   57300      0    1.82e+00    0    1.28e+00
2007 04 30  1600    54220   57600      0    1.82e+00    0    1.28e+00
2007 04 30  1605    54220   57900      0    1.79e+00    0    1.25e+00
2007 04 30  1610    54220   58200      0    1.83e+00    0    1.28e+00
2007 04 30  1615    54220   58500      0    1.83e+00    0    1.27e+00
2007 04 30  1620    54220   58800      0    1.81e+00    0    1.27e+00
2007 04 30  1625    54220   59100      0    1.79e+00    0    1.24e+00
2007 04 30  1630    54220   59400      0    1.84e+00    0    1.29e+00
2007 04 30  1635    54220   59700      0    1.81e+00    0    1.27e+00
2007 04 30  1640    54220   60000      0    1.81e+00    0    1.27e+00
2007 04 30  1645    54220   60300      0    1.82e+00    0    1.27e+00
2007 04 30  1650    54220   60600      0    1.82e+00    0    1.28e+00
2007 04 30  1655    54220   60900      0    1.80e+00    0    1.26e+00
2007 04 30  1700    54220   61200      0    1.84e+00    0    1.29e+00
2007 04 30  1705    54220   61500      0    1.83e+00    0    1.28e+00
2007 04 30  1710    54220   61800      0    1.81e+00    0    1.27e+00
2007 04 30  1715    54220   62100      0    1.76e+00    0    1.23e+00
2007 04 30  1720    54220   62400      0    1.85e+00    0    1.29e+00
2007 04 30  1725    54220   62700      0    1.82e+00    0    1.28e+00
2007 04 30  1730    54220   63000      0    1.79e+00    0    1.26e+00
2007 04 30  1735    54220   63300      0    1.84e+00    0    1.28e+00
2007 04 30  1740    54220   63600      0    1.80e+00    0    1.25e+00
2007 04 30  1745    54220   63900      0    1.82e+00    0    1.26e+00
2007 04 30  1750    54220   64200      0    1.81e+00    0    1.27e+00
2007 04 30  1755    54220   64500      0    1.87e+00    0    1.32e+00
2007 04 30  1800    54220   64800      0    1.83e+00    0    1.26e+00
2007 04 30  1805    54220   65100      0    1.81e+00    0    1.27e+00
2007 04 30  1810    54220   65400      0    1.78e+00    0    1.23e+00
2007 04 30  1815    54220   65700      0    1.81e+00    0    1.28e+00
2007 04 30  1820    54220   66000      0    1.80e+00    0    1.24e+00
2007 04 30  1825    54220   66300      0    1.80e+00    0    1.25e+00
2007 04 30  1830    54220   66600      0    1.83e+00    0    1.28e+00
2007 04 30  1835    54220   66900      0    1.80e+00    0    1.27e+00
2007 04 30  1840    54220   67200      0    1.83e+00    0    1.28e+00
2007 04 30  1845    54220   67500      0    1.83e+00    0    1.30e+00
2007 04 30  1850    54220   67800      0    1.83e+00    0    1.29e+00
2007 04 30  1855    54220   68100      0    1.80e+00    0    1.25e+00
2007 04 30  1900    54220   68400      0    1.84e+00    0    1.29e+00
2007 04 30  1905    54220   68700      0    1.80e+00    0    1.27e+00
2007 04 30  1910    54220   69000      0    1.82e+00    0    1.28e+00
2007 04 30  1915    54220   69300      0    1.81e+00    0    1.27e+00
2007 04 30  1920    54220   69600      0    1.84e+00    0    1.27e+00
2007 04 30  1925    54220   69900      0    1.83e+00    0    1.27e+00
2007 04 30  1930    54220   70200      0    1.82e+00    0    1.26e+00
2007 04 30  1935    54220   70500      0    1.86e+00    0    1.31e+00
2007 04 30  1940    54220   70800      0    1.81e+00    0    1.27e+00
2007 04 30  1945    54220   71100      0    1.82e+00    0    1.26e+00
2007 04 30  1950    54220   71400      0    1.84e+00    0    1.29e+00
2007 04 30  1955    54220   71700      0    1.82e+00    0    1.27e+00
2007 04 30  2000    54220   72000      0    1.83e+00    0    1.27e+00
2007 04 30  2005    54220   72300      0    1.82e+00    0    1.28e+00
2007 04 30  2010    54220   72600      0    1.84e+00    0    1.28e+00
2007 04 30  2015    54220   72900      0    1.83e+00    0    1.28e+00
2007 04 30  2020    54220   73200      0    1.84e+00    0    1.28e+00
2007 04 30  2025    54220   73500      0    1.83e+00    0    1.30e+00
2007 04 30  2030    54220   73800      0    1.73e+00    0    1.22e+00
2007 04 30  2035    54220   74100      0    1.82e+00    0    1.29e+00
2007 04 30  2040    54220   74400      0    1.80e+00    0    1.26e+00
2007 04 30  2045    54220   74700      0    1.79e+00    0    1.23e+00
2007 04 30  2050    54220   75000      0    1.82e+00    0    1.29e+00
2007 04 30  2055    54220   75300      0    1.79e+00    0    1.26e+00
2007 04 30  2100    54220   75600      0    1.84e+00    0    1.29e+00
2007 04 30  2105    54220   75900      0    1.80e+00    0    1.26e+00
2007 04 30  2110    54220   76200      0    1.80e+00    0    1.26e+00
2007 04 30  2115    54220   76500      0    1.77e+00    0    1.24e+00
2007 04 30  2120    54220   76800      0    1.79e+00    0    1.26e+00
2007 04 30  2125    54220   77100      0    1.78e+00    0    1.25e+00
2007 04 30  2130    54220   77400      0    1.79e+00    0    1.26e+00
2007 04 30  2135    54220   77700      0    1.83e+00    0    1.28e+00
2007 04 30  2140    54220   78000      0    1.84e+00    0    1.29e+00
2007 04 30  2145    54220   78300      0    1.74e+00    0    1.21e+00
2007 04 30  2150    54220   78600      0    1.77e+00    0    1.23e+00
2007 04 30  2155    54220   78900      0    1.79e+00    0    1.24e+00
2007 04 30  2200    54220   79200      0    1.79e+00    0    1.26e+00
2007 04 30  2205    54220   79500      0    1.79e+00    0    1.25e+00
2007 04 30  2210    54220   79800      0    1.76e+00    0    1.24e+00
2007 04 30  2215    54220   80100      0    1.78e+00    0    1.26e+00
2007 04 30  2220    54220   80400      0    1.81e+00    0    1.27e+00
2007 04 30  2225    54220   80700      0    1.78e+00    0    1.26e+00
2007 04 30  2230    54220   81000      0    1.75e+00    0    1.23e+00
2007 04 30  2235    54220   81300      0    1.81e+00    0    1.26e+00
2007 04 30  2240    54220   81600      0    1.79e+00    0    1.27e+00
2007 04 30  2245    54220   81900      0    1.80e+00    0    1.26e+00
2007 04 30  2250    54220   82200      0    1.84e+00    0    1.31e+00
2007 04 30  2255    54220   82500      0    1.75e+00    0    1.22e+00
2007 04 30  2300    54220   82800      0    1.77e+00    0    1.24e+00
2007 04 30  2305    54220   83100      0    1.79e+00    0    1.25e+00
2007 04 30  2310    54220   83400      0    1.77e+00    0    1.24e+00
2007 04 30  2315    54220   83700      0    1.80e+00    0    1.26e+00
2007 04 30  2320    54220   84000      0    1.82e+00    0    1.28e+00
2007 04 30  2325    54220   84300      0    1.81e+00    0    1.27e+00
2007 04 30  2330    54220   84600      0    1.82e+00    0    1.27e+00
2007 04 30  2335    54220   84900      0    1.81e+00    0    1.26e+00
2007 04 30  2340    54220   85200      0    1.81e+00    0    1.27e+00
2007 04 30  2345    54220   85500      0    1.83e+00    0    1.28e+00
2007 04 30  2350    54220   85800      0    1.82e+00    0    1.27e+00
2007 04 30  2355    54220   86100      0    1.83e+00    0    1.28e+00
