:Data_list: 20070502_ace_sis_5m.txt
:Created: 2007 May 03 0011 UT
# Prepared by the U.S. Dept. of Commerce, NOAA, Space Environment Center.
# Please send comments and suggestions to SEC.Webmaster@noaa.gov 
# 
# Units: proton flux p/cs2-sec-ster
# Status(S): 0 = nominal data, 1 to 8 = bad data record, 9 = no data
# Missing data values: -1.00e+05
# Source: ACE Satellite - Solar Isotope Spectrometer
#
# 5-minute averaged Real-time Integral Flux of High-energy Solar Protons
# 
#                 Modified Seconds
# UT Date   Time   Julian  of the      ---- Integral Proton Flux ----
# YR MO DA  HHMM     Day     Day       S    > 10 MeV    S    > 30 MeV
#--------------------------------------------------------------------
2007 05 02  0000    54222       0      0    1.84e+00    0    1.28e+00
2007 05 02  0005    54222     300      0    1.81e+00    0    1.27e+00
2007 05 02  0010    54222     600      0    1.82e+00    0    1.27e+00
2007 05 02  0015    54222     900      0    1.84e+00    0    1.29e+00
2007 05 02  0020    54222    1200      0    1.86e+00    0    1.31e+00
2007 05 02  0025    54222    1500      0    1.82e+00    0    1.26e+00
2007 05 02  0030    54222    1800      0    1.85e+00    0    1.29e+00
2007 05 02  0035    54222    2100      0    1.82e+00    0    1.29e+00
2007 05 02  0040    54222    2400      0    1.85e+00    0    1.30e+00
2007 05 02  0045    54222    2700      0    1.83e+00    0    1.28e+00
2007 05 02  0050    54222    3000      0    1.81e+00    0    1.27e+00
2007 05 02  0055    54222    3300      0    1.86e+00    0    1.30e+00
2007 05 02  0100    54222    3600      0    1.83e+00    0    1.29e+00
2007 05 02  0105    54222    3900      0    1.82e+00    0    1.27e+00
2007 05 02  0110    54222    4200      0    1.83e+00    0    1.28e+00
2007 05 02  0115    54222    4500      0    1.85e+00    0    1.30e+00
2007 05 02  0120    54222    4800      0    1.85e+00    0    1.29e+00
2007 05 02  0125    54222    5100      0    1.82e+00    0    1.26e+00
2007 05 02  0130    54222    5400      0    1.80e+00    0    1.26e+00
2007 05 02  0135    54222    5700      0    1.83e+00    0    1.28e+00
2007 05 02  0140    54222    6000      0    1.85e+00    0    1.31e+00
2007 05 02  0145    54222    6300      0    1.81e+00    0    1.27e+00
2007 05 02  0150    54222    6600      0    1.83e+00    0    1.29e+00
2007 05 02  0155    54222    6900      0    1.85e+00    0    1.29e+00
2007 05 02  0200    54222    7200      0    1.85e+00    0    1.30e+00
2007 05 02  0205    54222    7500      0    1.85e+00    0    1.30e+00
2007 05 02  0210    54222    7800      0    1.84e+00    0    1.28e+00
2007 05 02  0215    54222    8100      0    1.87e+00    0    1.31e+00
2007 05 02  0220    54222    8400      0    1.84e+00    0    1.28e+00
2007 05 02  0225    54222    8700      0    1.83e+00    0    1.28e+00
2007 05 02  0230    54222    9000      0    1.85e+00    0    1.29e+00
2007 05 02  0235    54222    9300      0    1.88e+00    0    1.32e+00
2007 05 02  0240    54222    9600      0    1.79e+00    0    1.24e+00
2007 05 02  0245    54222    9900      0    1.83e+00    0    1.28e+00
2007 05 02  0250    54222   10200      0    1.82e+00    0    1.29e+00
2007 05 02  0255    54222   10500      0    1.83e+00    0    1.27e+00
2007 05 02  0300    54222   10800      0    1.85e+00    0    1.30e+00
2007 05 02  0305    54222   11100      0    1.84e+00    0    1.28e+00
2007 05 02  0310    54222   11400      0    1.84e+00    0    1.28e+00
2007 05 02  0315    54222   11700      0    1.85e+00    0    1.29e+00
2007 05 02  0320    54222   12000      0    1.83e+00    0    1.29e+00
2007 05 02  0325    54222   12300      0    1.84e+00    0    1.29e+00
2007 05 02  0330    54222   12600      0    1.86e+00    0    1.31e+00
2007 05 02  0335    54222   12900      0    1.82e+00    0    1.29e+00
2007 05 02  0340    54222   13200      0    1.84e+00    0    1.28e+00
2007 05 02  0345    54222   13500      0    1.85e+00    0    1.30e+00
2007 05 02  0350    54222   13800      0    1.81e+00    0    1.26e+00
2007 05 02  0355    54222   14100      0    1.82e+00    0    1.28e+00
2007 05 02  0400    54222   14400      0    1.84e+00    0    1.29e+00
2007 05 02  0405    54222   14700      0    1.83e+00    0    1.28e+00
2007 05 02  0410    54222   15000      0    1.81e+00    0    1.27e+00
2007 05 02  0415    54222   15300      0    1.84e+00    0    1.29e+00
2007 05 02  0420    54222   15600      0    1.83e+00    0    1.27e+00
2007 05 02  0425    54222   15900      0    1.84e+00    0    1.26e+00
2007 05 02  0430    54222   16200      0    1.86e+00    0    1.30e+00
2007 05 02  0435    54222   16500      0    1.88e+00    0    1.32e+00
2007 05 02  0440    54222   16800      0    1.82e+00    0    1.28e+00
2007 05 02  0445    54222   17100      0    1.83e+00    0    1.28e+00
2007 05 02  0450    54222   17400      0    1.82e+00    0    1.27e+00
2007 05 02  0455    54222   17700      0    1.80e+00    0    1.26e+00
2007 05 02  0500    54222   18000      0    1.86e+00    0    1.31e+00
2007 05 02  0505    54222   18300      0    1.83e+00    0    1.28e+00
2007 05 02  0510    54222   18600      0    1.86e+00    0    1.30e+00
2007 05 02  0515    54222   18900      0    1.82e+00    0    1.26e+00
2007 05 02  0520    54222   19200      0    1.84e+00    0    1.29e+00
2007 05 02  0525    54222   19500      0    1.86e+00    0    1.30e+00
2007 05 02  0530    54222   19800      0    1.85e+00    0    1.31e+00
2007 05 02  0535    54222   20100      0    1.84e+00    0    1.26e+00
2007 05 02  0540    54222   20400      0    1.83e+00    0    1.27e+00
2007 05 02  0545    54222   20700      0    1.81e+00    0    1.26e+00
2007 05 02  0550    54222   21000      0    1.84e+00    0    1.29e+00
2007 05 02  0555    54222   21300      0    1.85e+00    0    1.30e+00
2007 05 02  0600    54222   21600      0    1.82e+00    0    1.28e+00
2007 05 02  0605    54222   21900      0    1.85e+00    0    1.30e+00
2007 05 02  0610    54222   22200      0    1.85e+00    0    1.28e+00
2007 05 02  0615    54222   22500      0    1.85e+00    0    1.30e+00
2007 05 02  0620    54222   22800      0    1.83e+00    0    1.28e+00
2007 05 02  0625    54222   23100      0    1.83e+00    0    1.28e+00
2007 05 02  0630    54222   23400      0    1.83e+00    0    1.28e+00
2007 05 02  0635    54222   23700      0    1.83e+00    0    1.29e+00
2007 05 02  0640    54222   24000      0    1.83e+00    0    1.29e+00
2007 05 02  0645    54222   24300      0    1.83e+00    0    1.27e+00
2007 05 02  0650    54222   24600      0    1.85e+00    0    1.29e+00
2007 05 02  0655    54222   24900      0    1.84e+00    0    1.29e+00
2007 05 02  0700    54222   25200      0    1.85e+00    0    1.29e+00
2007 05 02  0705    54222   25500      0    1.82e+00    0    1.27e+00
2007 05 02  0710    54222   25800      0    1.80e+00    0    1.25e+00
2007 05 02  0715    54222   26100      0    1.84e+00    0    1.30e+00
2007 05 02  0720    54222   26400      0    1.89e+00    0    1.33e+00
2007 05 02  0725    54222   26700      0    1.83e+00    0    1.27e+00
2007 05 02  0730    54222   27000      0    1.80e+00    0    1.27e+00
2007 05 02  0735    54222   27300      0    1.83e+00    0    1.28e+00
2007 05 02  0740    54222   27600      0    1.87e+00    0    1.31e+00
2007 05 02  0745    54222   27900      0    1.81e+00    0    1.26e+00
2007 05 02  0750    54222   28200      0    1.86e+00    0    1.30e+00
2007 05 02  0755    54222   28500      0    1.82e+00    0    1.27e+00
2007 05 02  0800    54222   28800      0    1.77e+00    0    1.25e+00
2007 05 02  0805    54222   29100      0    1.83e+00    0    1.28e+00
2007 05 02  0810    54222   29400      0    1.83e+00    0    1.29e+00
2007 05 02  0815    54222   29700      0    1.81e+00    0    1.27e+00
2007 05 02  0820    54222   30000      0    1.83e+00    0    1.28e+00
2007 05 02  0825    54222   30300      0    1.84e+00    0    1.28e+00
2007 05 02  0830    54222   30600      0    1.81e+00    0    1.27e+00
2007 05 02  0835    54222   30900      0    1.88e+00    0    1.32e+00
2007 05 02  0840    54222   31200      0    1.82e+00    0    1.27e+00
2007 05 02  0845    54222   31500      0    1.85e+00    0    1.29e+00
2007 05 02  0850    54222   31800      0    1.88e+00    0    1.32e+00
2007 05 02  0855    54222   32100      0    1.81e+00    0    1.26e+00
2007 05 02  0900    54222   32400      0    1.86e+00    0    1.31e+00
2007 05 02  0905    54222   32700      0    1.83e+00    0    1.27e+00
2007 05 02  0910    54222   33000      0    1.86e+00    0    1.30e+00
2007 05 02  0915    54222   33300      0    1.85e+00    0    1.30e+00
2007 05 02  0920    54222   33600      0    1.81e+00    0    1.27e+00
2007 05 02  0925    54222   33900      0    1.85e+00    0    1.30e+00
2007 05 02  0930    54222   34200      0    1.80e+00    0    1.25e+00
2007 05 02  0935    54222   34500      0    1.85e+00    0    1.29e+00
2007 05 02  0940    54222   34800      0    1.88e+00    0    1.32e+00
2007 05 02  0945    54222   35100      0    1.86e+00    0    1.32e+00
2007 05 02  0950    54222   35400      0    1.72e+00    0    1.21e+00
2007 05 02  0955    54222   35700      0    1.87e+00    0    1.30e+00
2007 05 02  1000    54222   36000      0    1.82e+00    0    1.29e+00
2007 05 02  1005    54222   36300      0    1.81e+00    0    1.27e+00
2007 05 02  1010    54222   36600      0    1.80e+00    0    1.25e+00
2007 05 02  1015    54222   36900      0    1.84e+00    0    1.28e+00
2007 05 02  1020    54222   37200      0    1.83e+00    0    1.29e+00
2007 05 02  1025    54222   37500      0    1.87e+00    0    1.30e+00
2007 05 02  1030    54222   37800      0    1.82e+00    0    1.28e+00
2007 05 02  1035    54222   38100      0    1.87e+00    0    1.33e+00
2007 05 02  1040    54222   38400      0    1.85e+00    0    1.29e+00
2007 05 02  1045    54222   38700      0    1.82e+00    0    1.27e+00
2007 05 02  1050    54222   39000      0    1.83e+00    0    1.26e+00
2007 05 02  1055    54222   39300      0    1.86e+00    0    1.29e+00
2007 05 02  1100    54222   39600      0    1.83e+00    0    1.29e+00
2007 05 02  1105    54222   39900      0    1.78e+00    0    1.23e+00
2007 05 02  1110    54222   40200      0    1.83e+00    0    1.27e+00
2007 05 02  1115    54222   40500      0    1.84e+00    0    1.28e+00
2007 05 02  1120    54222   40800      0    1.89e+00    0    1.33e+00
2007 05 02  1125    54222   41100      0    1.86e+00    0    1.29e+00
2007 05 02  1130    54222   41400      0    1.87e+00    0    1.30e+00
2007 05 02  1135    54222   41700      0    1.84e+00    0    1.27e+00
2007 05 02  1140    54222   42000      0    1.89e+00    0    1.31e+00
2007 05 02  1145    54222   42300      0    1.85e+00    0    1.31e+00
2007 05 02  1150    54222   42600      0    1.84e+00    0    1.29e+00
2007 05 02  1155    54222   42900      0    1.86e+00    0    1.29e+00
2007 05 02  1200    54222   43200      0    1.86e+00    0    1.32e+00
2007 05 02  1205    54222   43500      0    1.84e+00    0    1.29e+00
2007 05 02  1210    54222   43800      0    1.86e+00    0    1.30e+00
2007 05 02  1215    54222   44100      0    1.84e+00    0    1.28e+00
2007 05 02  1220    54222   44400      0    1.85e+00    0    1.30e+00
2007 05 02  1225    54222   44700      0    1.84e+00    0    1.30e+00
2007 05 02  1230    54222   45000      0    2.01e+00    0    1.45e+00
2007 05 02  1235    54222   45300      0    1.81e+00    0    1.27e+00
2007 05 02  1240    54222   45600      0    1.88e+00    0    1.31e+00
2007 05 02  1245    54222   45900      0    1.85e+00    0    1.30e+00
2007 05 02  1250    54222   46200      0    1.86e+00    0    1.29e+00
2007 05 02  1255    54222   46500      0    1.84e+00    0    1.29e+00
2007 05 02  1300    54222   46800      0    1.82e+00    0    1.28e+00
2007 05 02  1305    54222   47100      0    1.83e+00    0    1.28e+00
2007 05 02  1310    54222   47400      0    1.86e+00    0    1.29e+00
2007 05 02  1315    54222   47700      0    1.84e+00    0    1.30e+00
2007 05 02  1320    54222   48000      0    1.89e+00    0    1.32e+00
2007 05 02  1325    54222   48300      0    1.83e+00    0    1.28e+00
2007 05 02  1330    54222   48600      0    1.84e+00    0    1.28e+00
2007 05 02  1335    54222   48900      0    1.87e+00    0    1.29e+00
2007 05 02  1340    54222   49200      0    1.86e+00    0    1.30e+00
2007 05 02  1345    54222   49500      0    1.86e+00    0    1.30e+00
2007 05 02  1350    54222   49800      0    1.84e+00    0    1.30e+00
2007 05 02  1355    54222   50100      0    1.85e+00    0    1.29e+00
2007 05 02  1400    54222   50400      0    1.88e+00    0    1.33e+00
2007 05 02  1405    54222   50700      0    1.85e+00    0    1.29e+00
2007 05 02  1410    54222   51000      0    1.83e+00    0    1.28e+00
2007 05 02  1415    54222   51300      0    1.85e+00    0    1.29e+00
2007 05 02  1420    54222   51600      0    1.86e+00    0    1.29e+00
2007 05 02  1425    54222   51900      0    1.85e+00    0    1.30e+00
2007 05 02  1430    54222   52200      0    1.88e+00    0    1.31e+00
2007 05 02  1435    54222   52500      0    1.88e+00    0    1.29e+00
2007 05 02  1440    54222   52800      0    1.85e+00    0    1.30e+00
2007 05 02  1445    54222   53100      0    1.85e+00    0    1.30e+00
2007 05 02  1450    54222   53400      0    1.86e+00    0    1.30e+00
2007 05 02  1455    54222   53700      0    1.87e+00    0    1.30e+00
2007 05 02  1500    54222   54000      0    1.87e+00    0    1.31e+00
2007 05 02  1505    54222   54300      0    1.84e+00    0    1.28e+00
2007 05 02  1510    54222   54600      0    1.77e+00    0    1.24e+00
2007 05 02  1515    54222   54900      0    1.79e+00    0    1.25e+00
2007 05 02  1520    54222   55200      0    1.86e+00    0    1.31e+00
2007 05 02  1525    54222   55500      0    1.84e+00    0    1.30e+00
2007 05 02  1530    54222   55800      0    1.83e+00    0    1.28e+00
2007 05 02  1535    54222   56100      0    1.84e+00    0    1.30e+00
2007 05 02  1540    54222   56400      0    1.89e+00    0    1.32e+00
2007 05 02  1545    54222   56700      0    1.85e+00    0    1.28e+00
2007 05 02  1550    54222   57000      0    1.84e+00    0    1.29e+00
2007 05 02  1555    54222   57300      0    1.90e+00    0    1.34e+00
2007 05 02  1600    54222   57600      0    1.89e+00    0    1.32e+00
2007 05 02  1605    54222   57900      0    1.85e+00    0    1.30e+00
2007 05 02  1610    54222   58200      0    1.85e+00    0    1.30e+00
2007 05 02  1615    54222   58500      0    1.84e+00    0    1.29e+00
2007 05 02  1620    54222   58800      0    1.85e+00    0    1.29e+00
2007 05 02  1625    54222   59100      0    1.87e+00    0    1.31e+00
2007 05 02  1630    54222   59400      0    1.86e+00    0    1.28e+00
2007 05 02  1635    54222   59700      0    1.88e+00    0    1.31e+00
2007 05 02  1640    54222   60000      0    1.87e+00    0    1.31e+00
2007 05 02  1645    54222   60300      0    1.86e+00    0    1.29e+00
2007 05 02  1650    54222   60600      0    1.73e+00    0    1.21e+00
2007 05 02  1655    54222   60900      0    1.81e+00    0    1.26e+00
2007 05 02  1700    54222   61200      0    1.85e+00    0    1.30e+00
2007 05 02  1705    54222   61500      0    1.81e+00    0    1.27e+00
2007 05 02  1710    54222   61800      0    1.87e+00    0    1.32e+00
2007 05 02  1715    54222   62100      0    1.87e+00    0    1.31e+00
2007 05 02  1720    54222   62400      0    1.90e+00    0    1.35e+00
2007 05 02  1725    54222   62700      0    1.90e+00    0    1.34e+00
2007 05 02  1730    54222   63000      0    1.85e+00    0    1.29e+00
2007 05 02  1735    54222   63300      0    1.86e+00    0    1.31e+00
2007 05 02  1740    54222   63600      0    1.86e+00    0    1.29e+00
2007 05 02  1745    54222   63900      0    1.84e+00    0    1.29e+00
2007 05 02  1750    54222   64200      0    1.87e+00    0    1.31e+00
2007 05 02  1755    54222   64500      0    1.83e+00    0    1.27e+00
2007 05 02  1800    54222   64800      0    1.86e+00    0    1.30e+00
2007 05 02  1805    54222   65100      0    1.90e+00    0    1.34e+00
2007 05 02  1810    54222   65400      0    1.89e+00    0    1.31e+00
2007 05 02  1815    54222   65700      0    1.86e+00    0    1.30e+00
2007 05 02  1820    54222   66000      0    1.89e+00    0    1.33e+00
2007 05 02  1825    54222   66300      0    1.85e+00    0    1.30e+00
2007 05 02  1830    54222   66600      0    1.86e+00    0    1.30e+00
2007 05 02  1835    54222   66900      0    1.85e+00    0    1.28e+00
2007 05 02  1840    54222   67200      0    1.85e+00    0    1.30e+00
2007 05 02  1845    54222   67500      0    1.86e+00    0    1.30e+00
2007 05 02  1850    54222   67800      0    1.83e+00    0    1.27e+00
2007 05 02  1855    54222   68100      0    1.86e+00    0    1.31e+00
2007 05 02  1900    54222   68400      0    1.87e+00    0    1.32e+00
2007 05 02  1905    54222   68700      0    1.84e+00    0    1.29e+00
2007 05 02  1910    54222   69000      0    1.87e+00    0    1.31e+00
2007 05 02  1915    54222   69300      0    1.84e+00    0    1.28e+00
2007 05 02  1920    54222   69600      0    1.88e+00    0    1.32e+00
2007 05 02  1925    54222   69900      0    1.85e+00    0    1.30e+00
2007 05 02  1930    54222   70200      0    1.86e+00    0    1.29e+00
2007 05 02  1935    54222   70500      0    1.84e+00    0    1.29e+00
2007 05 02  1940    54222   70800      0    1.84e+00    0    1.28e+00
2007 05 02  1945    54222   71100      0    1.87e+00    0    1.31e+00
2007 05 02  1950    54222   71400      0    1.86e+00    0    1.31e+00
2007 05 02  1955    54222   71700      0    1.84e+00    0    1.29e+00
2007 05 02  2000    54222   72000      0    1.86e+00    0    1.30e+00
2007 05 02  2005    54222   72300      0    1.85e+00    0    1.30e+00
2007 05 02  2010    54222   72600      0    1.85e+00    0    1.30e+00
2007 05 02  2015    54222   72900      0    1.85e+00    0    1.29e+00
2007 05 02  2020    54222   73200      0    1.83e+00    0    1.30e+00
2007 05 02  2025    54222   73500      0    1.88e+00    0    1.32e+00
2007 05 02  2030    54222   73800      0    1.83e+00    0    1.29e+00
2007 05 02  2035    54222   74100      0    1.86e+00    0    1.30e+00
2007 05 02  2040    54222   74400      0    1.83e+00    0    1.28e+00
2007 05 02  2045    54222   74700      0    1.86e+00    0    1.28e+00
2007 05 02  2050    54222   75000      0    1.81e+00    0    1.28e+00
2007 05 02  2055    54222   75300      0    1.86e+00    0    1.30e+00
2007 05 02  2100    54222   75600      0    1.87e+00    0    1.31e+00
2007 05 02  2105    54222   75900      0    1.89e+00    0    1.33e+00
2007 05 02  2110    54222   76200      0    1.88e+00    0    1.31e+00
2007 05 02  2115    54222   76500      0    1.87e+00    0    1.30e+00
2007 05 02  2120    54222   76800      0    1.84e+00    0    1.29e+00
2007 05 02  2125    54222   77100      0    1.90e+00    0    1.32e+00
2007 05 02  2130    54222   77400      0    1.86e+00    0    1.31e+00
2007 05 02  2135    54222   77700      0    1.83e+00    0    1.28e+00
2007 05 02  2140    54222   78000      0    1.89e+00    0    1.31e+00
2007 05 02  2145    54222   78300      0    1.84e+00    0    1.29e+00
2007 05 02  2150    54222   78600      0    1.87e+00    0    1.30e+00
2007 05 02  2155    54222   78900      0    1.87e+00    0    1.30e+00
2007 05 02  2200    54222   79200      0    1.85e+00    0    1.29e+00
2007 05 02  2205    54222   79500      0    1.86e+00    0    1.30e+00
2007 05 02  2210    54222   79800      0    1.89e+00    0    1.31e+00
2007 05 02  2215    54222   80100      0    1.82e+00    0    1.27e+00
2007 05 02  2220    54222   80400      0    1.82e+00    0    1.28e+00
2007 05 02  2225    54222   80700      0    1.87e+00    0    1.30e+00
2007 05 02  2230    54222   81000      0    1.86e+00    0    1.30e+00
2007 05 02  2235    54222   81300      0    1.87e+00    0    1.32e+00
2007 05 02  2240    54222   81600      0    1.84e+00    0    1.30e+00
2007 05 02  2245    54222   81900      0    1.76e+00    0    1.23e+00
2007 05 02  2250    54222   82200      0    1.86e+00    0    1.32e+00
2007 05 02  2255    54222   82500      0    1.85e+00    0    1.29e+00
2007 05 02  2300    54222   82800      0    1.85e+00    0    1.30e+00
2007 05 02  2305    54222   83100      0    1.85e+00    0    1.29e+00
2007 05 02  2310    54222   83400      0    1.84e+00    0    1.30e+00
2007 05 02  2315    54222   83700      0    1.88e+00    0    1.33e+00
2007 05 02  2320    54222   84000      0    1.84e+00    0    1.28e+00
2007 05 02  2325    54222   84300      0    1.86e+00    0    1.29e+00
2007 05 02  2330    54222   84600      0    1.86e+00    0    1.30e+00
2007 05 02  2335    54222   84900      0    1.85e+00    0    1.30e+00
2007 05 02  2340    54222   85200      0    1.88e+00    0    1.31e+00
2007 05 02  2345    54222   85500      0    1.88e+00    0    1.31e+00
2007 05 02  2350    54222   85800      0    1.88e+00    0    1.31e+00
2007 05 02  2355    54222   86100      0    1.87e+00    0    1.32e+00
