:Data_list: 20070914_ace_sis_5m.txt
:Created: 2007 Sep 15 0011 UT
# Prepared by the U.S. Dept. of Commerce, NOAA, Space Environment Center.
# Please send comments and suggestions to SEC.Webmaster@noaa.gov 
# 
# Units: proton flux p/cs2-sec-ster
# Status(S): 0 = nominal data, 1 to 8 = bad data record, 9 = no data
# Missing data values: -1.00e+05
# Source: ACE Satellite - Solar Isotope Spectrometer
#
# 5-minute averaged Real-time Integral Flux of High-energy Solar Protons
# 
#                 Modified Seconds
# UT Date   Time   Julian  of the      ---- Integral Proton Flux ----
# YR MO DA  HHMM     Day     Day       S    > 10 MeV    S    > 30 MeV
#--------------------------------------------------------------------
2007 09 14  0000    54357       0      9   -1.00e+05    9   -1.00e+05
2007 09 14  0005    54357     300      9   -1.00e+05    9   -1.00e+05
2007 09 14  0010    54357     600      9   -1.00e+05    9   -1.00e+05
2007 09 14  0015    54357     900      9   -1.00e+05    9   -1.00e+05
2007 09 14  0020    54357    1200      9   -1.00e+05    9   -1.00e+05
2007 09 14  0025    54357    1500      9   -1.00e+05    9   -1.00e+05
2007 09 14  0030    54357    1800      9   -1.00e+05    9   -1.00e+05
2007 09 14  0035    54357    2100      9   -1.00e+05    9   -1.00e+05
2007 09 14  0040    54357    2400      0    2.03e+00    0    1.43e+00
2007 09 14  0045    54357    2700      0    2.10e+00    0    1.47e+00
2007 09 14  0050    54357    3000      9   -1.00e+05    9   -1.00e+05
2007 09 14  0055    54357    3300      9   -1.00e+05    9   -1.00e+05
2007 09 14  0100    54357    3600      9   -1.00e+05    9   -1.00e+05
2007 09 14  0105    54357    3900      9   -1.00e+05    9   -1.00e+05
2007 09 14  0110    54357    4200      9   -1.00e+05    9   -1.00e+05
2007 09 14  0115    54357    4500      9   -1.00e+05    9   -1.00e+05
2007 09 14  0120    54357    4800      9   -1.00e+05    9   -1.00e+05
2007 09 14  0125    54357    5100      0    2.03e+00    0    1.41e+00
2007 09 14  0130    54357    5400      9   -1.00e+05    9   -1.00e+05
2007 09 14  0135    54357    5700      9   -1.00e+05    9   -1.00e+05
2007 09 14  0140    54357    6000      9   -1.00e+05    9   -1.00e+05
2007 09 14  0145    54357    6300      9   -1.00e+05    9   -1.00e+05
2007 09 14  0150    54357    6600      9   -1.00e+05    9   -1.00e+05
2007 09 14  0155    54357    6900      9   -1.00e+05    9   -1.00e+05
2007 09 14  0200    54357    7200      9   -1.00e+05    9   -1.00e+05
2007 09 14  0205    54357    7500      9   -1.00e+05    9   -1.00e+05
2007 09 14  0210    54357    7800      9   -1.00e+05    9   -1.00e+05
2007 09 14  0215    54357    8100      9   -1.00e+05    9   -1.00e+05
2007 09 14  0220    54357    8400      9   -1.00e+05    9   -1.00e+05
2007 09 14  0225    54357    8700      9   -1.00e+05    9   -1.00e+05
2007 09 14  0230    54357    9000      9   -1.00e+05    9   -1.00e+05
2007 09 14  0235    54357    9300      9   -1.00e+05    9   -1.00e+05
2007 09 14  0240    54357    9600      9   -1.00e+05    9   -1.00e+05
2007 09 14  0245    54357    9900      9   -1.00e+05    9   -1.00e+05
2007 09 14  0250    54357   10200      9   -1.00e+05    9   -1.00e+05
2007 09 14  0255    54357   10500      9   -1.00e+05    9   -1.00e+05
2007 09 14  0300    54357   10800      9   -1.00e+05    9   -1.00e+05
2007 09 14  0305    54357   11100      9   -1.00e+05    9   -1.00e+05
2007 09 14  0310    54357   11400      9   -1.00e+05    9   -1.00e+05
2007 09 14  0315    54357   11700      9   -1.00e+05    9   -1.00e+05
2007 09 14  0320    54357   12000      9   -1.00e+05    9   -1.00e+05
2007 09 14  0325    54357   12300      9   -1.00e+05    9   -1.00e+05
2007 09 14  0330    54357   12600      9   -1.00e+05    9   -1.00e+05
2007 09 14  0335    54357   12900      9   -1.00e+05    9   -1.00e+05
2007 09 14  0340    54357   13200      9   -1.00e+05    9   -1.00e+05
2007 09 14  0345    54357   13500      9   -1.00e+05    9   -1.00e+05
2007 09 14  0350    54357   13800      9   -1.00e+05    9   -1.00e+05
2007 09 14  0355    54357   14100      9   -1.00e+05    9   -1.00e+05
2007 09 14  0400    54357   14400      9   -1.00e+05    9   -1.00e+05
2007 09 14  0405    54357   14700      9   -1.00e+05    9   -1.00e+05
2007 09 14  0410    54357   15000      9   -1.00e+05    9   -1.00e+05
2007 09 14  0415    54357   15300      9   -1.00e+05    9   -1.00e+05
2007 09 14  0420    54357   15600      9   -1.00e+05    9   -1.00e+05
2007 09 14  0425    54357   15900      9   -1.00e+05    9   -1.00e+05
2007 09 14  0430    54357   16200      9   -1.00e+05    9   -1.00e+05
2007 09 14  0435    54357   16500      9   -1.00e+05    9   -1.00e+05
2007 09 14  0440    54357   16800      9   -1.00e+05    9   -1.00e+05
2007 09 14  0445    54357   17100      9   -1.00e+05    9   -1.00e+05
2007 09 14  0450    54357   17400      9   -1.00e+05    9   -1.00e+05
2007 09 14  0455    54357   17700      9   -1.00e+05    9   -1.00e+05
2007 09 14  0500    54357   18000      9   -1.00e+05    9   -1.00e+05
2007 09 14  0505    54357   18300      9   -1.00e+05    9   -1.00e+05
2007 09 14  0510    54357   18600      9   -1.00e+05    9   -1.00e+05
2007 09 14  0515    54357   18900      9   -1.00e+05    9   -1.00e+05
2007 09 14  0520    54357   19200      9   -1.00e+05    9   -1.00e+05
2007 09 14  0525    54357   19500      9   -1.00e+05    9   -1.00e+05
2007 09 14  0530    54357   19800      9   -1.00e+05    9   -1.00e+05
2007 09 14  0535    54357   20100      9   -1.00e+05    9   -1.00e+05
2007 09 14  0540    54357   20400      9   -1.00e+05    9   -1.00e+05
2007 09 14  0545    54357   20700      9   -1.00e+05    9   -1.00e+05
2007 09 14  0550    54357   21000      9   -1.00e+05    9   -1.00e+05
2007 09 14  0555    54357   21300      9   -1.00e+05    9   -1.00e+05
2007 09 14  0600    54357   21600      9   -1.00e+05    9   -1.00e+05
2007 09 14  0605    54357   21900      9   -1.00e+05    9   -1.00e+05
2007 09 14  0610    54357   22200      9   -1.00e+05    9   -1.00e+05
2007 09 14  0615    54357   22500      9   -1.00e+05    9   -1.00e+05
2007 09 14  0620    54357   22800      9   -1.00e+05    9   -1.00e+05
2007 09 14  0625    54357   23100      9   -1.00e+05    9   -1.00e+05
2007 09 14  0630    54357   23400      9   -1.00e+05    9   -1.00e+05
2007 09 14  0635    54357   23700      9   -1.00e+05    9   -1.00e+05
2007 09 14  0640    54357   24000      9   -1.00e+05    9   -1.00e+05
2007 09 14  0645    54357   24300      9   -1.00e+05    9   -1.00e+05
2007 09 14  0650    54357   24600      0    1.93e+00    0    1.36e+00
2007 09 14  0655    54357   24900      0    1.99e+00    0    1.38e+00
2007 09 14  0700    54357   25200      0    1.98e+00    0    1.38e+00
2007 09 14  0705    54357   25500      0    2.03e+00    0    1.42e+00
2007 09 14  0710    54357   25800      0    2.03e+00    0    1.43e+00
2007 09 14  0715    54357   26100      0    1.99e+00    0    1.40e+00
2007 09 14  0720    54357   26400      0    2.06e+00    0    1.45e+00
2007 09 14  0725    54357   26700      0    1.99e+00    0    1.37e+00
2007 09 14  0730    54357   27000      0    2.04e+00    0    1.43e+00
2007 09 14  0735    54357   27300      0    1.97e+00    0    1.38e+00
2007 09 14  0740    54357   27600      0    1.98e+00    0    1.38e+00
2007 09 14  0745    54357   27900      0    1.99e+00    0    1.38e+00
2007 09 14  0750    54357   28200      0    2.02e+00    0    1.42e+00
2007 09 14  0755    54357   28500      0    2.04e+00    0    1.42e+00
2007 09 14  0800    54357   28800      0    2.02e+00    0    1.42e+00
2007 09 14  0805    54357   29100      0    1.97e+00    0    1.37e+00
2007 09 14  0810    54357   29400      0    2.02e+00    0    1.41e+00
2007 09 14  0815    54357   29700      0    1.99e+00    0    1.39e+00
2007 09 14  0820    54357   30000      0    2.00e+00    0    1.40e+00
2007 09 14  0825    54357   30300      0    2.02e+00    0    1.42e+00
2007 09 14  0830    54357   30600      0    2.03e+00    0    1.41e+00
2007 09 14  0835    54357   30900      0    1.98e+00    0    1.38e+00
2007 09 14  0840    54357   31200      0    1.99e+00    0    1.40e+00
2007 09 14  0845    54357   31500      0    1.97e+00    0    1.38e+00
2007 09 14  0850    54357   31800      0    1.94e+00    0    1.36e+00
2007 09 14  0855    54357   32100      0    1.97e+00    0    1.37e+00
2007 09 14  0900    54357   32400      0    2.01e+00    0    1.39e+00
2007 09 14  0905    54357   32700      0    2.02e+00    0    1.40e+00
2007 09 14  0910    54357   33000      0    2.01e+00    0    1.41e+00
2007 09 14  0915    54357   33300      0    2.01e+00    0    1.40e+00
2007 09 14  0920    54357   33600      0    2.00e+00    0    1.41e+00
2007 09 14  0925    54357   33900      0    2.02e+00    0    1.40e+00
2007 09 14  0930    54357   34200      0    1.99e+00    0    1.39e+00
2007 09 14  0935    54357   34500      0    1.98e+00    0    1.40e+00
2007 09 14  0940    54357   34800      0    1.98e+00    0    1.38e+00
2007 09 14  0945    54357   35100      0    1.98e+00    0    1.38e+00
2007 09 14  0950    54357   35400      0    1.98e+00    0    1.38e+00
2007 09 14  0955    54357   35700      0    2.01e+00    0    1.41e+00
2007 09 14  1000    54357   36000      0    1.99e+00    0    1.39e+00
2007 09 14  1005    54357   36300      0    2.02e+00    0    1.41e+00
2007 09 14  1010    54357   36600      0    1.99e+00    0    1.38e+00
2007 09 14  1015    54357   36900      0    2.02e+00    0    1.41e+00
2007 09 14  1020    54357   37200      0    2.07e+00    0    1.46e+00
2007 09 14  1025    54357   37500      0    1.89e+00    0    1.32e+00
2007 09 14  1030    54357   37800      0    2.01e+00    0    1.40e+00
2007 09 14  1035    54357   38100      0    1.98e+00    0    1.39e+00
2007 09 14  1040    54357   38400      0    2.02e+00    0    1.41e+00
2007 09 14  1045    54357   38700      0    2.00e+00    0    1.40e+00
2007 09 14  1050    54357   39000      0    1.97e+00    0    1.38e+00
2007 09 14  1055    54357   39300      0    2.00e+00    0    1.39e+00
2007 09 14  1100    54357   39600      0    2.02e+00    0    1.40e+00
2007 09 14  1105    54357   39900      0    2.02e+00    0    1.40e+00
2007 09 14  1110    54357   40200      0    1.96e+00    0    1.37e+00
2007 09 14  1115    54357   40500      0    1.91e+00    0    1.33e+00
2007 09 14  1120    54357   40800      0    1.97e+00    0    1.39e+00
2007 09 14  1125    54357   41100      0    1.98e+00    0    1.38e+00
2007 09 14  1130    54357   41400      0    1.95e+00    0    1.37e+00
2007 09 14  1135    54357   41700      0    2.01e+00    0    1.41e+00
2007 09 14  1140    54357   42000      0    2.00e+00    0    1.39e+00
2007 09 14  1145    54357   42300      0    1.99e+00    0    1.38e+00
2007 09 14  1150    54357   42600      0    1.99e+00    0    1.39e+00
2007 09 14  1155    54357   42900      0    1.95e+00    0    1.36e+00
2007 09 14  1200    54357   43200      0    1.97e+00    0    1.38e+00
2007 09 14  1205    54357   43500      0    2.00e+00    0    1.40e+00
2007 09 14  1210    54357   43800      0    1.96e+00    0    1.37e+00
2007 09 14  1215    54357   44100      0    2.02e+00    0    1.42e+00
2007 09 14  1220    54357   44400      0    2.01e+00    0    1.42e+00
2007 09 14  1225    54357   44700      0    1.99e+00    0    1.39e+00
2007 09 14  1230    54357   45000      0    2.00e+00    0    1.40e+00
2007 09 14  1235    54357   45300      0    1.95e+00    0    1.36e+00
2007 09 14  1240    54357   45600      0    1.97e+00    0    1.37e+00
2007 09 14  1245    54357   45900      0    2.03e+00    0    1.42e+00
2007 09 14  1250    54357   46200      0    1.98e+00    0    1.39e+00
2007 09 14  1255    54357   46500      0    2.00e+00    0    1.40e+00
2007 09 14  1300    54357   46800      0    1.98e+00    0    1.39e+00
2007 09 14  1305    54357   47100      0    2.03e+00    0    1.41e+00
2007 09 14  1310    54357   47400      0    2.02e+00    0    1.42e+00
2007 09 14  1315    54357   47700      0    2.01e+00    0    1.40e+00
2007 09 14  1320    54357   48000      0    1.99e+00    0    1.40e+00
2007 09 14  1325    54357   48300      0    1.98e+00    0    1.40e+00
2007 09 14  1330    54357   48600      0    2.00e+00    0    1.41e+00
2007 09 14  1335    54357   48900      0    1.98e+00    0    1.37e+00
2007 09 14  1340    54357   49200      0    1.99e+00    0    1.39e+00
2007 09 14  1345    54357   49500      0    2.01e+00    0    1.41e+00
2007 09 14  1350    54357   49800      0    2.01e+00    0    1.40e+00
2007 09 14  1355    54357   50100      0    2.03e+00    0    1.42e+00
2007 09 14  1400    54357   50400      0    2.01e+00    0    1.42e+00
2007 09 14  1405    54357   50700      0    1.97e+00    0    1.37e+00
2007 09 14  1410    54357   51000      0    2.00e+00    0    1.40e+00
2007 09 14  1415    54357   51300      0    2.05e+00    0    1.44e+00
2007 09 14  1420    54357   51600      0    2.04e+00    0    1.42e+00
2007 09 14  1425    54357   51900      0    2.05e+00    0    1.43e+00
2007 09 14  1430    54357   52200      0    2.02e+00    0    1.41e+00
2007 09 14  1435    54357   52500      0    2.01e+00    0    1.40e+00
2007 09 14  1440    54357   52800      0    2.02e+00    0    1.41e+00
2007 09 14  1445    54357   53100      0    1.99e+00    0    1.41e+00
2007 09 14  1450    54357   53400      0    1.99e+00    0    1.39e+00
2007 09 14  1455    54357   53700      0    2.03e+00    0    1.42e+00
2007 09 14  1500    54357   54000      0    2.00e+00    0    1.39e+00
2007 09 14  1505    54357   54300      0    2.03e+00    0    1.41e+00
2007 09 14  1510    54357   54600      0    1.99e+00    0    1.40e+00
2007 09 14  1515    54357   54900      0    1.99e+00    0    1.39e+00
2007 09 14  1520    54357   55200      0    2.02e+00    0    1.42e+00
2007 09 14  1525    54357   55500      0    2.02e+00    0    1.40e+00
2007 09 14  1530    54357   55800      0    2.04e+00    0    1.42e+00
2007 09 14  1535    54357   56100      0    2.03e+00    0    1.42e+00
2007 09 14  1540    54357   56400      0    2.00e+00    0    1.40e+00
2007 09 14  1545    54357   56700      0    2.03e+00    0    1.42e+00
2007 09 14  1550    54357   57000      0    1.99e+00    0    1.39e+00
2007 09 14  1555    54357   57300      0    2.03e+00    0    1.41e+00
2007 09 14  1600    54357   57600      0    1.99e+00    0    1.39e+00
2007 09 14  1605    54357   57900      0    2.02e+00    0    1.41e+00
2007 09 14  1610    54357   58200      0    2.05e+00    0    1.43e+00
2007 09 14  1615    54357   58500      0    2.03e+00    0    1.41e+00
2007 09 14  1620    54357   58800      0    1.97e+00    0    1.37e+00
2007 09 14  1625    54357   59100      0    1.99e+00    0    1.39e+00
2007 09 14  1630    54357   59400      0    2.04e+00    0    1.43e+00
2007 09 14  1635    54357   59700      0    2.08e+00    0    1.44e+00
2007 09 14  1640    54357   60000      0    2.04e+00    0    1.42e+00
2007 09 14  1645    54357   60300      0    1.97e+00    0    1.36e+00
2007 09 14  1650    54357   60600      0    1.99e+00    0    1.40e+00
2007 09 14  1655    54357   60900      0    1.93e+00    0    1.35e+00
2007 09 14  1700    54357   61200      0    1.96e+00    0    1.38e+00
2007 09 14  1705    54357   61500      0    1.95e+00    0    1.36e+00
2007 09 14  1710    54357   61800      0    1.99e+00    0    1.40e+00
2007 09 14  1715    54357   62100      0    2.00e+00    0    1.40e+00
2007 09 14  1720    54357   62400      0    2.02e+00    0    1.42e+00
2007 09 14  1725    54357   62700      0    1.98e+00    0    1.39e+00
2007 09 14  1730    54357   63000      0    1.99e+00    0    1.39e+00
2007 09 14  1735    54357   63300      0    2.01e+00    0    1.40e+00
2007 09 14  1740    54357   63600      0    2.00e+00    0    1.38e+00
2007 09 14  1745    54357   63900      0    1.94e+00    0    1.36e+00
2007 09 14  1750    54357   64200      0    2.02e+00    0    1.42e+00
2007 09 14  1755    54357   64500      0    2.03e+00    0    1.42e+00
2007 09 14  1800    54357   64800      0    1.99e+00    0    1.39e+00
2007 09 14  1805    54357   65100      0    1.98e+00    0    1.37e+00
2007 09 14  1810    54357   65400      0    1.95e+00    0    1.37e+00
2007 09 14  1815    54357   65700      0    1.98e+00    0    1.37e+00
2007 09 14  1820    54357   66000      0    1.95e+00    0    1.37e+00
2007 09 14  1825    54357   66300      0    1.96e+00    0    1.37e+00
2007 09 14  1830    54357   66600      0    1.98e+00    0    1.38e+00
2007 09 14  1835    54357   66900      0    2.01e+00    0    1.41e+00
2007 09 14  1840    54357   67200      0    1.97e+00    0    1.37e+00
2007 09 14  1845    54357   67500      0    1.96e+00    0    1.37e+00
2007 09 14  1850    54357   67800      0    1.98e+00    0    1.39e+00
2007 09 14  1855    54357   68100      0    1.95e+00    0    1.37e+00
2007 09 14  1900    54357   68400      0    1.98e+00    0    1.39e+00
2007 09 14  1905    54357   68700      0    1.98e+00    0    1.39e+00
2007 09 14  1910    54357   69000      0    1.96e+00    0    1.36e+00
2007 09 14  1915    54357   69300      0    1.99e+00    0    1.39e+00
2007 09 14  1920    54357   69600      0    1.99e+00    0    1.39e+00
2007 09 14  1925    54357   69900      0    1.92e+00    0    1.34e+00
2007 09 14  1930    54357   70200      0    1.93e+00    0    1.35e+00
2007 09 14  1935    54357   70500      0    1.96e+00    0    1.36e+00
2007 09 14  1940    54357   70800      0    1.98e+00    0    1.39e+00
2007 09 14  1945    54357   71100      0    1.97e+00    0    1.39e+00
2007 09 14  1950    54357   71400      0    1.95e+00    0    1.36e+00
2007 09 14  1955    54357   71700      0    2.01e+00    0    1.41e+00
2007 09 14  2000    54357   72000      0    1.96e+00    0    1.37e+00
2007 09 14  2005    54357   72300      0    1.99e+00    0    1.40e+00
2007 09 14  2010    54357   72600      0    1.97e+00    0    1.37e+00
2007 09 14  2015    54357   72900      0    1.99e+00    0    1.40e+00
2007 09 14  2020    54357   73200      0    1.97e+00    0    1.38e+00
2007 09 14  2025    54357   73500      0    2.05e+00    0    1.44e+00
2007 09 14  2030    54357   73800      0    1.96e+00    0    1.38e+00
2007 09 14  2035    54357   74100      0    1.97e+00    0    1.37e+00
2007 09 14  2040    54357   74400      0    1.94e+00    0    1.36e+00
2007 09 14  2045    54357   74700      0    1.96e+00    0    1.38e+00
2007 09 14  2050    54357   75000      0    1.93e+00    0    1.36e+00
2007 09 14  2055    54357   75300      0    2.02e+00    0    1.42e+00
2007 09 14  2100    54357   75600      0    1.99e+00    0    1.38e+00
2007 09 14  2105    54357   75900      0    1.98e+00    0    1.39e+00
2007 09 14  2110    54357   76200      0    1.95e+00    0    1.36e+00
2007 09 14  2115    54357   76500      0    1.93e+00    0    1.35e+00
2007 09 14  2120    54357   76800      0    1.94e+00    0    1.35e+00
2007 09 14  2125    54357   77100      0    1.95e+00    0    1.37e+00
2007 09 14  2130    54357   77400      0    1.98e+00    0    1.40e+00
2007 09 14  2135    54357   77700      0    1.95e+00    0    1.37e+00
2007 09 14  2140    54357   78000      0    1.94e+00    0    1.35e+00
2007 09 14  2145    54357   78300      0    2.00e+00    0    1.40e+00
2007 09 14  2150    54357   78600      0    2.00e+00    0    1.40e+00
2007 09 14  2155    54357   78900      0    1.96e+00    0    1.37e+00
2007 09 14  2200    54357   79200      0    1.98e+00    0    1.38e+00
2007 09 14  2205    54357   79500      0    1.96e+00    0    1.36e+00
2007 09 14  2210    54357   79800      0    1.98e+00    0    1.38e+00
2007 09 14  2215    54357   80100      0    1.94e+00    0    1.35e+00
2007 09 14  2220    54357   80400      0    1.96e+00    0    1.38e+00
2007 09 14  2225    54357   80700      0    1.95e+00    0    1.35e+00
2007 09 14  2230    54357   81000      0    1.93e+00    0    1.34e+00
2007 09 14  2235    54357   81300      0    1.96e+00    0    1.38e+00
2007 09 14  2240    54357   81600      0    1.99e+00    0    1.39e+00
2007 09 14  2245    54357   81900      0    2.08e+00    0    1.49e+00
2007 09 14  2250    54357   82200      0    1.98e+00    0    1.38e+00
2007 09 14  2255    54357   82500      0    1.97e+00    0    1.37e+00
2007 09 14  2300    54357   82800      0    1.93e+00    0    1.36e+00
2007 09 14  2305    54357   83100      0    1.99e+00    0    1.38e+00
2007 09 14  2310    54357   83400      0    1.97e+00    0    1.37e+00
2007 09 14  2315    54357   83700      0    1.98e+00    0    1.38e+00
2007 09 14  2320    54357   84000      0    1.95e+00    0    1.36e+00
2007 09 14  2325    54357   84300      0    1.95e+00    0    1.36e+00
2007 09 14  2330    54357   84600      0    1.98e+00    0    1.39e+00
2007 09 14  2335    54357   84900      0    1.95e+00    0    1.35e+00
2007 09 14  2340    54357   85200      0    1.97e+00    0    1.37e+00
2007 09 14  2345    54357   85500      0    1.98e+00    0    1.39e+00
2007 09 14  2350    54357   85800      0    1.96e+00    0    1.37e+00
2007 09 14  2355    54357   86100      0    1.91e+00    0    1.34e+00
