:Data_list: 20070505_ace_sis_5m.txt
:Created: 2007 May 06 0011 UT
# Prepared by the U.S. Dept. of Commerce, NOAA, Space Environment Center.
# Please send comments and suggestions to SEC.Webmaster@noaa.gov 
# 
# Units: proton flux p/cs2-sec-ster
# Status(S): 0 = nominal data, 1 to 8 = bad data record, 9 = no data
# Missing data values: -1.00e+05
# Source: ACE Satellite - Solar Isotope Spectrometer
#
# 5-minute averaged Real-time Integral Flux of High-energy Solar Protons
# 
#                 Modified Seconds
# UT Date   Time   Julian  of the      ---- Integral Proton Flux ----
# YR MO DA  HHMM     Day     Day       S    > 10 MeV    S    > 30 MeV
#--------------------------------------------------------------------
2007 05 05  0000    54225       0      0    1.90e+00    0    1.33e+00
2007 05 05  0005    54225     300      0    1.89e+00    0    1.32e+00
2007 05 05  0010    54225     600      0    1.91e+00    0    1.33e+00
2007 05 05  0015    54225     900      0    1.88e+00    0    1.32e+00
2007 05 05  0020    54225    1200      0    1.86e+00    0    1.30e+00
2007 05 05  0025    54225    1500      0    1.85e+00    0    1.29e+00
2007 05 05  0030    54225    1800      0    1.88e+00    0    1.32e+00
2007 05 05  0035    54225    2100      0    1.85e+00    0    1.30e+00
2007 05 05  0040    54225    2400      0    1.85e+00    0    1.29e+00
2007 05 05  0045    54225    2700      0    1.85e+00    0    1.28e+00
2007 05 05  0050    54225    3000      0    1.86e+00    0    1.31e+00
2007 05 05  0055    54225    3300      0    1.91e+00    0    1.33e+00
2007 05 05  0100    54225    3600      0    1.84e+00    0    1.29e+00
2007 05 05  0105    54225    3900      0    1.88e+00    0    1.31e+00
2007 05 05  0110    54225    4200      0    1.86e+00    0    1.29e+00
2007 05 05  0115    54225    4500      0    1.86e+00    0    1.29e+00
2007 05 05  0120    54225    4800      0    1.89e+00    0    1.32e+00
2007 05 05  0125    54225    5100      0    1.87e+00    0    1.32e+00
2007 05 05  0130    54225    5400      0    1.87e+00    0    1.31e+00
2007 05 05  0135    54225    5700      0    1.87e+00    0    1.31e+00
2007 05 05  0140    54225    6000      0    1.82e+00    0    1.26e+00
2007 05 05  0145    54225    6300      0    1.86e+00    0    1.29e+00
2007 05 05  0150    54225    6600      0    1.86e+00    0    1.31e+00
2007 05 05  0155    54225    6900      0    1.86e+00    0    1.30e+00
2007 05 05  0200    54225    7200      0    1.85e+00    0    1.30e+00
2007 05 05  0205    54225    7500      0    1.87e+00    0    1.31e+00
2007 05 05  0210    54225    7800      0    1.84e+00    0    1.28e+00
2007 05 05  0215    54225    8100      0    1.89e+00    0    1.32e+00
2007 05 05  0220    54225    8400      0    1.90e+00    0    1.34e+00
2007 05 05  0225    54225    8700      0    1.88e+00    0    1.31e+00
2007 05 05  0230    54225    9000      0    1.89e+00    0    1.33e+00
2007 05 05  0235    54225    9300      0    1.88e+00    0    1.31e+00
2007 05 05  0240    54225    9600      0    1.88e+00    0    1.31e+00
2007 05 05  0245    54225    9900      0    1.86e+00    0    1.30e+00
2007 05 05  0250    54225   10200      0    1.90e+00    0    1.31e+00
2007 05 05  0255    54225   10500      0    1.92e+00    0    1.35e+00
2007 05 05  0300    54225   10800      0    1.87e+00    0    1.31e+00
2007 05 05  0305    54225   11100      0    1.91e+00    0    1.34e+00
2007 05 05  0310    54225   11400      0    1.86e+00    0    1.29e+00
2007 05 05  0315    54225   11700      0    1.83e+00    0    1.28e+00
2007 05 05  0320    54225   12000      0    1.86e+00    0    1.30e+00
2007 05 05  0325    54225   12300      0    1.92e+00    0    1.34e+00
2007 05 05  0330    54225   12600      0    1.90e+00    0    1.32e+00
2007 05 05  0335    54225   12900      0    1.84e+00    0    1.28e+00
2007 05 05  0340    54225   13200      0    1.87e+00    0    1.31e+00
2007 05 05  0345    54225   13500      0    1.89e+00    0    1.34e+00
2007 05 05  0350    54225   13800      0    1.89e+00    0    1.32e+00
2007 05 05  0355    54225   14100      0    1.87e+00    0    1.31e+00
2007 05 05  0400    54225   14400      0    1.90e+00    0    1.31e+00
2007 05 05  0405    54225   14700      0    1.87e+00    0    1.29e+00
2007 05 05  0410    54225   15000      0    1.90e+00    0    1.32e+00
2007 05 05  0415    54225   15300      0    1.88e+00    0    1.31e+00
2007 05 05  0420    54225   15600      0    1.89e+00    0    1.32e+00
2007 05 05  0425    54225   15900      0    1.82e+00    0    1.28e+00
2007 05 05  0430    54225   16200      0    1.85e+00    0    1.29e+00
2007 05 05  0435    54225   16500      0    1.90e+00    0    1.33e+00
2007 05 05  0440    54225   16800      0    1.87e+00    0    1.31e+00
2007 05 05  0445    54225   17100      0    1.86e+00    0    1.30e+00
2007 05 05  0450    54225   17400      0    1.88e+00    0    1.31e+00
2007 05 05  0455    54225   17700      0    1.88e+00    0    1.31e+00
2007 05 05  0500    54225   18000      0    1.90e+00    0    1.32e+00
2007 05 05  0505    54225   18300      0    1.85e+00    0    1.31e+00
2007 05 05  0510    54225   18600      0    1.88e+00    0    1.31e+00
2007 05 05  0515    54225   18900      0    1.92e+00    0    1.34e+00
2007 05 05  0520    54225   19200      0    1.84e+00    0    1.29e+00
2007 05 05  0525    54225   19500      0    1.89e+00    0    1.32e+00
2007 05 05  0530    54225   19800      0    1.85e+00    0    1.30e+00
2007 05 05  0535    54225   20100      0    1.86e+00    0    1.31e+00
2007 05 05  0540    54225   20400      0    1.87e+00    0    1.32e+00
2007 05 05  0545    54225   20700      0    1.86e+00    0    1.31e+00
2007 05 05  0550    54225   21000      0    1.87e+00    0    1.30e+00
2007 05 05  0555    54225   21300      0    1.89e+00    0    1.33e+00
2007 05 05  0600    54225   21600      0    1.87e+00    0    1.32e+00
2007 05 05  0605    54225   21900      0    1.90e+00    0    1.33e+00
2007 05 05  0610    54225   22200      0    1.86e+00    0    1.31e+00
2007 05 05  0615    54225   22500      0    1.90e+00    0    1.33e+00
2007 05 05  0620    54225   22800      0    1.90e+00    0    1.33e+00
2007 05 05  0625    54225   23100      0    1.87e+00    0    1.31e+00
2007 05 05  0630    54225   23400      0    1.90e+00    0    1.34e+00
2007 05 05  0635    54225   23700      0    1.87e+00    0    1.31e+00
2007 05 05  0640    54225   24000      0    1.89e+00    0    1.33e+00
2007 05 05  0645    54225   24300      0    1.89e+00    0    1.32e+00
2007 05 05  0650    54225   24600      0    1.86e+00    0    1.30e+00
2007 05 05  0655    54225   24900      0    1.88e+00    0    1.32e+00
2007 05 05  0700    54225   25200      0    1.85e+00    0    1.30e+00
2007 05 05  0705    54225   25500      0    1.87e+00    0    1.31e+00
2007 05 05  0710    54225   25800      0    1.92e+00    0    1.34e+00
2007 05 05  0715    54225   26100      0    1.87e+00    0    1.30e+00
2007 05 05  0720    54225   26400      0    1.87e+00    0    1.31e+00
2007 05 05  0725    54225   26700      0    1.88e+00    0    1.32e+00
2007 05 05  0730    54225   27000      0    1.87e+00    0    1.30e+00
2007 05 05  0735    54225   27300      0    1.88e+00    0    1.32e+00
2007 05 05  0740    54225   27600      0    1.88e+00    0    1.32e+00
2007 05 05  0745    54225   27900      0    1.88e+00    0    1.32e+00
2007 05 05  0750    54225   28200      0    1.92e+00    0    1.34e+00
2007 05 05  0755    54225   28500      0    1.87e+00    0    1.30e+00
2007 05 05  0800    54225   28800      0    1.89e+00    0    1.32e+00
2007 05 05  0805    54225   29100      0    1.90e+00    0    1.33e+00
2007 05 05  0810    54225   29400      0    1.93e+00    0    1.34e+00
2007 05 05  0815    54225   29700      0    1.89e+00    0    1.32e+00
2007 05 05  0820    54225   30000      0    1.87e+00    0    1.30e+00
2007 05 05  0825    54225   30300      0    1.87e+00    0    1.29e+00
2007 05 05  0830    54225   30600      0    1.90e+00    0    1.33e+00
2007 05 05  0835    54225   30900      0    1.91e+00    0    1.33e+00
2007 05 05  0840    54225   31200      0    1.86e+00    0    1.30e+00
2007 05 05  0845    54225   31500      0    1.91e+00    0    1.34e+00
2007 05 05  0850    54225   31800      0    1.90e+00    0    1.33e+00
2007 05 05  0855    54225   32100      0    1.89e+00    0    1.33e+00
2007 05 05  0900    54225   32400      0    1.88e+00    0    1.32e+00
2007 05 05  0905    54225   32700      0    1.90e+00    0    1.32e+00
2007 05 05  0910    54225   33000      0    1.87e+00    0    1.32e+00
2007 05 05  0915    54225   33300      0    1.86e+00    0    1.31e+00
2007 05 05  0920    54225   33600      0    1.85e+00    0    1.30e+00
2007 05 05  0925    54225   33900      0    1.86e+00    0    1.29e+00
2007 05 05  0930    54225   34200      0    1.90e+00    0    1.33e+00
2007 05 05  0935    54225   34500      0    1.89e+00    0    1.32e+00
2007 05 05  0940    54225   34800      0    1.87e+00    0    1.32e+00
2007 05 05  0945    54225   35100      0    1.86e+00    0    1.30e+00
2007 05 05  0950    54225   35400      0    1.86e+00    0    1.29e+00
2007 05 05  0955    54225   35700      0    1.87e+00    0    1.32e+00
2007 05 05  1000    54225   36000      0    1.93e+00    0    1.35e+00
2007 05 05  1005    54225   36300      0    1.92e+00    0    1.34e+00
2007 05 05  1010    54225   36600      0    1.91e+00    0    1.34e+00
2007 05 05  1015    54225   36900      0    1.87e+00    0    1.31e+00
2007 05 05  1020    54225   37200      0    1.88e+00    0    1.31e+00
2007 05 05  1025    54225   37500      0    1.88e+00    0    1.33e+00
2007 05 05  1030    54225   37800      0    1.89e+00    0    1.32e+00
2007 05 05  1035    54225   38100      0    1.85e+00    0    1.31e+00
2007 05 05  1040    54225   38400      0    1.90e+00    0    1.33e+00
2007 05 05  1045    54225   38700      0    1.85e+00    0    1.29e+00
2007 05 05  1050    54225   39000      0    1.87e+00    0    1.32e+00
2007 05 05  1055    54225   39300      0    1.86e+00    0    1.30e+00
2007 05 05  1100    54225   39600      0    1.86e+00    0    1.29e+00
2007 05 05  1105    54225   39900      0    1.91e+00    0    1.33e+00
2007 05 05  1110    54225   40200      0    1.87e+00    0    1.31e+00
2007 05 05  1115    54225   40500      0    1.87e+00    0    1.32e+00
2007 05 05  1120    54225   40800      0    1.89e+00    0    1.32e+00
2007 05 05  1125    54225   41100      0    1.84e+00    0    1.28e+00
2007 05 05  1130    54225   41400      0    1.88e+00    0    1.30e+00
2007 05 05  1135    54225   41700      0    1.87e+00    0    1.31e+00
2007 05 05  1140    54225   42000      0    1.88e+00    0    1.32e+00
2007 05 05  1145    54225   42300      0    1.87e+00    0    1.29e+00
2007 05 05  1150    54225   42600      0    1.85e+00    0    1.29e+00
2007 05 05  1155    54225   42900      0    1.88e+00    0    1.32e+00
2007 05 05  1200    54225   43200      0    1.85e+00    0    1.30e+00
2007 05 05  1205    54225   43500      0    1.85e+00    0    1.29e+00
2007 05 05  1210    54225   43800      0    1.88e+00    0    1.33e+00
2007 05 05  1215    54225   44100      0    1.88e+00    0    1.31e+00
2007 05 05  1220    54225   44400      0    1.84e+00    0    1.28e+00
2007 05 05  1225    54225   44700      0    1.87e+00    0    1.31e+00
2007 05 05  1230    54225   45000      0    1.88e+00    0    1.31e+00
2007 05 05  1235    54225   45300      0    1.86e+00    0    1.31e+00
2007 05 05  1240    54225   45600      0    1.92e+00    0    1.34e+00
2007 05 05  1245    54225   45900      0    1.90e+00    0    1.32e+00
2007 05 05  1250    54225   46200      0    1.86e+00    0    1.30e+00
2007 05 05  1255    54225   46500      0    1.89e+00    0    1.34e+00
2007 05 05  1300    54225   46800      0    1.92e+00    0    1.35e+00
2007 05 05  1305    54225   47100      0    1.91e+00    0    1.33e+00
2007 05 05  1310    54225   47400      0    1.87e+00    0    1.30e+00
2007 05 05  1315    54225   47700      0    1.89e+00    0    1.32e+00
2007 05 05  1320    54225   48000      0    1.91e+00    0    1.33e+00
2007 05 05  1325    54225   48300      0    1.90e+00    0    1.33e+00
2007 05 05  1330    54225   48600      0    1.91e+00    0    1.33e+00
2007 05 05  1335    54225   48900      0    1.92e+00    0    1.34e+00
2007 05 05  1340    54225   49200      0    1.88e+00    0    1.32e+00
2007 05 05  1345    54225   49500      0    1.87e+00    0    1.32e+00
2007 05 05  1350    54225   49800      0    1.92e+00    0    1.35e+00
2007 05 05  1355    54225   50100      0    1.86e+00    0    1.29e+00
2007 05 05  1400    54225   50400      0    1.87e+00    0    1.31e+00
2007 05 05  1405    54225   50700      0    1.87e+00    0    1.30e+00
2007 05 05  1410    54225   51000      0    1.87e+00    0    1.31e+00
2007 05 05  1415    54225   51300      0    1.90e+00    0    1.34e+00
2007 05 05  1420    54225   51600      0    1.87e+00    0    1.30e+00
2007 05 05  1425    54225   51900      0    1.86e+00    0    1.30e+00
2007 05 05  1430    54225   52200      0    1.86e+00    0    1.29e+00
2007 05 05  1435    54225   52500      0    1.89e+00    0    1.33e+00
2007 05 05  1440    54225   52800      0    1.90e+00    0    1.33e+00
2007 05 05  1445    54225   53100      0    1.91e+00    0    1.33e+00
2007 05 05  1450    54225   53400      0    1.87e+00    0    1.30e+00
2007 05 05  1455    54225   53700      0    1.86e+00    0    1.30e+00
2007 05 05  1500    54225   54000      0    1.88e+00    0    1.33e+00
2007 05 05  1505    54225   54300      0    1.91e+00    0    1.33e+00
2007 05 05  1510    54225   54600      0    1.91e+00    0    1.35e+00
2007 05 05  1515    54225   54900      0    1.89e+00    0    1.33e+00
2007 05 05  1520    54225   55200      0    1.85e+00    0    1.30e+00
2007 05 05  1525    54225   55500      0    1.83e+00    0    1.27e+00
2007 05 05  1530    54225   55800      0    1.87e+00    0    1.31e+00
2007 05 05  1535    54225   56100      0    1.84e+00    0    1.28e+00
2007 05 05  1540    54225   56400      0    1.90e+00    0    1.32e+00
2007 05 05  1545    54225   56700      0    1.85e+00    0    1.31e+00
2007 05 05  1550    54225   57000      0    1.88e+00    0    1.33e+00
2007 05 05  1555    54225   57300      0    1.90e+00    0    1.32e+00
2007 05 05  1600    54225   57600      0    1.87e+00    0    1.30e+00
2007 05 05  1605    54225   57900      0    1.89e+00    0    1.31e+00
2007 05 05  1610    54225   58200      0    1.91e+00    0    1.32e+00
2007 05 05  1615    54225   58500      0    1.90e+00    0    1.33e+00
2007 05 05  1620    54225   58800      0    1.89e+00    0    1.33e+00
2007 05 05  1625    54225   59100      0    1.87e+00    0    1.32e+00
2007 05 05  1630    54225   59400      0    1.88e+00    0    1.31e+00
2007 05 05  1635    54225   59700      0    1.90e+00    0    1.33e+00
2007 05 05  1640    54225   60000      0    1.88e+00    0    1.32e+00
2007 05 05  1645    54225   60300      0    1.90e+00    0    1.32e+00
2007 05 05  1650    54225   60600      0    1.92e+00    0    1.32e+00
2007 05 05  1655    54225   60900      0    1.88e+00    0    1.31e+00
2007 05 05  1700    54225   61200      0    1.88e+00    0    1.32e+00
2007 05 05  1705    54225   61500      0    1.94e+00    0    1.36e+00
2007 05 05  1710    54225   61800      0    1.88e+00    0    1.31e+00
2007 05 05  1715    54225   62100      0    1.84e+00    0    1.30e+00
2007 05 05  1720    54225   62400      0    1.91e+00    0    1.33e+00
2007 05 05  1725    54225   62700      0    1.90e+00    0    1.33e+00
2007 05 05  1730    54225   63000      0    1.90e+00    0    1.33e+00
2007 05 05  1735    54225   63300      0    1.83e+00    0    1.27e+00
2007 05 05  1740    54225   63600      0    1.90e+00    0    1.33e+00
2007 05 05  1745    54225   63900      0    1.91e+00    0    1.33e+00
2007 05 05  1750    54225   64200      0    1.89e+00    0    1.33e+00
2007 05 05  1755    54225   64500      0    1.94e+00    0    1.34e+00
2007 05 05  1800    54225   64800      0    1.91e+00    0    1.33e+00
2007 05 05  1805    54225   65100      0    1.88e+00    0    1.32e+00
2007 05 05  1810    54225   65400      0    1.85e+00    0    1.28e+00
2007 05 05  1815    54225   65700      0    1.85e+00    0    1.30e+00
2007 05 05  1820    54225   66000      0    1.90e+00    0    1.34e+00
2007 05 05  1825    54225   66300      0    1.90e+00    0    1.32e+00
2007 05 05  1830    54225   66600      0    1.89e+00    0    1.32e+00
2007 05 05  1835    54225   66900      0    1.90e+00    0    1.33e+00
2007 05 05  1840    54225   67200      0    1.83e+00    0    1.27e+00
2007 05 05  1845    54225   67500      0    1.84e+00    0    1.29e+00
2007 05 05  1850    54225   67800      0    1.89e+00    0    1.33e+00
2007 05 05  1855    54225   68100      0    1.91e+00    0    1.34e+00
2007 05 05  1900    54225   68400      0    1.85e+00    0    1.30e+00
2007 05 05  1905    54225   68700      0    1.89e+00    0    1.32e+00
2007 05 05  1910    54225   69000      0    1.89e+00    0    1.32e+00
2007 05 05  1915    54225   69300      0    1.92e+00    0    1.35e+00
2007 05 05  1920    54225   69600      0    1.91e+00    0    1.35e+00
2007 05 05  1925    54225   69900      0    1.81e+00    0    1.27e+00
2007 05 05  1930    54225   70200      0    1.88e+00    0    1.32e+00
2007 05 05  1935    54225   70500      0    1.84e+00    0    1.28e+00
2007 05 05  1940    54225   70800      0    1.89e+00    0    1.32e+00
2007 05 05  1945    54225   71100      0    1.89e+00    0    1.32e+00
2007 05 05  1950    54225   71400      0    1.88e+00    0    1.32e+00
2007 05 05  1955    54225   71700      0    1.88e+00    0    1.31e+00
2007 05 05  2000    54225   72000      0    1.91e+00    0    1.32e+00
2007 05 05  2005    54225   72300      0    1.93e+00    0    1.35e+00
2007 05 05  2010    54225   72600      0    1.90e+00    0    1.32e+00
2007 05 05  2015    54225   72900      0    1.89e+00    0    1.32e+00
2007 05 05  2020    54225   73200      0    1.95e+00    0    1.36e+00
2007 05 05  2025    54225   73500      0    1.90e+00    0    1.33e+00
2007 05 05  2030    54225   73800      0    1.92e+00    0    1.35e+00
2007 05 05  2035    54225   74100      0    1.89e+00    0    1.31e+00
2007 05 05  2040    54225   74400      0    1.92e+00    0    1.35e+00
2007 05 05  2045    54225   74700      0    1.89e+00    0    1.33e+00
2007 05 05  2050    54225   75000      0    1.89e+00    0    1.34e+00
2007 05 05  2055    54225   75300      0    1.86e+00    0    1.30e+00
2007 05 05  2100    54225   75600      0    1.88e+00    0    1.34e+00
2007 05 05  2105    54225   75900      0    1.85e+00    0    1.29e+00
2007 05 05  2110    54225   76200      0    1.89e+00    0    1.32e+00
2007 05 05  2115    54225   76500      0    1.90e+00    0    1.34e+00
2007 05 05  2120    54225   76800      0    1.87e+00    0    1.31e+00
2007 05 05  2125    54225   77100      0    1.91e+00    0    1.35e+00
2007 05 05  2130    54225   77400      0    1.92e+00    0    1.34e+00
2007 05 05  2135    54225   77700      0    1.88e+00    0    1.30e+00
2007 05 05  2140    54225   78000      0    1.91e+00    0    1.34e+00
2007 05 05  2145    54225   78300      0    1.88e+00    0    1.31e+00
2007 05 05  2150    54225   78600      0    1.88e+00    0    1.31e+00
2007 05 05  2155    54225   78900      0    1.90e+00    0    1.33e+00
2007 05 05  2200    54225   79200      0    1.91e+00    0    1.34e+00
2007 05 05  2205    54225   79500      0    1.90e+00    0    1.34e+00
2007 05 05  2210    54225   79800      0    1.89e+00    0    1.31e+00
2007 05 05  2215    54225   80100      0    1.92e+00    0    1.34e+00
2007 05 05  2220    54225   80400      0    1.85e+00    0    1.28e+00
2007 05 05  2225    54225   80700      0    1.87e+00    0    1.30e+00
2007 05 05  2230    54225   81000      0    1.89e+00    0    1.33e+00
2007 05 05  2235    54225   81300      0    1.87e+00    0    1.32e+00
2007 05 05  2240    54225   81600      0    1.88e+00    0    1.31e+00
2007 05 05  2245    54225   81900      0    1.88e+00    0    1.31e+00
2007 05 05  2250    54225   82200      0    1.85e+00    0    1.29e+00
2007 05 05  2255    54225   82500      0    1.85e+00    0    1.29e+00
2007 05 05  2300    54225   82800      0    1.89e+00    0    1.32e+00
2007 05 05  2305    54225   83100      0    1.87e+00    0    1.30e+00
2007 05 05  2310    54225   83400      0    1.90e+00    0    1.32e+00
2007 05 05  2315    54225   83700      0    1.87e+00    0    1.30e+00
2007 05 05  2320    54225   84000      0    1.81e+00    0    1.27e+00
2007 05 05  2325    54225   84300      0    1.91e+00    0    1.34e+00
2007 05 05  2330    54225   84600      0    1.91e+00    0    1.33e+00
2007 05 05  2335    54225   84900      0    1.86e+00    0    1.30e+00
2007 05 05  2340    54225   85200      0    1.88e+00    0    1.32e+00
2007 05 05  2345    54225   85500      0    1.90e+00    0    1.34e+00
2007 05 05  2350    54225   85800      0    1.88e+00    0    1.31e+00
2007 05 05  2355    54225   86100      0    1.90e+00    0    1.34e+00
